%OpenBCI Raw EEG Data
%Number of channels = 8
%Sample Rate = 250.0 Hz
%First Column = SampleIndex
%Last Column = Timestamp 
%Other Columns = EEG data in microvolts followed by Accel Data (in G) interleaved with Aux Data
0, 0.00, 0.00, 0.00, 0.00, 0.00, 0.00, 0.00, 0.00, 0.014, -0.036, 1.030, 19:01:20.195, 1551484880195
1, -6418.50, 0.00, 0.00, 0.00, 0.00, 0.00, 0.00, 0.00, 0.000, 0.000, 0.000, 19:01:20.211, 1551484880211
2, -6419.35, 0.00, 0.00, 0.00, 0.00, 0.00, 0.00, 0.00, 0.000, 0.000, 0.000, 19:01:20.217, 1551484880217
3, -6429.26, 0.00, 0.00, 0.00, 0.00, 0.00, 0.00, 0.00, 0.000, 0.000, 0.000, 19:01:20.218, 1551484880218
4, -6433.14, 0.00, 0.00, 0.00, 0.00, 0.00, 0.00, 0.00, 0.000, 0.000, 0.000, 19:01:20.224, 1551484880224
5, -6412.07, 0.00, 0.00, 0.00, 0.00, 0.00, 0.00, 0.00, 0.000, 0.000, 0.000, 19:01:20.224, 1551484880224
6, -6415.42, 0.00, 0.00, 0.00, 0.00, 0.00, 0.00, 0.00, 0.000, 0.000, 0.000, 19:01:20.232, 1551484880232
7, -6438.24, 0.00, 0.00, 0.00, 0.00, 0.00, 0.00, 0.00, 0.010, -0.040, 1.026, 19:01:20.232, 1551484880232
8, -6457.02, 0.00, 0.00, 0.00, 0.00, 0.00, 0.00, 0.00, 0.000, 0.000, 0.000, 19:01:20.240, 1551484880240
9, -6436.79, 0.00, 0.00, 0.00, 0.00, 0.00, 0.00, 0.00, 0.000, 0.000, 0.000, 19:01:20.240, 1551484880240
10, -6438.02, 0.00, 0.00, 0.00, 0.00, 0.00, 0.00, 0.00, 0.000, 0.000, 0.000, 19:01:20.247, 1551484880247
11, -6433.70, 0.00, 0.00, 0.00, 0.00, 0.00, 0.00, 0.00, 0.000, 0.000, 0.000, 19:01:20.247, 1551484880247
12, -6441.86, 0.00, 0.00, 0.00, 0.00, 0.00, 0.00, 0.00, 0.000, 0.000, 0.000, 19:01:20.255, 1551484880255
13, -6422.59, 0.00, 0.00, 0.00, 0.00, 0.00, 0.00, 0.00, 0.000, 0.000, 0.000, 19:01:20.255, 1551484880255
14, -6414.48, 0.00, 0.00, 0.00, 0.00, 0.00, 0.00, 0.00, 0.000, 0.000, 0.000, 19:01:20.261, 1551484880261
15, -6424.72, 0.00, 0.00, 0.00, 0.00, 0.00, 0.00, 0.00, 0.000, 0.000, 0.000, 19:01:20.270, 1551484880270
16, -6434.20, 0.00, 0.00, 0.00, 0.00, 0.00, 0.00, 0.00, 0.000, 0.000, 0.000, 19:01:20.270, 1551484880270
17, -6419.44, 0.00, 0.00, 0.00, 0.00, 0.00, 0.00, 0.00, 0.014, -0.038, 1.040, 19:01:20.277, 1551484880277
18, -6412.29, 0.00, 0.00, 0.00, 0.00, 0.00, 0.00, 0.00, 0.000, 0.000, 0.000, 19:01:20.277, 1551484880277
19, -6423.47, 0.00, 0.00, 0.00, 0.00, 0.00, 0.00, 0.00, 0.000, 0.000, 0.000, 19:01:20.284, 1551484880284
20, -6435.87, 0.00, 0.00, 0.00, 0.00, 0.00, 0.00, 0.00, 0.000, 0.000, 0.000, 19:01:20.284, 1551484880284
21, -6428.09, 0.00, 0.00, 0.00, 0.00, 0.00, 0.00, 0.00, 0.000, 0.000, 0.000, 19:01:20.292, 1551484880292
22, -6415.44, 0.00, 0.00, 0.00, 0.00, 0.00, 0.00, 0.00, 0.000, 0.000, 0.000, 19:01:20.292, 1551484880292
23, -6427.71, 0.00, 0.00, 0.00, 0.00, 0.00, 0.00, 0.00, 0.000, 0.000, 0.000, 19:01:20.300, 1551484880300
24, -6442.69, 0.00, 0.00, 0.00, 0.00, 0.00, 0.00, 0.00, 0.000, 0.000, 0.000, 19:01:20.300, 1551484880300
25, -6436.72, 0.00, 0.00, 0.00, 0.00, 0.00, 0.00, 0.00, 0.000, 0.000, 0.000, 19:01:20.307, 1551484880307
26, -6416.07, 0.00, 0.00, 0.00, 0.00, 0.00, 0.00, 0.00, 0.000, 0.000, 0.000, 19:01:20.307, 1551484880307
27, -6423.24, 0.00, 0.00, 0.00, 0.00, 0.00, 0.00, 0.00, 0.020, -0.040, 1.034, 19:01:20.318, 1551484880318
28, -6437.50, 0.00, 0.00, 0.00, 0.00, 0.00, 0.00, 0.00, 0.000, 0.000, 0.000, 19:01:20.319, 1551484880319
29, -6446.85, 0.00, 0.00, 0.00, 0.00, 0.00, 0.00, 0.00, 0.000, 0.000, 0.000, 19:01:20.324, 1551484880324
30, -6423.60, 0.00, 0.00, 0.00, 0.00, 0.00, 0.00, 0.00, 0.000, 0.000, 0.000, 19:01:20.325, 1551484880325
31, -6430.28, 0.00, 0.00, 0.00, 0.00, 0.00, 0.00, 0.00, 0.000, 0.000, 0.000, 19:01:20.331, 1551484880331
32, -6448.39, 0.00, 0.00, 0.00, 0.00, 0.00, 0.00, 0.00, 0.000, 0.000, 0.000, 19:01:20.337, 1551484880337
33, -6456.95, 0.00, 0.00, 0.00, 0.00, 0.00, 0.00, 0.00, 0.000, 0.000, 0.000, 19:01:20.338, 1551484880338
34, -6430.66, 0.00, 0.00, 0.00, 0.00, 0.00, 0.00, 0.00, 0.000, 0.000, 0.000, 19:01:20.345, 1551484880345
35, -6421.68, 0.00, 0.00, 0.00, 0.00, 0.00, 0.00, 0.00, 0.000, 0.000, 0.000, 19:01:20.345, 1551484880345
36, -6434.89, 0.00, 0.00, 0.00, 0.00, 0.00, 0.00, 0.00, 0.000, 0.000, 0.000, 19:01:20.352, 1551484880352
37, -6449.64, 0.00, 0.00, 0.00, 0.00, 0.00, 0.00, 0.00, 0.018, -0.032, 1.032, 19:01:20.353, 1551484880353
38, -6430.42, 0.00, 0.00, 0.00, 0.00, 0.00, 0.00, 0.00, 0.000, 0.000, 0.000, 19:01:20.359, 1551484880359
39, -6421.14, 0.00, 0.00, 0.00, 0.00, 0.00, 0.00, 0.00, 0.000, 0.000, 0.000, 19:01:20.359, 1551484880359
40, -6435.63, 0.00, 0.00, 0.00, 0.00, 0.00, 0.00, 0.00, 0.000, 0.000, 0.000, 19:01:20.367, 1551484880367
41, -6443.16, 0.00, 0.00, 0.00, 0.00, 0.00, 0.00, 0.00, 0.000, 0.000, 0.000, 19:01:20.367, 1551484880367
42, -6425.03, 0.00, 0.00, 0.00, 0.00, 0.00, 0.00, 0.00, 0.000, 0.000, 0.000, 19:01:20.375, 1551484880375
43, -6417.14, 0.00, 0.00, 0.00, 0.00, 0.00, 0.00, 0.00, 0.000, 0.000, 0.000, 19:01:20.375, 1551484880375
44, -6427.06, 0.00, 0.00, 0.00, 0.00, 0.00, 0.00, 0.00, 0.000, 0.000, 0.000, 19:01:20.382, 1551484880382
45, -6442.24, 0.00, 0.00, 0.00, 0.00, 0.00, 0.00, 0.00, 0.000, 0.000, 0.000, 19:01:20.382, 1551484880382
46, -6433.26, 0.00, 0.00, 0.00, 0.00, 0.00, 0.00, 0.00, 0.000, 0.000, 0.000, 19:01:20.389, 1551484880389
47, -6422.35, 0.00, 0.00, 0.00, 0.00, 0.00, 0.00, 0.00, 0.014, -0.038, 1.030, 19:01:20.397, 1551484880397
48, -6433.39, 0.00, 0.00, 0.00, 0.00, 0.00, 0.00, 0.00, 0.000, 0.000, 0.000, 19:01:20.397, 1551484880397
49, -6450.31, 0.00, 0.00, 0.00, 0.00, 0.00, 0.00, 0.00, 0.000, 0.000, 0.000, 19:01:20.405, 1551484880405
50, -6451.07, 0.00, 0.00, 0.00, 0.00, 0.00, 0.00, 0.00, 0.000, 0.000, 0.000, 19:01:20.405, 1551484880405
51, -6434.60, 0.00, 0.00, 0.00, 0.00, 0.00, 0.00, 0.00, 0.000, 0.000, 0.000, 19:01:20.412, 1551484880412
52, -6439.58, 0.00, 0.00, 0.00, 0.00, 0.00, 0.00, 0.00, 0.000, 0.000, 0.000, 19:01:20.412, 1551484880412
53, -6437.32, 0.00, 0.00, 0.00, 0.00, 0.00, 0.00, 0.00, 0.000, 0.000, 0.000, 19:01:20.420, 1551484880420
54, -6431.85, 0.00, 0.00, 0.00, 0.00, 0.00, 0.00, 0.00, 0.000, 0.000, 0.000, 19:01:20.420, 1551484880420
55, -6414.79, 0.00, 0.00, 0.00, 0.00, 0.00, 0.00, 0.00, 0.000, 0.000, 0.000, 19:01:20.427, 1551484880427
56, -6420.47, 0.00, 0.00, 0.00, 0.00, 0.00, 0.00, 0.00, 0.000, 0.000, 0.000, 19:01:20.427, 1551484880427
57, -6434.02, 0.00, 0.00, 0.00, 0.00, 0.00, 0.00, 0.00, 0.014, -0.038, 1.032, 19:01:20.435, 1551484880435
58, -6445.24, 0.00, 0.00, 0.00, 0.00, 0.00, 0.00, 0.00, 0.000, 0.000, 0.000, 19:01:20.435, 1551484880435
59, -6425.54, 0.00, 0.00, 0.00, 0.00, 0.00, 0.00, 0.00, 0.000, 0.000, 0.000, 19:01:20.442, 1551484880442
60, -6418.35, 0.00, 0.00, 0.00, 0.00, 0.00, 0.00, 0.00, 0.000, 0.000, 0.000, 19:01:20.442, 1551484880442
61, -6428.90, 0.00, 0.00, 0.00, 0.00, 0.00, 0.00, 0.00, 0.000, 0.000, 0.000, 19:01:20.449, 1551484880449
62, -6436.61, 0.00, 0.00, 0.00, 0.00, 0.00, 0.00, 0.00, 0.000, 0.000, 0.000, 19:01:20.457, 1551484880457
63, -6427.49, 0.00, 0.00, 0.00, 0.00, 0.00, 0.00, 0.00, 0.000, 0.000, 0.000, 19:01:20.457, 1551484880457
64, -6424.61, 0.00, 0.00, 0.00, 0.00, 0.00, 0.00, 0.00, 0.000, 0.000, 0.000, 19:01:20.464, 1551484880464
65, -6433.14, 0.00, 0.00, 0.00, 0.00, 0.00, 0.00, 0.00, 0.000, 0.000, 0.000, 19:01:20.464, 1551484880464
66, -6442.20, 0.00, 0.00, 0.00, 0.00, 0.00, 0.00, 0.00, 0.000, 0.000, 0.000, 19:01:20.472, 1551484880472
67, -6431.98, 0.00, 0.00, 0.00, 0.00, 0.00, 0.00, 0.00, 0.010, -0.038, 1.030, 19:01:20.472, 1551484880472
68, -6424.76, 0.00, 0.00, 0.00, 0.00, 0.00, 0.00, 0.00, 0.000, 0.000, 0.000, 19:01:20.480, 1551484880480
69, -6432.45, 0.00, 0.00, 0.00, 0.00, 0.00, 0.00, 0.00, 0.000, 0.000, 0.000, 19:01:20.480, 1551484880480
70, -6434.60, 0.00, 0.00, 0.00, 0.00, 0.00, 0.00, 0.00, 0.000, 0.000, 0.000, 19:01:20.488, 1551484880488
71, -6434.80, 0.00, 0.00, 0.00, 0.00, 0.00, 0.00, 0.00, 0.000, 0.000, 0.000, 19:01:20.488, 1551484880488
72, -6424.20, 0.00, 0.00, 0.00, 0.00, 0.00, 0.00, 0.00, 0.000, 0.000, 0.000, 19:01:20.494, 1551484880494
73, -6423.69, 0.00, 0.00, 0.00, 0.00, 0.00, 0.00, 0.00, 0.000, 0.000, 0.000, 19:01:20.495, 1551484880495
74, -6431.38, 0.00, 0.00, 0.00, 0.00, 0.00, 0.00, 0.00, 0.000, 0.000, 0.000, 19:01:20.502, 1551484880502
75, -6426.89, 0.00, 0.00, 0.00, 0.00, 0.00, 0.00, 0.00, 0.000, 0.000, 0.000, 19:01:20.502, 1551484880502
76, -6421.63, 0.00, 0.00, 0.00, 0.00, 0.00, 0.00, 0.00, 0.016, -0.036, 1.026, 19:01:20.509, 1551484880509
77, -6427.51, 0.00, 0.00, 0.00, 0.00, 0.00, 0.00, 0.00, 0.000, 0.000, 0.000, 19:01:20.517, 1551484880517
78, -6432.61, 0.00, 0.00, 0.00, 0.00, 0.00, 0.00, 0.00, 0.000, 0.000, 0.000, 19:01:20.517, 1551484880517
79, -6433.37, 0.00, 0.00, 0.00, 0.00, 0.00, 0.00, 0.00, 0.000, 0.000, 0.000, 19:01:20.526, 1551484880526
80, -6410.61, 0.00, 0.00, 0.00, 0.00, 0.00, 0.00, 0.00, 0.000, 0.000, 0.000, 19:01:20.526, 1551484880526
81, -6408.94, 0.00, 0.00, 0.00, 0.00, 0.00, 0.00, 0.00, 0.000, 0.000, 0.000, 19:01:20.532, 1551484880532
82, -6414.79, 0.00, 0.00, 0.00, 0.00, 0.00, 0.00, 0.00, 0.000, 0.000, 0.000, 19:01:20.532, 1551484880532
83, -6425.43, 0.00, 0.00, 0.00, 0.00, 0.00, 0.00, 0.00, 0.000, 0.000, 0.000, 19:01:20.540, 1551484880540
84, -6412.13, 0.00, 0.00, 0.00, 0.00, 0.00, 0.00, 0.00, 0.000, 0.000, 0.000, 19:01:20.540, 1551484880540
85, -6400.47, 0.00, 0.00, 0.00, 0.00, 0.00, 0.00, 0.00, 0.000, 0.000, 0.000, 19:01:20.547, 1551484880547
86, -6405.23, 0.00, 0.00, 0.00, 0.00, 0.00, 0.00, 0.00, 0.012, -0.038, 1.028, 19:01:20.547, 1551484880547
87, -6416.76, 0.00, 0.00, 0.00, 0.00, 0.00, 0.00, 0.00, 0.000, 0.000, 0.000, 19:01:20.554, 1551484880554
88, -6408.31, 0.00, 0.00, 0.00, 0.00, 0.00, 0.00, 0.00, 0.000, 0.000, 0.000, 19:01:20.555, 1551484880555
89, -6407.48, 0.00, 0.00, 0.00, 0.00, 0.00, 0.00, 0.00, 0.000, 0.000, 0.000, 19:01:20.563, 1551484880563
90, -6416.94, 0.00, 0.00, 0.00, 0.00, 0.00, 0.00, 0.00, 0.000, 0.000, 0.000, 19:01:20.563, 1551484880563
91, -6427.67, 0.00, 0.00, 0.00, 0.00, 0.00, 0.00, 0.00, 0.000, 0.000, 0.000, 19:01:20.570, 1551484880570
92, -6420.25, 0.00, 0.00, 0.00, 0.00, 0.00, 0.00, 0.00, 0.000, 0.000, 0.000, 19:01:20.570, 1551484880570
93, -6408.51, 0.00, 0.00, 0.00, 0.00, 0.00, 0.00, 0.00, 0.000, 0.000, 0.000, 19:01:20.577, 1551484880577
94, -6414.86, 0.00, 0.00, 0.00, 0.00, 0.00, 0.00, 0.00, 0.000, 0.000, 0.000, 19:01:20.584, 1551484880584
95, -6429.17, 0.00, 0.00, 0.00, 0.00, 0.00, 0.00, 0.00, 0.000, 0.000, 0.000, 19:01:20.584, 1551484880584
96, -6430.98, 0.00, 0.00, 0.00, 0.00, 0.00, 0.00, 0.00, 0.016, -0.034, 1.024, 19:01:20.592, 1551484880592
97, -6422.08, 0.00, 0.00, 0.00, 0.00, 0.00, 0.00, 0.00, 0.000, 0.000, 0.000, 19:01:20.592, 1551484880592
98, -6431.96, 0.00, 0.00, 0.00, 0.00, 0.00, 0.00, 0.00, 0.000, 0.000, 0.000, 19:01:20.599, 1551484880599
99, -6440.45, 0.00, 0.00, 0.00, 0.00, 0.00, 0.00, 0.00, 0.000, 0.000, 0.000, 19:01:20.600, 1551484880600
100, -6431.63, 0.00, 0.00, 0.00, 0.00, 0.00, 0.00, 0.00, 0.000, 0.000, 0.000, 19:01:20.607, 1551484880607
101, -6407.55, 0.00, 0.00, 0.00, 0.00, 0.00, 0.00, 0.00, 0.000, 0.000, 0.000, 19:01:20.607, 1551484880607
102, -6407.71, 0.00, 0.00, 0.00, 0.00, 0.00, 0.00, 0.00, 0.000, 0.000, 0.000, 19:01:20.615, 1551484880615
103, -6412.80, 0.00, 0.00, 0.00, 0.00, 0.00, 0.00, 0.00, 0.000, 0.000, 0.000, 19:01:20.615, 1551484880615
104, -6416.34, 0.00, 0.00, 0.00, 0.00, 0.00, 0.00, 0.00, 0.000, 0.000, 0.000, 19:01:20.623, 1551484880623
105, -6403.19, 0.00, 0.00, 0.00, 0.00, 0.00, 0.00, 0.00, 0.000, 0.000, 0.000, 19:01:20.623, 1551484880623
106, -6392.44, 0.00, 0.00, 0.00, 0.00, 0.00, 0.00, 0.00, 0.020, -0.036, 1.024, 19:01:20.629, 1551484880629
107, -6408.56, 0.00, 0.00, 0.00, 0.00, 0.00, 0.00, 0.00, 0.000, 0.000, 0.000, 19:01:20.630, 1551484880630
108, -6414.15, 0.00, 0.00, 0.00, 0.00, 0.00, 0.00, 0.00, 0.000, 0.000, 0.000, 19:01:20.636, 1551484880636
109, -6407.82, 0.00, 0.00, 0.00, 0.00, 0.00, 0.00, 0.00, 0.000, 0.000, 0.000, 19:01:20.644, 1551484880644
110, -6416.69, 0.00, 0.00, 0.00, 0.00, 0.00, 0.00, 0.00, 0.000, 0.000, 0.000, 19:01:20.645, 1551484880645
111, -6423.58, 0.00, 0.00, 0.00, 0.00, 0.00, 0.00, 0.00, 0.000, 0.000, 0.000, 19:01:20.653, 1551484880653
112, -6429.84, 0.00, 0.00, 0.00, 0.00, 0.00, 0.00, 0.00, 0.000, 0.000, 0.000, 19:01:20.653, 1551484880653
113, -6426.91, 0.00, 0.00, 0.00, 0.00, 0.00, 0.00, 0.00, 0.000, 0.000, 0.000, 19:01:20.659, 1551484880659
114, -6428.47, 0.00, 0.00, 0.00, 0.00, 0.00, 0.00, 0.00, 0.000, 0.000, 0.000, 19:01:20.659, 1551484880659
115, -6433.01, 0.00, 0.00, 0.00, 0.00, 0.00, 0.00, 0.00, 0.000, 0.000, 0.000, 19:01:20.667, 1551484880667
116, -6437.82, 0.00, 0.00, 0.00, 0.00, 0.00, 0.00, 0.00, 0.014, -0.040, 1.026, 19:01:20.667, 1551484880667
117, -6433.99, 0.00, 0.00, 0.00, 0.00, 0.00, 0.00, 0.00, 0.000, 0.000, 0.000, 19:01:20.675, 1551484880675
118, -6418.66, 0.00, 0.00, 0.00, 0.00, 0.00, 0.00, 0.00, 0.000, 0.000, 0.000, 19:01:20.675, 1551484880675
119, -6416.60, 0.00, 0.00, 0.00, 0.00, 0.00, 0.00, 0.00, 0.000, 0.000, 0.000, 19:01:20.682, 1551484880682
120, -6420.49, 0.00, 0.00, 0.00, 0.00, 0.00, 0.00, 0.00, 0.000, 0.000, 0.000, 19:01:20.682, 1551484880682
121, -6421.75, 0.00, 0.00, 0.00, 0.00, 0.00, 0.00, 0.00, 0.000, 0.000, 0.000, 19:01:20.690, 1551484880690
122, -6412.67, 0.00, 0.00, 0.00, 0.00, 0.00, 0.00, 0.00, 0.000, 0.000, 0.000, 19:01:20.690, 1551484880690
123, -6422.51, 0.00, 0.00, 0.00, 0.00, 0.00, 0.00, 0.00, 0.000, 0.000, 0.000, 19:01:20.697, 1551484880697
124, -6431.80, 0.00, 0.00, 0.00, 0.00, 0.00, 0.00, 0.00, 0.000, 0.000, 0.000, 19:01:20.705, 1551484880705
125, -6428.67, 0.00, 0.00, 0.00, 0.00, 0.00, 0.00, 0.00, 0.000, 0.000, 0.000, 19:01:20.705, 1551484880705
126, -6412.22, 0.00, 0.00, 0.00, 0.00, 0.00, 0.00, 0.00, 0.016, -0.038, 1.028, 19:01:20.712, 1551484880712
127, -6420.02, 0.00, 0.00, 0.00, 0.00, 0.00, 0.00, 0.00, 0.000, 0.000, 0.000, 19:01:20.712, 1551484880712
128, -6427.11, 0.00, 0.00, 0.00, 0.00, 0.00, 0.00, 0.00, 0.000, 0.000, 0.000, 19:01:20.719, 1551484880719
129, -6428.88, 0.00, 0.00, 0.00, 0.00, 0.00, 0.00, 0.00, 0.000, 0.000, 0.000, 19:01:20.719, 1551484880719
130, -6412.96, 0.00, 0.00, 0.00, 0.00, 0.00, 0.00, 0.00, 0.000, 0.000, 0.000, 19:01:20.727, 1551484880727
131, -6419.11, 0.00, 0.00, 0.00, 0.00, 0.00, 0.00, 0.00, 0.000, 0.000, 0.000, 19:01:20.727, 1551484880727
132, -6428.09, 0.00, 0.00, 0.00, 0.00, 0.00, 0.00, 0.00, 0.000, 0.000, 0.000, 19:01:20.734, 1551484880734
133, -6436.77, 0.00, 0.00, 0.00, 0.00, 0.00, 0.00, 0.00, 0.000, 0.000, 0.000, 19:01:20.735, 1551484880735
134, -6435.92, 0.00, 0.00, 0.00, 0.00, 0.00, 0.00, 0.00, 0.000, 0.000, 0.000, 19:01:20.742, 1551484880742
135, -6432.88, 0.00, 0.00, 0.00, 0.00, 0.00, 0.00, 0.00, 0.020, -0.032, 1.030, 19:01:20.742, 1551484880742
136, -6431.36, 0.00, 0.00, 0.00, 0.00, 0.00, 0.00, 0.00, 0.000, 0.000, 0.000, 19:01:20.750, 1551484880750
137, -6437.50, 0.00, 0.00, 0.00, 0.00, 0.00, 0.00, 0.00, 0.000, 0.000, 0.000, 19:01:20.750, 1551484880750
138, -6429.64, 0.00, 0.00, 0.00, 0.00, 0.00, 0.00, 0.00, 0.000, 0.000, 0.000, 19:01:20.757, 1551484880757
139, -6417.54, 0.00, 0.00, 0.00, 0.00, 0.00, 0.00, 0.00, 0.000, 0.000, 0.000, 19:01:20.764, 1551484880764
140, -6419.80, 0.00, 0.00, 0.00, 0.00, 0.00, 0.00, 0.00, 0.000, 0.000, 0.000, 19:01:20.764, 1551484880764
141, -6426.84, 0.00, 0.00, 0.00, 0.00, 0.00, 0.00, 0.00, 0.000, 0.000, 0.000, 19:01:20.772, 1551484880772
142, -6427.89, 0.00, 0.00, 0.00, 0.00, 0.00, 0.00, 0.00, 0.000, 0.000, 0.000, 19:01:20.772, 1551484880772
143, -6411.73, 0.00, 0.00, 0.00, 0.00, 0.00, 0.00, 0.00, 0.000, 0.000, 0.000, 19:01:20.780, 1551484880780
144, -6419.44, 0.00, 0.00, 0.00, 0.00, 0.00, 0.00, 0.00, 0.000, 0.000, 0.000, 19:01:20.781, 1551484880781
145, -6428.38, 0.00, 0.00, 0.00, 0.00, 0.00, 0.00, 0.00, 0.014, -0.040, 1.030, 19:01:20.788, 1551484880788
146, -6420.16, 0.00, 0.00, 0.00, 0.00, 0.00, 0.00, 0.00, 0.000, 0.000, 0.000, 19:01:20.788, 1551484880788
147, -6406.64, 0.00, 0.00, 0.00, 0.00, 0.00, 0.00, 0.00, 0.000, 0.000, 0.000, 19:01:20.794, 1551484880794
148, -6409.72, 0.00, 0.00, 0.00, 0.00, 0.00, 0.00, 0.00, 0.000, 0.000, 0.000, 19:01:20.794, 1551484880794
149, -6417.72, 0.00, 0.00, 0.00, 0.00, 0.00, 0.00, 0.00, 0.000, 0.000, 0.000, 19:01:20.802, 1551484880802
150, -6425.70, 0.00, 0.00, 0.00, 0.00, 0.00, 0.00, 0.00, 0.000, 0.000, 0.000, 19:01:20.802, 1551484880802
151, -6413.27, 0.00, 0.00, 0.00, 0.00, 0.00, 0.00, 0.00, 0.000, 0.000, 0.000, 19:01:20.810, 1551484880810
152, -6397.11, 0.00, 0.00, 0.00, 0.00, 0.00, 0.00, 0.00, 0.000, 0.000, 0.000, 19:01:20.810, 1551484880810
153, -6411.33, 0.00, 0.00, 0.00, 0.00, 0.00, 0.00, 0.00, 0.000, 0.000, 0.000, 19:01:20.818, 1551484880818
154, -6426.22, 0.00, 0.00, 0.00, 0.00, 0.00, 0.00, 0.00, 0.000, 0.000, 0.000, 19:01:20.818, 1551484880818
155, -6409.94, 0.00, 0.00, 0.00, 0.00, 0.00, 0.00, 0.00, 0.016, -0.040, 1.030, 19:01:20.824, 1551484880824
156, -6406.59, 0.00, 0.00, 0.00, 0.00, 0.00, 0.00, 0.00, 0.000, 0.000, 0.000, 19:01:20.832, 1551484880832
157, -6409.83, 0.00, 0.00, 0.00, 0.00, 0.00, 0.00, 0.00, 0.000, 0.000, 0.000, 19:01:20.832, 1551484880832
158, -6419.91, 0.00, 0.00, 0.00, 0.00, 0.00, 0.00, 0.00, 0.000, 0.000, 0.000, 19:01:20.840, 1551484880840
159, -6412.83, 0.00, 0.00, 0.00, 0.00, 0.00, 0.00, 0.00, 0.000, 0.000, 0.000, 19:01:20.840, 1551484880840
160, -6404.89, 0.00, 0.00, 0.00, 0.00, 0.00, 0.00, 0.00, 0.000, 0.000, 0.000, 19:01:20.847, 1551484880847
161, -6407.93, 0.00, 0.00, 0.00, 0.00, 0.00, 0.00, 0.00, 0.000, 0.000, 0.000, 19:01:20.847, 1551484880847
162, -6417.10, 0.00, 0.00, 0.00, 0.00, 0.00, 0.00, 0.00, 0.000, 0.000, 0.000, 19:01:20.855, 1551484880855
163, -6411.98, 0.00, 0.00, 0.00, 0.00, 0.00, 0.00, 0.00, 0.000, 0.000, 0.000, 19:01:20.855, 1551484880855
164, -6399.44, 0.00, 0.00, 0.00, 0.00, 0.00, 0.00, 0.00, 0.000, 0.000, 0.000, 19:01:20.862, 1551484880862
165, -6405.12, 0.00, 0.00, 0.00, 0.00, 0.00, 0.00, 0.00, 0.016, -0.038, 1.034, 19:01:20.863, 1551484880863
166, -6409.41, 0.00, 0.00, 0.00, 0.00, 0.00, 0.00, 0.00, 0.000, 0.000, 0.000, 19:01:20.870, 1551484880870
167, -6402.39, 0.00, 0.00, 0.00, 0.00, 0.00, 0.00, 0.00, 0.000, 0.000, 0.000, 19:01:20.870, 1551484880870
168, -6391.97, 0.00, 0.00, 0.00, 0.00, 0.00, 0.00, 0.00, 0.000, 0.000, 0.000, 19:01:20.877, 1551484880877
169, -6404.91, 0.00, 0.00, 0.00, 0.00, 0.00, 0.00, 0.00, 0.000, 0.000, 0.000, 19:01:20.877, 1551484880877
170, -6409.12, 0.00, 0.00, 0.00, 0.00, 0.00, 0.00, 0.00, 0.000, 0.000, 0.000, 19:01:20.884, 1551484880884
171, -6412.31, 0.00, 0.00, 0.00, 0.00, 0.00, 0.00, 0.00, 0.000, 0.000, 0.000, 19:01:20.892, 1551484880892
172, -6392.00, 0.00, 0.00, 0.00, 0.00, 0.00, 0.00, 0.00, 0.000, 0.000, 0.000, 19:01:20.892, 1551484880892
173, -6393.69, 0.00, 0.00, 0.00, 0.00, 0.00, 0.00, 0.00, 0.000, 0.000, 0.000, 19:01:20.899, 1551484880899
174, -6402.63, 0.00, 0.00, 0.00, 0.00, 0.00, 0.00, 0.00, 0.000, 0.000, 0.000, 19:01:20.899, 1551484880899
175, -6404.58, 0.00, 0.00, 0.00, 0.00, 0.00, 0.00, 0.00, 0.016, -0.036, 1.036, 19:01:20.907, 1551484880907
176, -6391.79, 0.00, 0.00, 0.00, 0.00, 0.00, 0.00, 0.00, 0.000, 0.000, 0.000, 19:01:20.907, 1551484880907
177, -6393.58, 0.00, 0.00, 0.00, 0.00, 0.00, 0.00, 0.00, 0.000, 0.000, 0.000, 19:01:20.915, 1551484880915
178, -6402.48, 0.00, 0.00, 0.00, 0.00, 0.00, 0.00, 0.00, 0.000, 0.000, 0.000, 19:01:20.915, 1551484880915
179, -6414.35, 0.00, 0.00, 0.00, 0.00, 0.00, 0.00, 0.00, 0.000, 0.000, 0.000, 19:01:20.923, 1551484880923
180, -6402.97, 0.00, 0.00, 0.00, 0.00, 0.00, 0.00, 0.00, 0.000, 0.000, 0.000, 19:01:20.923, 1551484880923
181, -6391.19, 0.00, 0.00, 0.00, 0.00, 0.00, 0.00, 0.00, 0.000, 0.000, 0.000, 19:01:20.929, 1551484880929
182, -6394.48, 0.00, 0.00, 0.00, 0.00, 0.00, 0.00, 0.00, 0.000, 0.000, 0.000, 19:01:20.930, 1551484880930
183, -6406.17, 0.00, 0.00, 0.00, 0.00, 0.00, 0.00, 0.00, 0.000, 0.000, 0.000, 19:01:20.938, 1551484880938
184, -6391.41, 0.00, 0.00, 0.00, 0.00, 0.00, 0.00, 0.00, 0.000, 0.000, 0.000, 19:01:20.938, 1551484880938
185, -6390.30, 0.00, 0.00, 0.00, 0.00, 0.00, 0.00, 0.00, 0.012, -0.036, 1.030, 19:01:20.944, 1551484880944
186, -6394.41, 0.00, 0.00, 0.00, 0.00, 0.00, 0.00, 0.00, 0.000, 0.000, 0.000, 19:01:20.953, 1551484880953
187, -6408.27, 0.00, 0.00, 0.00, 0.00, 0.00, 0.00, 0.00, 0.000, 0.000, 0.000, 19:01:20.953, 1551484880953
188, -6413.54, 0.00, 0.00, 0.00, 0.00, 0.00, 0.00, 0.00, 0.000, 0.000, 0.000, 19:01:20.959, 1551484880959
189, -6398.10, 0.00, 0.00, 0.00, 0.00, 0.00, 0.00, 0.00, 0.000, 0.000, 0.000, 19:01:20.959, 1551484880959
190, -6409.88, 0.00, 0.00, 0.00, 0.00, 0.00, 0.00, 0.00, 0.000, 0.000, 0.000, 19:01:20.967, 1551484880967
191, -6419.49, 0.00, 0.00, 0.00, 0.00, 0.00, 0.00, 0.00, 0.000, 0.000, 0.000, 19:01:20.967, 1551484880967
192, -6412.31, 0.00, 0.00, 0.00, 0.00, 0.00, 0.00, 0.00, 0.000, 0.000, 0.000, 19:01:20.975, 1551484880975
193, -6396.67, 0.00, 0.00, 0.00, 0.00, 0.00, 0.00, 0.00, 0.000, 0.000, 0.000, 19:01:20.975, 1551484880975
194, -6405.07, 0.00, 0.00, 0.00, 0.00, 0.00, 0.00, 0.00, 0.000, 0.000, 0.000, 19:01:20.982, 1551484880982
195, -6426.89, 0.00, 0.00, 0.00, 0.00, 0.00, 0.00, 0.00, 0.008, -0.036, 1.034, 19:01:20.982, 1551484880982
196, -6426.06, 0.00, 0.00, 0.00, 0.00, 0.00, 0.00, 0.00, 0.000, 0.000, 0.000, 19:01:20.990, 1551484880990
197, -6418.12, 0.00, 0.00, 0.00, 0.00, 0.00, 0.00, 0.00, 0.000, 0.000, 0.000, 19:01:20.990, 1551484880990
198, -6415.49, 0.00, 0.00, 0.00, 0.00, 0.00, 0.00, 0.00, 0.000, 0.000, 0.000, 19:01:20.998, 1551484880998
199, -6422.21, 0.00, 0.00, 0.00, 0.00, 0.00, 0.00, 0.00, 0.000, 0.000, 0.000, 19:01:20.998, 1551484880998
200, -6422.93, 0.00, 0.00, 0.00, 0.00, 0.00, 0.00, 0.00, 0.000, 0.000, 0.000, 19:01:21.005, 1551484881005
201, -6403.86, 0.00, 0.00, 0.00, 0.00, 0.00, 0.00, 0.00, 0.000, 0.000, 0.000, 19:01:21.011, 1551484881011
202, -6408.56, 0.00, 0.00, 0.00, 0.00, 0.00, 0.00, 0.00, 0.000, 0.000, 0.000, 19:01:21.011, 1551484881011
203, -6416.58, 0.00, 0.00, 0.00, 0.00, 0.00, 0.00, 0.00, 0.000, 0.000, 0.000, 19:01:21.019, 1551484881019
204, -6429.17, 0.00, 0.00, 0.00, 0.00, 0.00, 0.00, 0.00, 0.012, -0.034, 1.032, 19:01:21.019, 1551484881019
205, -6419.55, 0.00, 0.00, 0.00, 0.00, 0.00, 0.00, 0.00, 0.000, 0.000, 0.000, 19:01:21.028, 1551484881028
206, -6410.84, 0.00, 0.00, 0.00, 0.00, 0.00, 0.00, 0.00, 0.000, 0.000, 0.000, 19:01:21.028, 1551484881028
207, -6421.86, 0.00, 0.00, 0.00, 0.00, 0.00, 0.00, 0.00, 0.000, 0.000, 0.000, 19:01:21.034, 1551484881034
208, -6418.01, 0.00, 0.00, 0.00, 0.00, 0.00, 0.00, 0.00, 0.000, 0.000, 0.000, 19:01:21.035, 1551484881035
209, -6402.68, 0.00, 0.00, 0.00, 0.00, 0.00, 0.00, 0.00, 0.000, 0.000, 0.000, 19:01:21.042, 1551484881042
210, -6405.29, 0.00, 0.00, 0.00, 0.00, 0.00, 0.00, 0.00, 0.000, 0.000, 0.000, 19:01:21.042, 1551484881042
211, -6413.34, 0.00, 0.00, 0.00, 0.00, 0.00, 0.00, 0.00, 0.000, 0.000, 0.000, 19:01:21.050, 1551484881050
212, -6418.01, 0.00, 0.00, 0.00, 0.00, 0.00, 0.00, 0.00, 0.000, 0.000, 0.000, 19:01:21.050, 1551484881050
213, -6413.54, 0.00, 0.00, 0.00, 0.00, 0.00, 0.00, 0.00, 0.000, 0.000, 0.000, 19:01:21.058, 1551484881058
214, -6410.48, 0.00, 0.00, 0.00, 0.00, 0.00, 0.00, 0.00, 0.010, -0.034, 1.028, 19:01:21.058, 1551484881058
215, -6419.67, 0.00, 0.00, 0.00, 0.00, 0.00, 0.00, 0.00, 0.000, 0.000, 0.000, 19:01:21.064, 1551484881064
216, -6423.96, 0.00, 0.00, 0.00, 0.00, 0.00, 0.00, 0.00, 0.000, 0.000, 0.000, 19:01:21.064, 1551484881064
217, -6422.91, 0.00, 0.00, 0.00, 0.00, 0.00, 0.00, 0.00, 0.000, 0.000, 0.000, 19:01:21.072, 1551484881072
218, -6408.85, 0.00, 0.00, 0.00, 0.00, 0.00, 0.00, 0.00, 0.000, 0.000, 0.000, 19:01:21.080, 1551484881080
219, -6415.67, 0.00, 0.00, 0.00, 0.00, 0.00, 0.00, 0.00, 0.000, 0.000, 0.000, 19:01:21.080, 1551484881080
220, -6417.74, 0.00, 0.00, 0.00, 0.00, 0.00, 0.00, 0.00, 0.000, 0.000, 0.000, 19:01:21.087, 1551484881087
221, -6421.92, 0.00, 0.00, 0.00, 0.00, 0.00, 0.00, 0.00, 0.000, 0.000, 0.000, 19:01:21.088, 1551484881088
222, -6422.62, 0.00, 0.00, 0.00, 0.00, 0.00, 0.00, 0.00, 0.000, 0.000, 0.000, 19:01:21.095, 1551484881095
223, -6427.20, 0.00, 0.00, 0.00, 0.00, 0.00, 0.00, 0.00, 0.000, 0.000, 0.000, 19:01:21.095, 1551484881095
224, -6421.92, 0.00, 0.00, 0.00, 0.00, 0.00, 0.00, 0.00, 0.012, -0.036, 1.022, 19:01:21.102, 1551484881102
225, -6430.06, 0.00, 0.00, 0.00, 0.00, 0.00, 0.00, 0.00, 0.000, 0.000, 0.000, 19:01:21.102, 1551484881102
226, -6416.56, 0.00, 0.00, 0.00, 0.00, 0.00, 0.00, 0.00, 0.000, 0.000, 0.000, 19:01:21.110, 1551484881110
227, -6408.96, 0.00, 0.00, 0.00, 0.00, 0.00, 0.00, 0.00, 0.000, 0.000, 0.000, 19:01:21.110, 1551484881110
228, -6417.12, 0.00, 0.00, 0.00, 0.00, 0.00, 0.00, 0.00, 0.000, 0.000, 0.000, 19:01:21.117, 1551484881117
229, -6432.92, 0.00, 0.00, 0.00, 0.00, 0.00, 0.00, 0.00, 0.000, 0.000, 0.000, 19:01:21.117, 1551484881117
230, -6416.63, 0.00, 0.00, 0.00, 0.00, 0.00, 0.00, 0.00, 0.000, 0.000, 0.000, 19:01:21.125, 1551484881125
231, -6406.52, 0.00, 0.00, 0.00, 0.00, 0.00, 0.00, 0.00, 0.000, 0.000, 0.000, 19:01:21.125, 1551484881125
232, -6412.54, 0.00, 0.00, 0.00, 0.00, 0.00, 0.00, 0.00, 0.000, 0.000, 0.000, 19:01:21.132, 1551484881132
233, -6418.04, 0.00, 0.00, 0.00, 0.00, 0.00, 0.00, 0.00, 0.000, 0.000, 0.000, 19:01:21.140, 1551484881140
234, -6407.80, 0.00, 0.00, 0.00, 0.00, 0.00, 0.00, 0.00, 0.012, -0.036, 1.024, 19:01:21.140, 1551484881140
235, -6397.83, 0.00, 0.00, 0.00, 0.00, 0.00, 0.00, 0.00, 0.000, 0.000, 0.000, 19:01:21.146, 1551484881146
236, -6404.22, 0.00, 0.00, 0.00, 0.00, 0.00, 0.00, 0.00, 0.000, 0.000, 0.000, 19:01:21.147, 1551484881147
237, -6415.60, 0.00, 0.00, 0.00, 0.00, 0.00, 0.00, 0.00, 0.000, 0.000, 0.000, 19:01:21.154, 1551484881154
238, -6416.14, 0.00, 0.00, 0.00, 0.00, 0.00, 0.00, 0.00, 0.000, 0.000, 0.000, 19:01:21.154, 1551484881154
239, -6407.28, 0.00, 0.00, 0.00, 0.00, 0.00, 0.00, 0.00, 0.000, 0.000, 0.000, 19:01:21.163, 1551484881163
240, -6416.94, 0.00, 0.00, 0.00, 0.00, 0.00, 0.00, 0.00, 0.000, 0.000, 0.000, 19:01:21.163, 1551484881163
241, -6424.94, 0.00, 0.00, 0.00, 0.00, 0.00, 0.00, 0.00, 0.000, 0.000, 0.000, 19:01:21.170, 1551484881170
242, -6425.48, 0.00, 0.00, 0.00, 0.00, 0.00, 0.00, 0.00, 0.000, 0.000, 0.000, 19:01:21.171, 1551484881171
243, -6407.33, 0.00, 0.00, 0.00, 0.00, 0.00, 0.00, 0.00, 0.000, 0.000, 0.000, 19:01:21.177, 1551484881177
244, -6411.28, 0.00, 0.00, 0.00, 0.00, 0.00, 0.00, 0.00, 0.014, -0.036, 1.028, 19:01:21.177, 1551484881177
245, -6426.04, 0.00, 0.00, 0.00, 0.00, 0.00, 0.00, 0.00, 0.000, 0.000, 0.000, 19:01:21.185, 1551484881185
246, -6422.48, 0.00, 0.00, 0.00, 0.00, 0.00, 0.00, 0.00, 0.000, 0.000, 0.000, 19:01:21.185, 1551484881185
247, -6414.08, 0.00, 0.00, 0.00, 0.00, 0.00, 0.00, 0.00, 0.000, 0.000, 0.000, 19:01:21.192, 1551484881192
248, -6409.97, 0.00, 0.00, 0.00, 0.00, 0.00, 0.00, 0.00, 0.000, 0.000, 0.000, 19:01:21.199, 1551484881199
249, -6411.98, 0.00, 0.00, 0.00, 0.00, 0.00, 0.00, 0.00, 0.000, 0.000, 0.000, 19:01:21.199, 1551484881199
250, -6419.11, 0.00, 0.00, 0.00, 0.00, 0.00, 0.00, 0.00, 0.000, 0.000, 0.000, 19:01:21.207, 1551484881207
251, -6410.26, 0.00, 0.00, 0.00, 0.00, 0.00, 0.00, 0.00, 0.000, 0.000, 0.000, 19:01:21.207, 1551484881207
252, -6405.05, 0.00, 0.00, 0.00, 0.00, 0.00, 0.00, 0.00, 0.000, 0.000, 0.000, 19:01:21.215, 1551484881215
253, -6414.82, 0.00, 0.00, 0.00, 0.00, 0.00, 0.00, 0.00, 0.000, 0.000, 0.000, 19:01:21.215, 1551484881215
254, -6423.11, 0.00, 0.00, 0.00, 0.00, 0.00, 0.00, 0.00, 0.010, -0.036, 1.026, 19:01:21.223, 1551484881223
255, -6406.79, 0.00, 0.00, 0.00, 0.00, 0.00, 0.00, 0.00, 0.000, 0.000, 0.000, 19:01:21.223, 1551484881223
0, -6399.01, 0.00, 0.00, 0.00, 0.00, 0.00, 0.00, 0.00, 0.000, 0.000, 0.000, 19:01:21.229, 1551484881229
1, -6404.18, 0.00, 0.00, 0.00, 0.00, 0.00, 0.00, 0.00, 0.000, 0.000, 0.000, 19:01:21.229, 1551484881229
2, -6411.06, 0.00, 0.00, 0.00, 0.00, 0.00, 0.00, 0.00, 0.000, 0.000, 0.000, 19:01:21.238, 1551484881238
3, -6400.38, 0.00, 0.00, 0.00, 0.00, 0.00, 0.00, 0.00, 0.000, 0.000, 0.000, 19:01:21.238, 1551484881238
4, -6397.99, 0.00, 0.00, 0.00, 0.00, 0.00, 0.00, 0.00, 0.000, 0.000, 0.000, 19:01:21.246, 1551484881246
5, -6402.86, 0.00, 0.00, 0.00, 0.00, 0.00, 0.00, 0.00, 0.000, 0.000, 0.000, 19:01:21.246, 1551484881246
6, -6415.17, 0.00, 0.00, 0.00, 0.00, 0.00, 0.00, 0.00, 0.000, 0.000, 0.000, 19:01:21.252, 1551484881252
7, -6410.35, 0.00, 0.00, 0.00, 0.00, 0.00, 0.00, 0.00, 0.000, 0.000, 0.000, 19:01:21.259, 1551484881259
8, -6409.74, 0.00, 0.00, 0.00, 0.00, 0.00, 0.00, 0.00, 0.008, -0.042, 1.030, 19:01:21.259, 1551484881259
9, -6404.20, 0.00, 0.00, 0.00, 0.00, 0.00, 0.00, 0.00, 0.000, 0.000, 0.000, 19:01:21.267, 1551484881267
10, -6411.78, 0.00, 0.00, 0.00, 0.00, 0.00, 0.00, 0.00, 0.000, 0.000, 0.000, 19:01:21.267, 1551484881267
11, -6415.51, 0.00, 0.00, 0.00, 0.00, 0.00, 0.00, 0.00, 0.000, 0.000, 0.000, 19:01:21.275, 1551484881275
12, -6403.98, 0.00, 0.00, 0.00, 0.00, 0.00, 0.00, 0.00, 0.000, 0.000, 0.000, 19:01:21.275, 1551484881275
13, -6405.99, 0.00, 0.00, 0.00, 0.00, 0.00, 0.00, 0.00, 0.000, 0.000, 0.000, 19:01:21.282, 1551484881282
14, -6414.24, 0.00, 0.00, 0.00, 0.00, 0.00, 0.00, 0.00, 0.000, 0.000, 0.000, 19:01:21.282, 1551484881282
15, -6416.90, 0.00, 0.00, 0.00, 0.00, 0.00, 0.00, 0.00, 0.000, 0.000, 0.000, 19:01:21.290, 1551484881290
16, -6408.80, 0.00, 0.00, 0.00, 0.00, 0.00, 0.00, 0.00, 0.000, 0.000, 0.000, 19:01:21.290, 1551484881290
17, -6406.23, 0.00, 0.00, 0.00, 0.00, 0.00, 0.00, 0.00, 0.014, -0.040, 1.032, 19:01:21.298, 1551484881298
18, -6407.26, 0.00, 0.00, 0.00, 0.00, 0.00, 0.00, 0.00, 0.000, 0.000, 0.000, 19:01:21.298, 1551484881298
19, -6416.22, 0.00, 0.00, 0.00, 0.00, 0.00, 0.00, 0.00, 0.000, 0.000, 0.000, 19:01:21.305, 1551484881305
20, -6406.70, 0.00, 0.00, 0.00, 0.00, 0.00, 0.00, 0.00, 0.000, 0.000, 0.000, 19:01:21.305, 1551484881305
21, -6410.08, 0.00, 0.00, 0.00, 0.00, 0.00, 0.00, 0.00, 0.000, 0.000, 0.000, 19:01:21.311, 1551484881311
22, -6435.58, 0.00, 0.00, 0.00, 0.00, 0.00, 0.00, 0.00, 0.000, 0.000, 0.000, 19:01:21.312, 1551484881312
23, -6443.11, 0.00, 0.00, 0.00, 0.00, 0.00, 0.00, 0.00, 0.000, 0.000, 0.000, 19:01:21.319, 1551484881319
24, -6424.20, 0.00, 0.00, 0.00, 0.00, 0.00, 0.00, 0.00, 0.000, 0.000, 0.000, 19:01:21.327, 1551484881327
25, -6412.67, 0.00, 0.00, 0.00, 0.00, 0.00, 0.00, 0.00, 0.000, 0.000, 0.000, 19:01:21.327, 1551484881327
26, -6420.16, 0.00, 0.00, 0.00, 0.00, 0.00, 0.00, 0.00, 0.000, 0.000, 0.000, 19:01:21.334, 1551484881334
27, -6423.35, 0.00, 0.00, 0.00, 0.00, 0.00, 0.00, 0.00, 0.016, -0.036, 1.034, 19:01:21.335, 1551484881335
28, -6416.85, 0.00, 0.00, 0.00, 0.00, 0.00, 0.00, 0.00, 0.000, 0.000, 0.000, 19:01:21.342, 1551484881342
29, -6412.31, 0.00, 0.00, 0.00, 0.00, 0.00, 0.00, 0.00, 0.000, 0.000, 0.000, 19:01:21.342, 1551484881342
30, -6422.24, 0.00, 0.00, 0.00, 0.00, 0.00, 0.00, 0.00, 0.000, 0.000, 0.000, 19:01:21.350, 1551484881350
31, -6431.38, 0.00, 0.00, 0.00, 0.00, 0.00, 0.00, 0.00, 0.000, 0.000, 0.000, 19:01:21.350, 1551484881350
32, -6429.17, 0.00, 0.00, 0.00, 0.00, 0.00, 0.00, 0.00, 0.000, 0.000, 0.000, 19:01:21.358, 1551484881358
33, -6412.13, 0.00, 0.00, 0.00, 0.00, 0.00, 0.00, 0.00, 0.000, 0.000, 0.000, 19:01:21.358, 1551484881358
34, -6413.72, 0.00, 0.00, 0.00, 0.00, 0.00, 0.00, 0.00, 0.000, 0.000, 0.000, 19:01:21.367, 1551484881367
35, -6421.66, 0.00, 0.00, 0.00, 0.00, 0.00, 0.00, 0.00, 0.000, 0.000, 0.000, 19:01:21.368, 1551484881368
36, -6425.12, 0.00, 0.00, 0.00, 0.00, 0.00, 0.00, 0.00, 0.000, 0.000, 0.000, 19:01:21.378, 1551484881378
37, -6413.88, 0.00, 0.00, 0.00, 0.00, 0.00, 0.00, 0.00, 0.010, -0.042, 1.038, 19:01:21.378, 1551484881378
38, -6419.00, 0.00, 0.00, 0.00, 0.00, 0.00, 0.00, 0.00, 0.000, 0.000, 0.000, 19:01:21.382, 1551484881382
39, -6430.06, 0.00, 0.00, 0.00, 0.00, 0.00, 0.00, 0.00, 0.000, 0.000, 0.000, 19:01:21.392, 1551484881392
40, -6428.47, 0.00, 0.00, 0.00, 0.00, 0.00, 0.00, 0.00, 0.000, 0.000, 0.000, 19:01:21.392, 1551484881392
41, -6410.68, 0.00, 0.00, 0.00, 0.00, 0.00, 0.00, 0.00, 0.000, 0.000, 0.000, 19:01:21.397, 1551484881397
42, -6414.95, 0.00, 0.00, 0.00, 0.00, 0.00, 0.00, 0.00, 0.000, 0.000, 0.000, 19:01:21.397, 1551484881397
43, -6419.67, 0.00, 0.00, 0.00, 0.00, 0.00, 0.00, 0.00, 0.000, 0.000, 0.000, 19:01:21.408, 1551484881408
44, -6421.37, 0.00, 0.00, 0.00, 0.00, 0.00, 0.00, 0.00, 0.000, 0.000, 0.000, 19:01:21.408, 1551484881408
45, -6409.23, 0.00, 0.00, 0.00, 0.00, 0.00, 0.00, 0.00, 0.000, 0.000, 0.000, 19:01:21.410, 1551484881410
46, -6419.15, 0.00, 0.00, 0.00, 0.00, 0.00, 0.00, 0.00, 0.000, 0.000, 0.000, 19:01:21.410, 1551484881410
47, -6421.90, 0.00, 0.00, 0.00, 0.00, 0.00, 0.00, 0.00, 0.010, -0.042, 1.036, 19:01:21.417, 1551484881417
48, -6421.63, 0.00, 0.00, 0.00, 0.00, 0.00, 0.00, 0.00, 0.000, 0.000, 0.000, 19:01:21.417, 1551484881417
49, -6403.55, 0.00, 0.00, 0.00, 0.00, 0.00, 0.00, 0.00, 0.000, 0.000, 0.000, 19:01:21.425, 1551484881425
50, -6391.64, 0.00, 0.00, 0.00, 0.00, 0.00, 0.00, 0.00, 0.000, 0.000, 0.000, 19:01:21.425, 1551484881425
51, -6404.27, 0.00, 0.00, 0.00, 0.00, 0.00, 0.00, 0.00, 0.000, 0.000, 0.000, 19:01:21.433, 1551484881433
52, -6410.39, 0.00, 0.00, 0.00, 0.00, 0.00, 0.00, 0.00, 0.000, 0.000, 0.000, 19:01:21.433, 1551484881433
53, -6414.37, 0.00, 0.00, 0.00, 0.00, 0.00, 0.00, 0.00, 0.000, 0.000, 0.000, 19:01:21.440, 1551484881440
54, -6405.45, 0.00, 0.00, 0.00, 0.00, 0.00, 0.00, 0.00, 0.000, 0.000, 0.000, 19:01:21.446, 1551484881446
55, -6412.38, 0.00, 0.00, 0.00, 0.00, 0.00, 0.00, 0.00, 0.000, 0.000, 0.000, 19:01:21.447, 1551484881447
56, -6420.65, 0.00, 0.00, 0.00, 0.00, 0.00, 0.00, 0.00, 0.000, 0.000, 0.000, 19:01:21.455, 1551484881455
57, -6415.13, 0.00, 0.00, 0.00, 0.00, 0.00, 0.00, 0.00, 0.014, -0.042, 1.030, 19:01:21.455, 1551484881455
58, -6399.33, 0.00, 0.00, 0.00, 0.00, 0.00, 0.00, 0.00, 0.000, 0.000, 0.000, 19:01:21.462, 1551484881462
59, -6403.75, 0.00, 0.00, 0.00, 0.00, 0.00, 0.00, 0.00, 0.000, 0.000, 0.000, 19:01:21.463, 1551484881463
60, -6411.08, 0.00, 0.00, 0.00, 0.00, 0.00, 0.00, 0.00, 0.000, 0.000, 0.000, 19:01:21.470, 1551484881470
61, -6420.74, 0.00, 0.00, 0.00, 0.00, 0.00, 0.00, 0.00, 0.000, 0.000, 0.000, 19:01:21.470, 1551484881470
62, -6412.07, 0.00, 0.00, 0.00, 0.00, 0.00, 0.00, 0.00, 0.000, 0.000, 0.000, 19:01:21.477, 1551484881477
63, -6407.62, 0.00, 0.00, 0.00, 0.00, 0.00, 0.00, 0.00, 0.000, 0.000, 0.000, 19:01:21.478, 1551484881478
64, -6416.09, 0.00, 0.00, 0.00, 0.00, 0.00, 0.00, 0.00, 0.000, 0.000, 0.000, 19:01:21.485, 1551484881485
65, -6418.21, 0.00, 0.00, 0.00, 0.00, 0.00, 0.00, 0.00, 0.000, 0.000, 0.000, 19:01:21.485, 1551484881485
66, -6397.94, 0.00, 0.00, 0.00, 0.00, 0.00, 0.00, 0.00, 0.000, 0.000, 0.000, 19:01:21.493, 1551484881493
67, -6395.26, 0.00, 0.00, 0.00, 0.00, 0.00, 0.00, 0.00, 0.014, -0.038, 1.024, 19:01:21.494, 1551484881494
68, -6398.32, 0.00, 0.00, 0.00, 0.00, 0.00, 0.00, 0.00, 0.000, 0.000, 0.000, 19:01:21.499, 1551484881499
69, -6400.47, 0.00, 0.00, 0.00, 0.00, 0.00, 0.00, 0.00, 0.000, 0.000, 0.000, 19:01:21.507, 1551484881507
70, -6394.74, 0.00, 0.00, 0.00, 0.00, 0.00, 0.00, 0.00, 0.000, 0.000, 0.000, 19:01:21.507, 1551484881507
71, -6400.13, 0.00, 0.00, 0.00, 0.00, 0.00, 0.00, 0.00, 0.000, 0.000, 0.000, 19:01:21.515, 1551484881515
72, -6411.28, 0.00, 0.00, 0.00, 0.00, 0.00, 0.00, 0.00, 0.000, 0.000, 0.000, 19:01:21.515, 1551484881515
73, -6419.85, 0.00, 0.00, 0.00, 0.00, 0.00, 0.00, 0.00, 0.000, 0.000, 0.000, 19:01:21.522, 1551484881522
74, -6401.74, 0.00, 0.00, 0.00, 0.00, 0.00, 0.00, 0.00, 0.000, 0.000, 0.000, 19:01:21.522, 1551484881522
75, -6391.39, 0.00, 0.00, 0.00, 0.00, 0.00, 0.00, 0.00, 0.000, 0.000, 0.000, 19:01:21.529, 1551484881529
76, -6406.32, 0.00, 0.00, 0.00, 0.00, 0.00, 0.00, 0.00, 0.012, -0.036, 1.026, 19:01:21.530, 1551484881530
77, -6409.97, 0.00, 0.00, 0.00, 0.00, 0.00, 0.00, 0.00, 0.000, 0.000, 0.000, 19:01:21.538, 1551484881538
78, -6398.54, 0.00, 0.00, 0.00, 0.00, 0.00, 0.00, 0.00, 0.000, 0.000, 0.000, 19:01:21.538, 1551484881538
79, -6386.36, 0.00, 0.00, 0.00, 0.00, 0.00, 0.00, 0.00, 0.000, 0.000, 0.000, 19:01:21.545, 1551484881545
80, -6399.80, 0.00, 0.00, 0.00, 0.00, 0.00, 0.00, 0.00, 0.000, 0.000, 0.000, 19:01:21.546, 1551484881546
81, -6409.94, 0.00, 0.00, 0.00, 0.00, 0.00, 0.00, 0.00, 0.000, 0.000, 0.000, 19:01:21.552, 1551484881552
82, -6419.78, 0.00, 0.00, 0.00, 0.00, 0.00, 0.00, 0.00, 0.000, 0.000, 0.000, 19:01:21.552, 1551484881552
83, -6409.34, 0.00, 0.00, 0.00, 0.00, 0.00, 0.00, 0.00, 0.000, 0.000, 0.000, 19:01:21.560, 1551484881560
84, -6404.38, 0.00, 0.00, 0.00, 0.00, 0.00, 0.00, 0.00, 0.000, 0.000, 0.000, 19:01:21.560, 1551484881560
85, -6409.38, 0.00, 0.00, 0.00, 0.00, 0.00, 0.00, 0.00, 0.000, 0.000, 0.000, 19:01:21.567, 1551484881567
86, -6403.71, 0.00, 0.00, 0.00, 0.00, 0.00, 0.00, 0.00, 0.010, -0.040, 1.022, 19:01:21.575, 1551484881575
87, -6390.50, 0.00, 0.00, 0.00, 0.00, 0.00, 0.00, 0.00, 0.000, 0.000, 0.000, 19:01:21.575, 1551484881575
88, -6400.53, 0.00, 0.00, 0.00, 0.00, 0.00, 0.00, 0.00, 0.000, 0.000, 0.000, 19:01:21.582, 1551484881582
89, -6408.27, 0.00, 0.00, 0.00, 0.00, 0.00, 0.00, 0.00, 0.000, 0.000, 0.000, 19:01:21.582, 1551484881582
90, -6417.34, 0.00, 0.00, 0.00, 0.00, 0.00, 0.00, 0.00, 0.000, 0.000, 0.000, 19:01:21.590, 1551484881590
91, -6408.67, 0.00, 0.00, 0.00, 0.00, 0.00, 0.00, 0.00, 0.000, 0.000, 0.000, 19:01:21.590, 1551484881590
92, -6408.04, 0.00, 0.00, 0.00, 0.00, 0.00, 0.00, 0.00, 0.000, 0.000, 0.000, 19:01:21.598, 1551484881598
93, -6417.21, 0.00, 0.00, 0.00, 0.00, 0.00, 0.00, 0.00, 0.000, 0.000, 0.000, 19:01:21.599, 1551484881599
94, -6430.98, 0.00, 0.00, 0.00, 0.00, 0.00, 0.00, 0.00, 0.000, 0.000, 0.000, 19:01:21.605, 1551484881605
95, -6419.40, 0.00, 0.00, 0.00, 0.00, 0.00, 0.00, 0.00, 0.000, 0.000, 0.000, 19:01:21.605, 1551484881605
96, -6414.53, 0.00, 0.00, 0.00, 0.00, 0.00, 0.00, 0.00, 0.018, -0.046, 1.022, 19:01:21.612, 1551484881612
97, -6421.23, 0.00, 0.00, 0.00, 0.00, 0.00, 0.00, 0.00, 0.000, 0.000, 0.000, 19:01:21.613, 1551484881613
98, -6426.55, 0.00, 0.00, 0.00, 0.00, 0.00, 0.00, 0.00, 0.000, 0.000, 0.000, 19:01:21.621, 1551484881621
99, -6427.98, 0.00, 0.00, 0.00, 0.00, 0.00, 0.00, 0.00, 0.000, 0.000, 0.000, 19:01:21.621, 1551484881621
100, -6420.34, 0.00, 0.00, 0.00, 0.00, 0.00, 0.00, 0.00, 0.000, 0.000, 0.000, 19:01:21.628, 1551484881628
101, -6420.67, 0.00, 0.00, 0.00, 0.00, 0.00, 0.00, 0.00, 0.000, 0.000, 0.000, 19:01:21.635, 1551484881635
102, -6423.24, 0.00, 0.00, 0.00, 0.00, 0.00, 0.00, 0.00, 0.000, 0.000, 0.000, 19:01:21.636, 1551484881636
103, -6417.90, 0.00, 0.00, 0.00, 0.00, 0.00, 0.00, 0.00, 0.000, 0.000, 0.000, 19:01:21.642, 1551484881642
104, -6412.63, 0.00, 0.00, 0.00, 0.00, 0.00, 0.00, 0.00, 0.000, 0.000, 0.000, 19:01:21.642, 1551484881642
105, -6418.53, 0.00, 0.00, 0.00, 0.00, 0.00, 0.00, 0.00, 0.000, 0.000, 0.000, 19:01:21.650, 1551484881650
106, -6423.62, 0.00, 0.00, 0.00, 0.00, 0.00, 0.00, 0.00, 0.016, -0.044, 1.026, 19:01:21.650, 1551484881650
107, -6417.88, 0.00, 0.00, 0.00, 0.00, 0.00, 0.00, 0.00, 0.000, 0.000, 0.000, 19:01:21.657, 1551484881657
108, -6408.29, 0.00, 0.00, 0.00, 0.00, 0.00, 0.00, 0.00, 0.000, 0.000, 0.000, 19:01:21.657, 1551484881657
109, -6409.97, 0.00, 0.00, 0.00, 0.00, 0.00, 0.00, 0.00, 0.000, 0.000, 0.000, 19:01:21.665, 1551484881665
110, -6407.82, 0.00, 0.00, 0.00, 0.00, 0.00, 0.00, 0.00, 0.000, 0.000, 0.000, 19:01:21.665, 1551484881665
111, -6407.06, 0.00, 0.00, 0.00, 0.00, 0.00, 0.00, 0.00, 0.000, 0.000, 0.000, 19:01:21.673, 1551484881673
112, -6385.13, 0.00, 0.00, 0.00, 0.00, 0.00, 0.00, 0.00, 0.000, 0.000, 0.000, 19:01:21.673, 1551484881673
113, -6397.40, 0.00, 0.00, 0.00, 0.00, 0.00, 0.00, 0.00, 0.000, 0.000, 0.000, 19:01:21.681, 1551484881681
114, -6404.69, 0.00, 0.00, 0.00, 0.00, 0.00, 0.00, 0.00, 0.000, 0.000, 0.000, 19:01:21.681, 1551484881681
115, -6411.78, 0.00, 0.00, 0.00, 0.00, 0.00, 0.00, 0.00, 0.000, 0.000, 0.000, 19:01:21.687, 1551484881687
116, -6406.30, 0.00, 0.00, 0.00, 0.00, 0.00, 0.00, 0.00, 0.010, -0.042, 1.032, 19:01:21.694, 1551484881694
117, -6411.13, 0.00, 0.00, 0.00, 0.00, 0.00, 0.00, 0.00, 0.000, 0.000, 0.000, 19:01:21.694, 1551484881694
118, -6411.13, 0.00, 0.00, 0.00, 0.00, 0.00, 0.00, 0.00, 0.000, 0.000, 0.000, 19:01:21.703, 1551484881703
119, -6427.78, 0.00, 0.00, 0.00, 0.00, 0.00, 0.00, 0.00, 0.000, 0.000, 0.000, 19:01:21.703, 1551484881703
120, -6414.73, 0.00, 0.00, 0.00, 0.00, 0.00, 0.00, 0.00, 0.000, 0.000, 0.000, 19:01:21.710, 1551484881710
121, -6412.67, 0.00, 0.00, 0.00, 0.00, 0.00, 0.00, 0.00, 0.000, 0.000, 0.000, 19:01:21.710, 1551484881710
122, -6425.43, 0.00, 0.00, 0.00, 0.00, 0.00, 0.00, 0.00, 0.000, 0.000, 0.000, 19:01:21.717, 1551484881717
123, -6426.95, 0.00, 0.00, 0.00, 0.00, 0.00, 0.00, 0.00, 0.000, 0.000, 0.000, 19:01:21.717, 1551484881717
124, -6412.20, 0.00, 0.00, 0.00, 0.00, 0.00, 0.00, 0.00, 0.000, 0.000, 0.000, 19:01:21.725, 1551484881725
125, -6402.12, 0.00, 0.00, 0.00, 0.00, 0.00, 0.00, 0.00, 0.000, 0.000, 0.000, 19:01:21.725, 1551484881725
126, -6404.47, 0.00, 0.00, 0.00, 0.00, 0.00, 0.00, 0.00, 0.014, -0.042, 1.034, 19:01:21.734, 1551484881734
127, -6418.39, 0.00, 0.00, 0.00, 0.00, 0.00, 0.00, 0.00, 0.000, 0.000, 0.000, 19:01:21.734, 1551484881734
128, -6418.95, 0.00, 0.00, 0.00, 0.00, 0.00, 0.00, 0.00, 0.000, 0.000, 0.000, 19:01:21.740, 1551484881740
129, -6409.97, 0.00, 0.00, 0.00, 0.00, 0.00, 0.00, 0.00, 0.000, 0.000, 0.000, 19:01:21.740, 1551484881740
130, -6409.16, 0.00, 0.00, 0.00, 0.00, 0.00, 0.00, 0.00, 0.000, 0.000, 0.000, 19:01:21.747, 1551484881747
131, -6414.17, 0.00, 0.00, 0.00, 0.00, 0.00, 0.00, 0.00, 0.000, 0.000, 0.000, 19:01:21.755, 1551484881755
132, -6416.34, 0.00, 0.00, 0.00, 0.00, 0.00, 0.00, 0.00, 0.000, 0.000, 0.000, 19:01:21.755, 1551484881755
133, -6405.34, 0.00, 0.00, 0.00, 0.00, 0.00, 0.00, 0.00, 0.000, 0.000, 0.000, 19:01:21.763, 1551484881763
134, -6403.95, 0.00, 0.00, 0.00, 0.00, 0.00, 0.00, 0.00, 0.000, 0.000, 0.000, 19:01:21.764, 1551484881764
135, -6417.39, 0.00, 0.00, 0.00, 0.00, 0.00, 0.00, 0.00, 0.016, -0.040, 1.030, 19:01:21.770, 1551484881770
136, -6421.03, 0.00, 0.00, 0.00, 0.00, 0.00, 0.00, 0.00, 0.000, 0.000, 0.000, 19:01:21.770, 1551484881770
137, -6407.51, 0.00, 0.00, 0.00, 0.00, 0.00, 0.00, 0.00, 0.000, 0.000, 0.000, 19:01:21.777, 1551484881777
138, -6405.83, 0.00, 0.00, 0.00, 0.00, 0.00, 0.00, 0.00, 0.000, 0.000, 0.000, 19:01:21.777, 1551484881777
139, -6422.26, 0.00, 0.00, 0.00, 0.00, 0.00, 0.00, 0.00, 0.000, 0.000, 0.000, 19:01:21.785, 1551484881785
140, -6430.75, 0.00, 0.00, 0.00, 0.00, 0.00, 0.00, 0.00, 0.000, 0.000, 0.000, 19:01:21.786, 1551484881786
141, -6412.74, 0.00, 0.00, 0.00, 0.00, 0.00, 0.00, 0.00, 0.000, 0.000, 0.000, 19:01:21.792, 1551484881792
142, -6410.30, 0.00, 0.00, 0.00, 0.00, 0.00, 0.00, 0.00, 0.000, 0.000, 0.000, 19:01:21.792, 1551484881792
143, -6420.38, 0.00, 0.00, 0.00, 0.00, 0.00, 0.00, 0.00, 0.000, 0.000, 0.000, 19:01:21.800, 1551484881800
144, -6434.44, 0.00, 0.00, 0.00, 0.00, 0.00, 0.00, 0.00, 0.000, 0.000, 0.000, 19:01:21.800, 1551484881800
145, -6420.99, 0.00, 0.00, 0.00, 0.00, 0.00, 0.00, 0.00, 0.018, -0.040, 1.032, 19:01:21.807, 1551484881807
146, -6417.14, 0.00, 0.00, 0.00, 0.00, 0.00, 0.00, 0.00, 0.000, 0.000, 0.000, 19:01:21.807, 1551484881807
147, -6422.46, 0.00, 0.00, 0.00, 0.00, 0.00, 0.00, 0.00, 0.000, 0.000, 0.000, 19:01:21.815, 1551484881815
148, -6419.17, 0.00, 0.00, 0.00, 0.00, 0.00, 0.00, 0.00, 0.000, 0.000, 0.000, 19:01:21.822, 1551484881822
149, -6411.06, 0.00, 0.00, 0.00, 0.00, 0.00, 0.00, 0.00, 0.000, 0.000, 0.000, 19:01:21.822, 1551484881822
150, -6398.10, 0.00, 0.00, 0.00, 0.00, 0.00, 0.00, 0.00, 0.000, 0.000, 0.000, 19:01:21.829, 1551484881829
151, -6404.02, 0.00, 0.00, 0.00, 0.00, 0.00, 0.00, 0.00, 0.000, 0.000, 0.000, 19:01:21.830, 1551484881830
152, -6409.61, 0.00, 0.00, 0.00, 0.00, 0.00, 0.00, 0.00, 0.000, 0.000, 0.000, 19:01:21.838, 1551484881838
153, -6411.35, 0.00, 0.00, 0.00, 0.00, 0.00, 0.00, 0.00, 0.000, 0.000, 0.000, 19:01:21.838, 1551484881838
154, -6404.87, 0.00, 0.00, 0.00, 0.00, 0.00, 0.00, 0.00, 0.000, 0.000, 0.000, 19:01:21.845, 1551484881845
155, -6414.44, 0.00, 0.00, 0.00, 0.00, 0.00, 0.00, 0.00, 0.020, -0.036, 1.026, 19:01:21.846, 1551484881846
156, -6417.16, 0.00, 0.00, 0.00, 0.00, 0.00, 0.00, 0.00, 0.000, 0.000, 0.000, 19:01:21.852, 1551484881852
157, -6413.14, 0.00, 0.00, 0.00, 0.00, 0.00, 0.00, 0.00, 0.000, 0.000, 0.000, 19:01:21.852, 1551484881852
158, -6404.24, 0.00, 0.00, 0.00, 0.00, 0.00, 0.00, 0.00, 0.000, 0.000, 0.000, 19:01:21.860, 1551484881860
159, -6407.37, 0.00, 0.00, 0.00, 0.00, 0.00, 0.00, 0.00, 0.000, 0.000, 0.000, 19:01:21.860, 1551484881860
160, -6417.16, 0.00, 0.00, 0.00, 0.00, 0.00, 0.00, 0.00, 0.000, 0.000, 0.000, 19:01:21.868, 1551484881868
161, -6413.30, 0.00, 0.00, 0.00, 0.00, 0.00, 0.00, 0.00, 0.000, 0.000, 0.000, 19:01:21.868, 1551484881868
162, -6399.71, 0.00, 0.00, 0.00, 0.00, 0.00, 0.00, 0.00, 0.000, 0.000, 0.000, 19:01:21.875, 1551484881875
163, -6401.65, 0.00, 0.00, 0.00, 0.00, 0.00, 0.00, 0.00, 0.000, 0.000, 0.000, 19:01:21.882, 1551484881882
164, -6417.83, 0.00, 0.00, 0.00, 0.00, 0.00, 0.00, 0.00, 0.000, 0.000, 0.000, 19:01:21.882, 1551484881882
165, -6427.13, 0.00, 0.00, 0.00, 0.00, 0.00, 0.00, 0.00, 0.018, -0.040, 1.026, 19:01:21.890, 1551484881890
166, -6410.68, 0.00, 0.00, 0.00, 0.00, 0.00, 0.00, 0.00, 0.000, 0.000, 0.000, 19:01:21.890, 1551484881890
167, -6407.10, 0.00, 0.00, 0.00, 0.00, 0.00, 0.00, 0.00, 0.000, 0.000, 0.000, 19:01:21.898, 1551484881898
168, -6415.96, 0.00, 0.00, 0.00, 0.00, 0.00, 0.00, 0.00, 0.000, 0.000, 0.000, 19:01:21.898, 1551484881898
169, -6420.92, 0.00, 0.00, 0.00, 0.00, 0.00, 0.00, 0.00, 0.000, 0.000, 0.000, 19:01:21.904, 1551484881904
170, -6409.50, 0.00, 0.00, 0.00, 0.00, 0.00, 0.00, 0.00, 0.000, 0.000, 0.000, 19:01:21.905, 1551484881905
171, -6404.22, 0.00, 0.00, 0.00, 0.00, 0.00, 0.00, 0.00, 0.000, 0.000, 0.000, 19:01:21.912, 1551484881912
172, -6418.33, 0.00, 0.00, 0.00, 0.00, 0.00, 0.00, 0.00, 0.000, 0.000, 0.000, 19:01:21.912, 1551484881912
173, -6417.59, 0.00, 0.00, 0.00, 0.00, 0.00, 0.00, 0.00, 0.000, 0.000, 0.000, 19:01:21.921, 1551484881921
174, -6409.27, 0.00, 0.00, 0.00, 0.00, 0.00, 0.00, 0.00, 0.000, 0.000, 0.000, 19:01:21.921, 1551484881921
175, -6404.42, 0.00, 0.00, 0.00, 0.00, 0.00, 0.00, 0.00, 0.014, -0.040, 1.022, 19:01:21.928, 1551484881928
176, -6407.22, 0.00, 0.00, 0.00, 0.00, 0.00, 0.00, 0.00, 0.000, 0.000, 0.000, 19:01:21.928, 1551484881928
177, -6412.09, 0.00, 0.00, 0.00, 0.00, 0.00, 0.00, 0.00, 0.000, 0.000, 0.000, 19:01:21.934, 1551484881934
178, -6410.59, 0.00, 0.00, 0.00, 0.00, 0.00, 0.00, 0.00, 0.000, 0.000, 0.000, 19:01:21.942, 1551484881942
179, -6405.65, 0.00, 0.00, 0.00, 0.00, 0.00, 0.00, 0.00, 0.000, 0.000, 0.000, 19:01:21.943, 1551484881943
180, -6405.63, 0.00, 0.00, 0.00, 0.00, 0.00, 0.00, 0.00, 0.000, 0.000, 0.000, 19:01:21.950, 1551484881950
181, -6410.75, 0.00, 0.00, 0.00, 0.00, 0.00, 0.00, 0.00, 0.000, 0.000, 0.000, 19:01:21.950, 1551484881950
182, -6412.07, 0.00, 0.00, 0.00, 0.00, 0.00, 0.00, 0.00, 0.000, 0.000, 0.000, 19:01:21.957, 1551484881957
183, -6395.15, 0.00, 0.00, 0.00, 0.00, 0.00, 0.00, 0.00, 0.000, 0.000, 0.000, 19:01:21.957, 1551484881957
184, -6401.67, 0.00, 0.00, 0.00, 0.00, 0.00, 0.00, 0.00, 0.000, 0.000, 0.000, 19:01:21.966, 1551484881966
185, -6412.51, 0.00, 0.00, 0.00, 0.00, 0.00, 0.00, 0.00, 0.014, -0.042, 1.020, 19:01:21.966, 1551484881966
186, -6421.43, 0.00, 0.00, 0.00, 0.00, 0.00, 0.00, 0.00, 0.000, 0.000, 0.000, 19:01:21.972, 1551484881972
187, -6405.56, 0.00, 0.00, 0.00, 0.00, 0.00, 0.00, 0.00, 0.000, 0.000, 0.000, 19:01:21.973, 1551484881973
188, -6411.89, 0.00, 0.00, 0.00, 0.00, 0.00, 0.00, 0.00, 0.000, 0.000, 0.000, 19:01:21.980, 1551484881980
189, -6417.34, 0.00, 0.00, 0.00, 0.00, 0.00, 0.00, 0.00, 0.000, 0.000, 0.000, 19:01:21.980, 1551484881980
190, -6419.67, 0.00, 0.00, 0.00, 0.00, 0.00, 0.00, 0.00, 0.000, 0.000, 0.000, 19:01:21.988, 1551484881988
191, -6404.04, 0.00, 0.00, 0.00, 0.00, 0.00, 0.00, 0.00, 0.000, 0.000, 0.000, 19:01:21.988, 1551484881988
192, -6393.02, 0.00, 0.00, 0.00, 0.00, 0.00, 0.00, 0.00, 0.000, 0.000, 0.000, 19:01:21.995, 1551484881995
193, -6394.52, 0.00, 0.00, 0.00, 0.00, 0.00, 0.00, 0.00, 0.000, 0.000, 0.000, 19:01:22.002, 1551484882002
194, -6405.16, 0.00, 0.00, 0.00, 0.00, 0.00, 0.00, 0.00, 0.000, 0.000, 0.000, 19:01:22.002, 1551484882002
195, -6395.19, 0.00, 0.00, 0.00, 0.00, 0.00, 0.00, 0.00, 0.012, -0.034, 1.022, 19:01:22.010, 1551484882010
196, -6399.55, 0.00, 0.00, 0.00, 0.00, 0.00, 0.00, 0.00, 0.000, 0.000, 0.000, 19:01:22.011, 1551484882011
197, -6414.37, 0.00, 0.00, 0.00, 0.00, 0.00, 0.00, 0.00, 0.000, 0.000, 0.000, 19:01:22.018, 1551484882018
198, -6421.92, 0.00, 0.00, 0.00, 0.00, 0.00, 0.00, 0.00, 0.000, 0.000, 0.000, 19:01:22.018, 1551484882018
199, -6411.46, 0.00, 0.00, 0.00, 0.00, 0.00, 0.00, 0.00, 0.000, 0.000, 0.000, 19:01:22.025, 1551484882025
200, -6401.45, 0.00, 0.00, 0.00, 0.00, 0.00, 0.00, 0.00, 0.000, 0.000, 0.000, 19:01:22.025, 1551484882025
201, -6397.56, 0.00, 0.00, 0.00, 0.00, 0.00, 0.00, 0.00, 0.000, 0.000, 0.000, 19:01:22.032, 1551484882032
202, -6396.38, 0.00, 0.00, 0.00, 0.00, 0.00, 0.00, 0.00, 0.000, 0.000, 0.000, 19:01:22.032, 1551484882032
203, -6400.76, 0.00, 0.00, 0.00, 0.00, 0.00, 0.00, 0.00, 0.000, 0.000, 0.000, 19:01:22.040, 1551484882040
204, -6389.02, 0.00, 0.00, 0.00, 0.00, 0.00, 0.00, 0.00, 0.016, -0.036, 1.018, 19:01:22.041, 1551484882041
205, -6399.33, 0.00, 0.00, 0.00, 0.00, 0.00, 0.00, 0.00, 0.000, 0.000, 0.000, 19:01:22.048, 1551484882048
206, -6412.92, 0.00, 0.00, 0.00, 0.00, 0.00, 0.00, 0.00, 0.000, 0.000, 0.000, 19:01:22.049, 1551484882049
207, -6417.59, 0.00, 0.00, 0.00, 0.00, 0.00, 0.00, 0.00, 0.000, 0.000, 0.000, 19:01:22.055, 1551484882055
208, -6408.49, 0.00, 0.00, 0.00, 0.00, 0.00, 0.00, 0.00, 0.000, 0.000, 0.000, 19:01:22.055, 1551484882055
209, -6406.70, 0.00, 0.00, 0.00, 0.00, 0.00, 0.00, 0.00, 0.000, 0.000, 0.000, 19:01:22.062, 1551484882062
210, -6400.76, 0.00, 0.00, 0.00, 0.00, 0.00, 0.00, 0.00, 0.000, 0.000, 0.000, 19:01:22.070, 1551484882070
211, -6408.92, 0.00, 0.00, 0.00, 0.00, 0.00, 0.00, 0.00, 0.000, 0.000, 0.000, 19:01:22.070, 1551484882070
212, -6394.41, 0.00, 0.00, 0.00, 0.00, 0.00, 0.00, 0.00, 0.000, 0.000, 0.000, 19:01:22.078, 1551484882078
213, -6390.79, 0.00, 0.00, 0.00, 0.00, 0.00, 0.00, 0.00, 0.000, 0.000, 0.000, 19:01:22.078, 1551484882078
214, -6402.08, 0.00, 0.00, 0.00, 0.00, 0.00, 0.00, 0.00, 0.014, -0.040, 1.024, 19:01:22.084, 1551484882084
215, -6412.02, 0.00, 0.00, 0.00, 0.00, 0.00, 0.00, 0.00, 0.000, 0.000, 0.000, 19:01:22.085, 1551484882085
216, -6397.27, 0.00, 0.00, 0.00, 0.00, 0.00, 0.00, 0.00, 0.000, 0.000, 0.000, 19:01:22.092, 1551484882092
217, -6389.63, 0.00, 0.00, 0.00, 0.00, 0.00, 0.00, 0.00, 0.000, 0.000, 0.000, 19:01:22.093, 1551484882093
218, -6396.64, 0.00, 0.00, 0.00, 0.00, 0.00, 0.00, 0.00, 0.000, 0.000, 0.000, 19:01:22.101, 1551484882101
219, -6404.69, 0.00, 0.00, 0.00, 0.00, 0.00, 0.00, 0.00, 0.000, 0.000, 0.000, 19:01:22.101, 1551484882101
220, -6400.11, 0.00, 0.00, 0.00, 0.00, 0.00, 0.00, 0.00, 0.000, 0.000, 0.000, 19:01:22.107, 1551484882107
221, -6391.91, 0.00, 0.00, 0.00, 0.00, 0.00, 0.00, 0.00, 0.000, 0.000, 0.000, 19:01:22.107, 1551484882107
222, -6396.26, 0.00, 0.00, 0.00, 0.00, 0.00, 0.00, 0.00, 0.000, 0.000, 0.000, 19:01:22.116, 1551484882116
223, -6404.38, 0.00, 0.00, 0.00, 0.00, 0.00, 0.00, 0.00, 0.000, 0.000, 0.000, 19:01:22.116, 1551484882116
224, -6402.79, 0.00, 0.00, 0.00, 0.00, 0.00, 0.00, 0.00, 0.016, -0.042, 1.022, 19:01:22.122, 1551484882122
225, -6389.40, 0.00, 0.00, 0.00, 0.00, 0.00, 0.00, 0.00, 0.000, 0.000, 0.000, 19:01:22.130, 1551484882130
226, -6396.89, 0.00, 0.00, 0.00, 0.00, 0.00, 0.00, 0.00, 0.000, 0.000, 0.000, 19:01:22.130, 1551484882130
227, -6408.49, 0.00, 0.00, 0.00, 0.00, 0.00, 0.00, 0.00, 0.000, 0.000, 0.000, 19:01:22.137, 1551484882137
228, -6406.32, 0.00, 0.00, 0.00, 0.00, 0.00, 0.00, 0.00, 0.000, 0.000, 0.000, 19:01:22.137, 1551484882137
229, -6399.75, 0.00, 0.00, 0.00, 0.00, 0.00, 0.00, 0.00, 0.000, 0.000, 0.000, 19:01:22.145, 1551484882145
230, -6403.60, 0.00, 0.00, 0.00, 0.00, 0.00, 0.00, 0.00, 0.000, 0.000, 0.000, 19:01:22.145, 1551484882145
231, -6404.04, 0.00, 0.00, 0.00, 0.00, 0.00, 0.00, 0.00, 0.000, 0.000, 0.000, 19:01:22.153, 1551484882153
232, -6409.12, 0.00, 0.00, 0.00, 0.00, 0.00, 0.00, 0.00, 0.000, 0.000, 0.000, 19:01:22.153, 1551484882153
233, -6392.13, 0.00, 0.00, 0.00, 0.00, 0.00, 0.00, 0.00, 0.000, 0.000, 0.000, 19:01:22.160, 1551484882160
234, -6389.56, 0.00, 0.00, 0.00, 0.00, 0.00, 0.00, 0.00, 0.012, -0.042, 1.028, 19:01:22.160, 1551484882160
235, -6398.75, 0.00, 0.00, 0.00, 0.00, 0.00, 0.00, 0.00, 0.000, 0.000, 0.000, 19:01:22.167, 1551484882167
236, -6398.21, 0.00, 0.00, 0.00, 0.00, 0.00, 0.00, 0.00, 0.000, 0.000, 0.000, 19:01:22.168, 1551484882168
237, -6385.16, 0.00, 0.00, 0.00, 0.00, 0.00, 0.00, 0.00, 0.000, 0.000, 0.000, 19:01:22.176, 1551484882176
238, -6382.03, 0.00, 0.00, 0.00, 0.00, 0.00, 0.00, 0.00, 0.000, 0.000, 0.000, 19:01:22.176, 1551484882176
239, -6389.63, 0.00, 0.00, 0.00, 0.00, 0.00, 0.00, 0.00, 0.000, 0.000, 0.000, 19:01:22.183, 1551484882183
240, -6416.16, 0.00, 0.00, 0.00, 0.00, 0.00, 0.00, 0.00, 0.000, 0.000, 0.000, 19:01:22.190, 1551484882190
241, -6402.25, 0.00, 0.00, 0.00, 0.00, 0.00, 0.00, 0.00, 0.000, 0.000, 0.000, 19:01:22.190, 1551484882190
242, -6397.27, 0.00, 0.00, 0.00, 0.00, 0.00, 0.00, 0.00, 0.000, 0.000, 0.000, 19:01:22.197, 1551484882197
243, -6411.42, 0.00, 0.00, 0.00, 0.00, 0.00, 0.00, 0.00, 0.000, 0.000, 0.000, 19:01:22.197, 1551484882197
244, -6415.60, 0.00, 0.00, 0.00, 0.00, 0.00, 0.00, 0.00, 0.012, -0.040, 1.030, 19:01:22.206, 1551484882206
245, -6399.04, 0.00, 0.00, 0.00, 0.00, 0.00, 0.00, 0.00, 0.000, 0.000, 0.000, 19:01:22.207, 1551484882207
246, -6393.54, 0.00, 0.00, 0.00, 0.00, 0.00, 0.00, 0.00, 0.000, 0.000, 0.000, 19:01:22.214, 1551484882214
247, -6402.79, 0.00, 0.00, 0.00, 0.00, 0.00, 0.00, 0.00, 0.000, 0.000, 0.000, 19:01:22.214, 1551484882214
248, -6415.46, 0.00, 0.00, 0.00, 0.00, 0.00, 0.00, 0.00, 0.000, 0.000, 0.000, 19:01:22.222, 1551484882222
249, -6404.42, 0.00, 0.00, 0.00, 0.00, 0.00, 0.00, 0.00, 0.000, 0.000, 0.000, 19:01:22.222, 1551484882222
250, -6392.80, 0.00, 0.00, 0.00, 0.00, 0.00, 0.00, 0.00, 0.000, 0.000, 0.000, 19:01:22.228, 1551484882228
251, -6396.15, 0.00, 0.00, 0.00, 0.00, 0.00, 0.00, 0.00, 0.000, 0.000, 0.000, 19:01:22.228, 1551484882228
252, -6402.23, 0.00, 0.00, 0.00, 0.00, 0.00, 0.00, 0.00, 0.000, 0.000, 0.000, 19:01:22.237, 1551484882237
253, -6406.01, 0.00, 0.00, 0.00, 0.00, 0.00, 0.00, 0.00, 0.000, 0.000, 0.000, 19:01:22.237, 1551484882237
254, -6397.38, 0.00, 0.00, 0.00, 0.00, 0.00, 0.00, 0.00, 0.012, -0.036, 1.026, 19:01:22.242, 1551484882242
255, -6396.20, 0.00, 0.00, 0.00, 0.00, 0.00, 0.00, 0.00, 0.000, 0.000, 0.000, 19:01:22.250, 1551484882250
0, -6396.09, 0.00, 0.00, 0.00, 0.00, 0.00, 0.00, 0.00, 0.000, 0.000, 0.000, 19:01:22.251, 1551484882251
1, -6406.93, 0.00, 0.00, 0.00, 0.00, 0.00, 0.00, 0.00, 0.000, 0.000, 0.000, 19:01:22.257, 1551484882257
2, -6393.58, 0.00, 0.00, 0.00, 0.00, 0.00, 0.00, 0.00, 0.000, 0.000, 0.000, 19:01:22.258, 1551484882258
3, -6386.90, 0.00, 0.00, 0.00, 0.00, 0.00, 0.00, 0.00, 0.000, 0.000, 0.000, 19:01:22.265, 1551484882265
4, -6398.28, 0.00, 0.00, 0.00, 0.00, 0.00, 0.00, 0.00, 0.000, 0.000, 0.000, 19:01:22.266, 1551484882266
5, -6398.46, 0.00, 0.00, 0.00, 0.00, 0.00, 0.00, 0.00, 0.000, 0.000, 0.000, 19:01:22.272, 1551484882272
6, -6395.53, 0.00, 0.00, 0.00, 0.00, 0.00, 0.00, 0.00, 0.000, 0.000, 0.000, 19:01:22.272, 1551484882272
7, -6397.54, 0.00, 0.00, 0.00, 0.00, 0.00, 0.00, 0.00, 0.014, -0.036, 1.030, 19:01:22.280, 1551484882280
8, -6404.04, 0.00, 0.00, 0.00, 0.00, 0.00, 0.00, 0.00, 0.000, 0.000, 0.000, 19:01:22.280, 1551484882280
9, -6409.05, 0.00, 0.00, 0.00, 0.00, 0.00, 0.00, 0.00, 0.000, 0.000, 0.000, 19:01:22.288, 1551484882288
10, -6396.85, 0.00, 0.00, 0.00, 0.00, 0.00, 0.00, 0.00, 0.000, 0.000, 0.000, 19:01:22.288, 1551484882288
11, -6403.60, 0.00, 0.00, 0.00, 0.00, 0.00, 0.00, 0.00, 0.000, 0.000, 0.000, 19:01:22.295, 1551484882295
12, -6408.94, 0.00, 0.00, 0.00, 0.00, 0.00, 0.00, 0.00, 0.000, 0.000, 0.000, 19:01:22.295, 1551484882295
13, -6413.05, 0.00, 0.00, 0.00, 0.00, 0.00, 0.00, 0.00, 0.000, 0.000, 0.000, 19:01:22.302, 1551484882302
14, -6409.56, 0.00, 0.00, 0.00, 0.00, 0.00, 0.00, 0.00, 0.000, 0.000, 0.000, 19:01:22.302, 1551484882302
15, -6401.41, 0.00, 0.00, 0.00, 0.00, 0.00, 0.00, 0.00, 0.000, 0.000, 0.000, 19:01:22.310, 1551484882310
16, -6406.97, 0.00, 0.00, 0.00, 0.00, 0.00, 0.00, 0.00, 0.000, 0.000, 0.000, 19:01:22.318, 1551484882318
17, -6405.21, 0.00, 0.00, 0.00, 0.00, 0.00, 0.00, 0.00, 0.016, -0.044, 1.026, 19:01:22.318, 1551484882318
18, -6408.74, 0.00, 0.00, 0.00, 0.00, 0.00, 0.00, 0.00, 0.000, 0.000, 0.000, 19:01:22.325, 1551484882325
19, -6402.08, 0.00, 0.00, 0.00, 0.00, 0.00, 0.00, 0.00, 0.000, 0.000, 0.000, 19:01:22.325, 1551484882325
20, -6411.13, 0.00, 0.00, 0.00, 0.00, 0.00, 0.00, 0.00, 0.000, 0.000, 0.000, 19:01:22.332, 1551484882332
21, -6415.26, 0.00, 0.00, 0.00, 0.00, 0.00, 0.00, 0.00, 0.000, 0.000, 0.000, 19:01:22.332, 1551484882332
22, -6417.99, 0.00, 0.00, 0.00, 0.00, 0.00, 0.00, 0.00, 0.000, 0.000, 0.000, 19:01:22.344, 1551484882344
23, -6411.78, 0.00, 0.00, 0.00, 0.00, 0.00, 0.00, 0.00, 0.000, 0.000, 0.000, 19:01:22.344, 1551484882344
24, -6410.35, 0.00, 0.00, 0.00, 0.00, 0.00, 0.00, 0.00, 0.000, 0.000, 0.000, 19:01:22.348, 1551484882348
25, -6427.29, 0.00, 0.00, 0.00, 0.00, 0.00, 0.00, 0.00, 0.000, 0.000, 0.000, 19:01:22.348, 1551484882348
26, -6430.71, 0.00, 0.00, 0.00, 0.00, 0.00, 0.00, 0.00, 0.000, 0.000, 0.000, 19:01:22.356, 1551484882356
27, -6416.11, 0.00, 0.00, 0.00, 0.00, 0.00, 0.00, 0.00, 0.016, -0.044, 1.026, 19:01:22.356, 1551484882356
28, -6420.09, 0.00, 0.00, 0.00, 0.00, 0.00, 0.00, 0.00, 0.000, 0.000, 0.000, 19:01:22.363, 1551484882363
29, -6425.08, 0.00, 0.00, 0.00, 0.00, 0.00, 0.00, 0.00, 0.000, 0.000, 0.000, 19:01:22.363, 1551484882363
30, -6435.45, 0.00, 0.00, 0.00, 0.00, 0.00, 0.00, 0.00, 0.000, 0.000, 0.000, 19:01:22.370, 1551484882370
31, -6428.76, 0.00, 0.00, 0.00, 0.00, 0.00, 0.00, 0.00, 0.000, 0.000, 0.000, 19:01:22.377, 1551484882377
32, -6419.24, 0.00, 0.00, 0.00, 0.00, 0.00, 0.00, 0.00, 0.000, 0.000, 0.000, 19:01:22.377, 1551484882377
33, -6423.27, 0.00, 0.00, 0.00, 0.00, 0.00, 0.00, 0.00, 0.000, 0.000, 0.000, 19:01:22.384, 1551484882384
34, -6424.76, 0.00, 0.00, 0.00, 0.00, 0.00, 0.00, 0.00, 0.000, 0.000, 0.000, 19:01:22.385, 1551484882385
35, -6410.30, 0.00, 0.00, 0.00, 0.00, 0.00, 0.00, 0.00, 0.000, 0.000, 0.000, 19:01:22.392, 1551484882392
36, -6400.18, 0.00, 0.00, 0.00, 0.00, 0.00, 0.00, 0.00, 0.000, 0.000, 0.000, 19:01:22.393, 1551484882393
37, -6407.60, 0.00, 0.00, 0.00, 0.00, 0.00, 0.00, 0.00, 0.016, -0.048, 1.030, 19:01:22.400, 1551484882400
38, -6411.08, 0.00, 0.00, 0.00, 0.00, 0.00, 0.00, 0.00, 0.000, 0.000, 0.000, 19:01:22.401, 1551484882401
39, -6415.78, 0.00, 0.00, 0.00, 0.00, 0.00, 0.00, 0.00, 0.000, 0.000, 0.000, 19:01:22.407, 1551484882407
40, -6408.89, 0.00, 0.00, 0.00, 0.00, 0.00, 0.00, 0.00, 0.000, 0.000, 0.000, 19:01:22.407, 1551484882407
41, -6420.96, 0.00, 0.00, 0.00, 0.00, 0.00, 0.00, 0.00, 0.000, 0.000, 0.000, 19:01:22.415, 1551484882415
42, -6436.72, 0.00, 0.00, 0.00, 0.00, 0.00, 0.00, 0.00, 0.000, 0.000, 0.000, 19:01:22.415, 1551484882415
43, -6437.59, 0.00, 0.00, 0.00, 0.00, 0.00, 0.00, 0.00, 0.000, 0.000, 0.000, 19:01:22.423, 1551484882423
44, -6425.61, 0.00, 0.00, 0.00, 0.00, 0.00, 0.00, 0.00, 0.000, 0.000, 0.000, 19:01:22.424, 1551484882424
45, -6435.20, 0.00, 0.00, 0.00, 0.00, 0.00, 0.00, 0.00, 0.000, 0.000, 0.000, 19:01:22.430, 1551484882430
46, -6442.15, 0.00, 0.00, 0.00, 0.00, 0.00, 0.00, 0.00, 0.000, 0.000, 0.000, 19:01:22.437, 1551484882437
47, -6435.87, 0.00, 0.00, 0.00, 0.00, 0.00, 0.00, 0.00, 0.010, -0.044, 1.030, 19:01:22.437, 1551484882437
48, -6423.02, 0.00, 0.00, 0.00, 0.00, 0.00, 0.00, 0.00, 0.000, 0.000, 0.000, 19:01:22.445, 1551484882445
49, -6430.19, 0.00, 0.00, 0.00, 0.00, 0.00, 0.00, 0.00, 0.000, 0.000, 0.000, 19:01:22.445, 1551484882445
50, -6432.14, 0.00, 0.00, 0.00, 0.00, 0.00, 0.00, 0.00, 0.000, 0.000, 0.000, 19:01:22.453, 1551484882453
51, -6443.92, 0.00, 0.00, 0.00, 0.00, 0.00, 0.00, 0.00, 0.000, 0.000, 0.000, 19:01:22.453, 1551484882453
52, -6440.14, 0.00, 0.00, 0.00, 0.00, 0.00, 0.00, 0.00, 0.000, 0.000, 0.000, 19:01:22.460, 1551484882460
53, -6438.51, 0.00, 0.00, 0.00, 0.00, 0.00, 0.00, 0.00, 0.000, 0.000, 0.000, 19:01:22.460, 1551484882460
54, -6434.69, 0.00, 0.00, 0.00, 0.00, 0.00, 0.00, 0.00, 0.000, 0.000, 0.000, 19:01:22.468, 1551484882468
55, -6440.57, 0.00, 0.00, 0.00, 0.00, 0.00, 0.00, 0.00, 0.000, 0.000, 0.000, 19:01:22.468, 1551484882468
56, -6419.64, 0.00, 0.00, 0.00, 0.00, 0.00, 0.00, 0.00, 0.000, 0.000, 0.000, 19:01:22.475, 1551484882475
57, -6402.77, 0.00, 0.00, 0.00, 0.00, 0.00, 0.00, 0.00, 0.012, -0.044, 1.036, 19:01:22.476, 1551484882476
58, -6414.66, 0.00, 0.00, 0.00, 0.00, 0.00, 0.00, 0.00, 0.000, 0.000, 0.000, 19:01:22.483, 1551484882483
59, -6430.73, 0.00, 0.00, 0.00, 0.00, 0.00, 0.00, 0.00, 0.000, 0.000, 0.000, 19:01:22.484, 1551484882484
60, -6427.96, 0.00, 0.00, 0.00, 0.00, 0.00, 0.00, 0.00, 0.000, 0.000, 0.000, 19:01:22.490, 1551484882490
61, -6424.83, 0.00, 0.00, 0.00, 0.00, 0.00, 0.00, 0.00, 0.000, 0.000, 0.000, 19:01:22.498, 1551484882498
62, -6426.31, 0.00, 0.00, 0.00, 0.00, 0.00, 0.00, 0.00, 0.000, 0.000, 0.000, 19:01:22.498, 1551484882498
63, -6437.79, 0.00, 0.00, 0.00, 0.00, 0.00, 0.00, 0.00, 0.000, 0.000, 0.000, 19:01:22.507, 1551484882507
64, -6431.71, 0.00, 0.00, 0.00, 0.00, 0.00, 0.00, 0.00, 0.000, 0.000, 0.000, 19:01:22.507, 1551484882507
65, -6418.28, 0.00, 0.00, 0.00, 0.00, 0.00, 0.00, 0.00, 0.000, 0.000, 0.000, 19:01:22.514, 1551484882514
66, -6415.00, 0.00, 0.00, 0.00, 0.00, 0.00, 0.00, 0.00, 0.000, 0.000, 0.000, 19:01:22.514, 1551484882514
67, -6426.73, 0.00, 0.00, 0.00, 0.00, 0.00, 0.00, 0.00, 0.006, -0.044, 1.032, 19:01:22.520, 1551484882520
68, -6430.42, 0.00, 0.00, 0.00, 0.00, 0.00, 0.00, 0.00, 0.000, 0.000, 0.000, 19:01:22.520, 1551484882520
69, -6436.39, 0.00, 0.00, 0.00, 0.00, 0.00, 0.00, 0.00, 0.000, 0.000, 0.000, 19:01:22.528, 1551484882528
70, -6445.73, 0.00, 0.00, 0.00, 0.00, 0.00, 0.00, 0.00, 0.000, 0.000, 0.000, 19:01:22.528, 1551484882528
71, -6443.81, 0.00, 0.00, 0.00, 0.00, 0.00, 0.00, 0.00, 0.000, 0.000, 0.000, 19:01:22.536, 1551484882536
72, -6445.82, 0.00, 0.00, 0.00, 0.00, 0.00, 0.00, 0.00, 0.000, 0.000, 0.000, 19:01:22.536, 1551484882536
73, -6428.74, 0.00, 0.00, 0.00, 0.00, 0.00, 0.00, 0.00, 0.000, 0.000, 0.000, 19:01:22.542, 1551484882542
74, -6422.44, 0.00, 0.00, 0.00, 0.00, 0.00, 0.00, 0.00, 0.000, 0.000, 0.000, 19:01:22.543, 1551484882543
75, -6417.19, 0.00, 0.00, 0.00, 0.00, 0.00, 0.00, 0.00, 0.000, 0.000, 0.000, 19:01:22.550, 1551484882550
76, -6413.50, 0.00, 0.00, 0.00, 0.00, 0.00, 0.00, 0.00, 0.010, -0.046, 1.036, 19:01:22.550, 1551484882550
77, -6414.08, 0.00, 0.00, 0.00, 0.00, 0.00, 0.00, 0.00, 0.000, 0.000, 0.000, 19:01:22.557, 1551484882557
78, -6424.61, 0.00, 0.00, 0.00, 0.00, 0.00, 0.00, 0.00, 0.000, 0.000, 0.000, 19:01:22.565, 1551484882565
79, -6438.51, 0.00, 0.00, 0.00, 0.00, 0.00, 0.00, 0.00, 0.000, 0.000, 0.000, 19:01:22.566, 1551484882566
80, -6443.87, 0.00, 0.00, 0.00, 0.00, 0.00, 0.00, 0.00, 0.000, 0.000, 0.000, 19:01:22.572, 1551484882572
81, -6428.72, 0.00, 0.00, 0.00, 0.00, 0.00, 0.00, 0.00, 0.000, 0.000, 0.000, 19:01:22.572, 1551484882572
82, -6421.92, 0.00, 0.00, 0.00, 0.00, 0.00, 0.00, 0.00, 0.000, 0.000, 0.000, 19:01:22.581, 1551484882581
83, -6435.16, 0.00, 0.00, 0.00, 0.00, 0.00, 0.00, 0.00, 0.000, 0.000, 0.000, 19:01:22.581, 1551484882581
84, -6439.85, 0.00, 0.00, 0.00, 0.00, 0.00, 0.00, 0.00, 0.000, 0.000, 0.000, 19:01:22.588, 1551484882588
85, -6418.88, 0.00, 0.00, 0.00, 0.00, 0.00, 0.00, 0.00, 0.000, 0.000, 0.000, 19:01:22.588, 1551484882588
86, -6417.57, 0.00, 0.00, 0.00, 0.00, 0.00, 0.00, 0.00, 0.018, -0.042, 1.026, 19:01:22.595, 1551484882595
87, -6420.69, 0.00, 0.00, 0.00, 0.00, 0.00, 0.00, 0.00, 0.000, 0.000, 0.000, 19:01:22.595, 1551484882595
88, -6424.58, 0.00, 0.00, 0.00, 0.00, 0.00, 0.00, 0.00, 0.000, 0.000, 0.000, 19:01:22.603, 1551484882603
89, -6430.02, 0.00, 0.00, 0.00, 0.00, 0.00, 0.00, 0.00, 0.000, 0.000, 0.000, 19:01:22.603, 1551484882603
90, -6410.64, 0.00, 0.00, 0.00, 0.00, 0.00, 0.00, 0.00, 0.000, 0.000, 0.000, 19:01:22.611, 1551484882611
91, -6414.19, 0.00, 0.00, 0.00, 0.00, 0.00, 0.00, 0.00, 0.000, 0.000, 0.000, 19:01:22.611, 1551484882611
92, -6429.03, 0.00, 0.00, 0.00, 0.00, 0.00, 0.00, 0.00, 0.000, 0.000, 0.000, 19:01:22.618, 1551484882618
93, -6417.88, 0.00, 0.00, 0.00, 0.00, 0.00, 0.00, 0.00, 0.000, 0.000, 0.000, 19:01:22.624, 1551484882624
94, -6402.14, 0.00, 0.00, 0.00, 0.00, 0.00, 0.00, 0.00, 0.000, 0.000, 0.000, 19:01:22.624, 1551484882624
95, -6411.46, 0.00, 0.00, 0.00, 0.00, 0.00, 0.00, 0.00, 0.000, 0.000, 0.000, 19:01:22.632, 1551484882632
96, -6412.31, 0.00, 0.00, 0.00, 0.00, 0.00, 0.00, 0.00, 0.014, -0.038, 1.034, 19:01:22.632, 1551484882632
97, -6421.23, 0.00, 0.00, 0.00, 0.00, 0.00, 0.00, 0.00, 0.000, 0.000, 0.000, 19:01:22.640, 1551484882640
98, -6410.61, 0.00, 0.00, 0.00, 0.00, 0.00, 0.00, 0.00, 0.000, 0.000, 0.000, 19:01:22.640, 1551484882640
99, -6412.76, 0.00, 0.00, 0.00, 0.00, 0.00, 0.00, 0.00, 0.000, 0.000, 0.000, 19:01:22.648, 1551484882648
100, -6421.30, 0.00, 0.00, 0.00, 0.00, 0.00, 0.00, 0.00, 0.000, 0.000, 0.000, 19:01:22.648, 1551484882648
101, -6432.32, 0.00, 0.00, 0.00, 0.00, 0.00, 0.00, 0.00, 0.000, 0.000, 0.000, 19:01:22.655, 1551484882655
102, -6407.28, 0.00, 0.00, 0.00, 0.00, 0.00, 0.00, 0.00, 0.000, 0.000, 0.000, 19:01:22.656, 1551484882656
103, -6404.71, 0.00, 0.00, 0.00, 0.00, 0.00, 0.00, 0.00, 0.000, 0.000, 0.000, 19:01:22.663, 1551484882663
104, -6423.42, 0.00, 0.00, 0.00, 0.00, 0.00, 0.00, 0.00, 0.000, 0.000, 0.000, 19:01:22.663, 1551484882663
105, -6433.32, 0.00, 0.00, 0.00, 0.00, 0.00, 0.00, 0.00, 0.000, 0.000, 0.000, 19:01:22.671, 1551484882671
106, -6416.78, 0.00, 0.00, 0.00, 0.00, 0.00, 0.00, 0.00, 0.014, -0.040, 1.030, 19:01:22.671, 1551484882671
107, -6403.37, 0.00, 0.00, 0.00, 0.00, 0.00, 0.00, 0.00, 0.000, 0.000, 0.000, 19:01:22.677, 1551484882677
108, -6411.24, 0.00, 0.00, 0.00, 0.00, 0.00, 0.00, 0.00, 0.000, 0.000, 0.000, 19:01:22.685, 1551484882685
109, -6419.29, 0.00, 0.00, 0.00, 0.00, 0.00, 0.00, 0.00, 0.000, 0.000, 0.000, 19:01:22.685, 1551484882685
110, -6406.81, 0.00, 0.00, 0.00, 0.00, 0.00, 0.00, 0.00, 0.000, 0.000, 0.000, 19:01:22.692, 1551484882692
111, -6399.97, 0.00, 0.00, 0.00, 0.00, 0.00, 0.00, 0.00, 0.000, 0.000, 0.000, 19:01:22.693, 1551484882693
112, -6402.52, 0.00, 0.00, 0.00, 0.00, 0.00, 0.00, 0.00, 0.000, 0.000, 0.000, 19:01:22.700, 1551484882700
113, -6413.94, 0.00, 0.00, 0.00, 0.00, 0.00, 0.00, 0.00, 0.000, 0.000, 0.000, 19:01:22.701, 1551484882701
114, -6418.73, 0.00, 0.00, 0.00, 0.00, 0.00, 0.00, 0.00, 0.000, 0.000, 0.000, 19:01:22.707, 1551484882707
115, -6410.93, 0.00, 0.00, 0.00, 0.00, 0.00, 0.00, 0.00, 0.000, 0.000, 0.000, 19:01:22.707, 1551484882707
116, -6409.83, 0.00, 0.00, 0.00, 0.00, 0.00, 0.00, 0.00, 0.018, -0.038, 1.028, 19:01:22.715, 1551484882715
117, -6408.51, 0.00, 0.00, 0.00, 0.00, 0.00, 0.00, 0.00, 0.000, 0.000, 0.000, 19:01:22.715, 1551484882715
118, -6409.63, 0.00, 0.00, 0.00, 0.00, 0.00, 0.00, 0.00, 0.000, 0.000, 0.000, 19:01:22.723, 1551484882723
119, -6390.30, 0.00, 0.00, 0.00, 0.00, 0.00, 0.00, 0.00, 0.000, 0.000, 0.000, 19:01:22.723, 1551484882723
120, -6395.06, 0.00, 0.00, 0.00, 0.00, 0.00, 0.00, 0.00, 0.000, 0.000, 0.000, 19:01:22.730, 1551484882730
121, -6399.68, 0.00, 0.00, 0.00, 0.00, 0.00, 0.00, 0.00, 0.000, 0.000, 0.000, 19:01:22.730, 1551484882730
122, -6397.00, 0.00, 0.00, 0.00, 0.00, 0.00, 0.00, 0.00, 0.000, 0.000, 0.000, 19:01:22.737, 1551484882737
123, -6377.04, 0.00, 0.00, 0.00, 0.00, 0.00, 0.00, 0.00, 0.000, 0.000, 0.000, 19:01:22.745, 1551484882745
124, -6370.27, 0.00, 0.00, 0.00, 0.00, 0.00, 0.00, 0.00, 0.000, 0.000, 0.000, 19:01:22.745, 1551484882745
125, -6383.68, 0.00, 0.00, 0.00, 0.00, 0.00, 0.00, 0.00, 0.000, 0.000, 0.000, 19:01:22.753, 1551484882753
126, -6393.81, 0.00, 0.00, 0.00, 0.00, 0.00, 0.00, 0.00, 0.016, -0.036, 1.026, 19:01:22.754, 1551484882754
127, -6383.86, 0.00, 0.00, 0.00, 0.00, 0.00, 0.00, 0.00, 0.000, 0.000, 0.000, 19:01:22.759, 1551484882759
128, -6382.63, 0.00, 0.00, 0.00, 0.00, 0.00, 0.00, 0.00, 0.000, 0.000, 0.000, 19:01:22.760, 1551484882760
129, -6396.09, 0.00, 0.00, 0.00, 0.00, 0.00, 0.00, 0.00, 0.000, 0.000, 0.000, 19:01:22.767, 1551484882767
130, -6398.21, 0.00, 0.00, 0.00, 0.00, 0.00, 0.00, 0.00, 0.000, 0.000, 0.000, 19:01:22.768, 1551484882768
131, -6391.79, 0.00, 0.00, 0.00, 0.00, 0.00, 0.00, 0.00, 0.000, 0.000, 0.000, 19:01:22.775, 1551484882775
132, -6388.49, 0.00, 0.00, 0.00, 0.00, 0.00, 0.00, 0.00, 0.000, 0.000, 0.000, 19:01:22.776, 1551484882776
133, -6396.67, 0.00, 0.00, 0.00, 0.00, 0.00, 0.00, 0.00, 0.000, 0.000, 0.000, 19:01:22.783, 1551484882783
134, -6404.15, 0.00, 0.00, 0.00, 0.00, 0.00, 0.00, 0.00, 0.000, 0.000, 0.000, 19:01:22.783, 1551484882783
135, -6401.07, 0.00, 0.00, 0.00, 0.00, 0.00, 0.00, 0.00, 0.012, -0.034, 1.024, 19:01:22.790, 1551484882790
136, -6393.14, 0.00, 0.00, 0.00, 0.00, 0.00, 0.00, 0.00, 0.000, 0.000, 0.000, 19:01:22.790, 1551484882790
137, -6395.86, 0.00, 0.00, 0.00, 0.00, 0.00, 0.00, 0.00, 0.000, 0.000, 0.000, 19:01:22.797, 1551484882797
138, -6410.68, 0.00, 0.00, 0.00, 0.00, 0.00, 0.00, 0.00, 0.000, 0.000, 0.000, 19:01:22.797, 1551484882797
139, -6406.26, 0.00, 0.00, 0.00, 0.00, 0.00, 0.00, 0.00, 0.000, 0.000, 0.000, 19:01:22.805, 1551484882805
140, -6386.07, 0.00, 0.00, 0.00, 0.00, 0.00, 0.00, 0.00, 0.000, 0.000, 0.000, 19:01:22.812, 1551484882812
141, -6396.09, 0.00, 0.00, 0.00, 0.00, 0.00, 0.00, 0.00, 0.000, 0.000, 0.000, 19:01:22.812, 1551484882812
142, -6398.88, 0.00, 0.00, 0.00, 0.00, 0.00, 0.00, 0.00, 0.000, 0.000, 0.000, 19:01:22.820, 1551484882820
143, -6399.28, 0.00, 0.00, 0.00, 0.00, 0.00, 0.00, 0.00, 0.000, 0.000, 0.000, 19:01:22.820, 1551484882820
144, -6385.42, 0.00, 0.00, 0.00, 0.00, 0.00, 0.00, 0.00, 0.000, 0.000, 0.000, 19:01:22.828, 1551484882828
145, -6386.70, 0.00, 0.00, 0.00, 0.00, 0.00, 0.00, 0.00, 0.014, -0.036, 1.020, 19:01:22.828, 1551484882828
146, -6395.97, 0.00, 0.00, 0.00, 0.00, 0.00, 0.00, 0.00, 0.000, 0.000, 0.000, 19:01:22.836, 1551484882836
147, -6409.18, 0.00, 0.00, 0.00, 0.00, 0.00, 0.00, 0.00, 0.000, 0.000, 0.000, 19:01:22.836, 1551484882836
148, -6391.75, 0.00, 0.00, 0.00, 0.00, 0.00, 0.00, 0.00, 0.000, 0.000, 0.000, 19:01:22.842, 1551484882842
149, -6382.07, 0.00, 0.00, 0.00, 0.00, 0.00, 0.00, 0.00, 0.000, 0.000, 0.000, 19:01:22.843, 1551484882843
150, -6397.23, 0.00, 0.00, 0.00, 0.00, 0.00, 0.00, 0.00, 0.000, 0.000, 0.000, 19:01:22.850, 1551484882850
151, -6411.96, 0.00, 0.00, 0.00, 0.00, 0.00, 0.00, 0.00, 0.000, 0.000, 0.000, 19:01:22.851, 1551484882851
152, -6400.06, 0.00, 0.00, 0.00, 0.00, 0.00, 0.00, 0.00, 0.000, 0.000, 0.000, 19:01:22.858, 1551484882858
153, -6391.10, 0.00, 0.00, 0.00, 0.00, 0.00, 0.00, 0.00, 0.000, 0.000, 0.000, 19:01:22.858, 1551484882858
154, -6395.53, 0.00, 0.00, 0.00, 0.00, 0.00, 0.00, 0.00, 0.000, 0.000, 0.000, 19:01:22.865, 1551484882865
155, -6404.89, 0.00, 0.00, 0.00, 0.00, 0.00, 0.00, 0.00, 0.016, -0.034, 1.020, 19:01:22.872, 1551484882872
156, -6395.44, 0.00, 0.00, 0.00, 0.00, 0.00, 0.00, 0.00, 0.000, 0.000, 0.000, 19:01:22.872, 1551484882872
157, -6392.46, 0.00, 0.00, 0.00, 0.00, 0.00, 0.00, 0.00, 0.000, 0.000, 0.000, 19:01:22.880, 1551484882880
158, -6401.29, 0.00, 0.00, 0.00, 0.00, 0.00, 0.00, 0.00, 0.000, 0.000, 0.000, 19:01:22.880, 1551484882880
159, -6411.13, 0.00, 0.00, 0.00, 0.00, 0.00, 0.00, 0.00, 0.000, 0.000, 0.000, 19:01:22.889, 1551484882889
160, -6402.37, 0.00, 0.00, 0.00, 0.00, 0.00, 0.00, 0.00, 0.000, 0.000, 0.000, 19:01:22.889, 1551484882889
161, -6392.58, 0.00, 0.00, 0.00, 0.00, 0.00, 0.00, 0.00, 0.000, 0.000, 0.000, 19:01:22.895, 1551484882895
162, -6395.91, 0.00, 0.00, 0.00, 0.00, 0.00, 0.00, 0.00, 0.000, 0.000, 0.000, 19:01:22.895, 1551484882895
163, -6402.41, 0.00, 0.00, 0.00, 0.00, 0.00, 0.00, 0.00, 0.000, 0.000, 0.000, 19:01:22.903, 1551484882903
164, -6404.40, 0.00, 0.00, 0.00, 0.00, 0.00, 0.00, 0.00, 0.000, 0.000, 0.000, 19:01:22.903, 1551484882903
165, -6384.26, 0.00, 0.00, 0.00, 0.00, 0.00, 0.00, 0.00, 0.016, -0.032, 1.026, 19:01:22.911, 1551484882911
166, -6380.06, 0.00, 0.00, 0.00, 0.00, 0.00, 0.00, 0.00, 0.000, 0.000, 0.000, 19:01:22.911, 1551484882911
167, -6388.91, 0.00, 0.00, 0.00, 0.00, 0.00, 0.00, 0.00, 0.000, 0.000, 0.000, 19:01:22.918, 1551484882918
168, -6392.96, 0.00, 0.00, 0.00, 0.00, 0.00, 0.00, 0.00, 0.000, 0.000, 0.000, 19:01:22.918, 1551484882918
169, -6386.65, 0.00, 0.00, 0.00, 0.00, 0.00, 0.00, 0.00, 0.000, 0.000, 0.000, 19:01:22.924, 1551484882924
170, -6393.63, 0.00, 0.00, 0.00, 0.00, 0.00, 0.00, 0.00, 0.000, 0.000, 0.000, 19:01:22.932, 1551484882932
171, -6400.13, 0.00, 0.00, 0.00, 0.00, 0.00, 0.00, 0.00, 0.000, 0.000, 0.000, 19:01:22.932, 1551484882932
172, -6406.61, 0.00, 0.00, 0.00, 0.00, 0.00, 0.00, 0.00, 0.000, 0.000, 0.000, 19:01:22.940, 1551484882940
173, -6389.80, 0.00, 0.00, 0.00, 0.00, 0.00, 0.00, 0.00, 0.000, 0.000, 0.000, 19:01:22.940, 1551484882940
174, -6376.19, 0.00, 0.00, 0.00, 0.00, 0.00, 0.00, 0.00, 0.000, 0.000, 0.000, 19:01:22.947, 1551484882947
175, -6382.67, 0.00, 0.00, 0.00, 0.00, 0.00, 0.00, 0.00, 0.016, -0.040, 1.020, 19:01:22.948, 1551484882948
176, -6397.07, 0.00, 0.00, 0.00, 0.00, 0.00, 0.00, 0.00, 0.000, 0.000, 0.000, 19:01:22.955, 1551484882955
177, -6379.46, 0.00, 0.00, 0.00, 0.00, 0.00, 0.00, 0.00, 0.000, 0.000, 0.000, 19:01:22.955, 1551484882955
178, -6371.83, 0.00, 0.00, 0.00, 0.00, 0.00, 0.00, 0.00, 0.000, 0.000, 0.000, 19:01:22.963, 1551484882963
179, -6373.58, 0.00, 0.00, 0.00, 0.00, 0.00, 0.00, 0.00, 0.000, 0.000, 0.000, 19:01:22.963, 1551484882963
180, -6387.50, 0.00, 0.00, 0.00, 0.00, 0.00, 0.00, 0.00, 0.000, 0.000, 0.000, 19:01:22.971, 1551484882971
181, -6377.42, 0.00, 0.00, 0.00, 0.00, 0.00, 0.00, 0.00, 0.000, 0.000, 0.000, 19:01:22.972, 1551484882972
182, -6362.83, 0.00, 0.00, 0.00, 0.00, 0.00, 0.00, 0.00, 0.000, 0.000, 0.000, 19:01:22.977, 1551484882977
183, -6373.11, 0.00, 0.00, 0.00, 0.00, 0.00, 0.00, 0.00, 0.000, 0.000, 0.000, 19:01:22.978, 1551484882978
184, -6381.04, 0.00, 0.00, 0.00, 0.00, 0.00, 0.00, 0.00, 0.000, 0.000, 0.000, 19:01:22.985, 1551484882985
185, -6380.73, 0.00, 0.00, 0.00, 0.00, 0.00, 0.00, 0.00, 0.016, -0.042, 1.024, 19:01:22.993, 1551484882993
186, -6371.54, 0.00, 0.00, 0.00, 0.00, 0.00, 0.00, 0.00, 0.000, 0.000, 0.000, 19:01:22.993, 1551484882993
187, -6374.52, 0.00, 0.00, 0.00, 0.00, 0.00, 0.00, 0.00, 0.000, 0.000, 0.000, 19:01:23.001, 1551484883001
188, -6390.54, 0.00, 0.00, 0.00, 0.00, 0.00, 0.00, 0.00, 0.000, 0.000, 0.000, 19:01:23.002, 1551484883002
189, -6387.10, 0.00, 0.00, 0.00, 0.00, 0.00, 0.00, 0.00, 0.000, 0.000, 0.000, 19:01:23.007, 1551484883007
190, -6369.62, 0.00, 0.00, 0.00, 0.00, 0.00, 0.00, 0.00, 0.000, 0.000, 0.000, 19:01:23.007, 1551484883007
191, -6369.00, 0.00, 0.00, 0.00, 0.00, 0.00, 0.00, 0.00, 0.000, 0.000, 0.000, 19:01:23.015, 1551484883015
192, -6386.94, 0.00, 0.00, 0.00, 0.00, 0.00, 0.00, 0.00, 0.000, 0.000, 0.000, 19:01:23.015, 1551484883015
193, -6385.71, 0.00, 0.00, 0.00, 0.00, 0.00, 0.00, 0.00, 0.000, 0.000, 0.000, 19:01:23.024, 1551484883024
194, -6365.84, 0.00, 0.00, 0.00, 0.00, 0.00, 0.00, 0.00, 0.000, 0.000, 0.000, 19:01:23.024, 1551484883024
195, -6368.03, 0.00, 0.00, 0.00, 0.00, 0.00, 0.00, 0.00, 0.012, -0.042, 1.026, 19:01:23.030, 1551484883030
196, -6379.17, 0.00, 0.00, 0.00, 0.00, 0.00, 0.00, 0.00, 0.000, 0.000, 0.000, 19:01:23.030, 1551484883030
197, -6389.25, 0.00, 0.00, 0.00, 0.00, 0.00, 0.00, 0.00, 0.000, 0.000, 0.000, 19:01:23.039, 1551484883039
198, -6379.61, 0.00, 0.00, 0.00, 0.00, 0.00, 0.00, 0.00, 0.000, 0.000, 0.000, 19:01:23.039, 1551484883039
199, -6379.12, 0.00, 0.00, 0.00, 0.00, 0.00, 0.00, 0.00, 0.000, 0.000, 0.000, 19:01:23.045, 1551484883045
200, -6378.76, 0.00, 0.00, 0.00, 0.00, 0.00, 0.00, 0.00, 0.000, 0.000, 0.000, 19:01:23.045, 1551484883045
201, -6388.13, 0.00, 0.00, 0.00, 0.00, 0.00, 0.00, 0.00, 0.000, 0.000, 0.000, 19:01:23.053, 1551484883053
202, -6381.53, 0.00, 0.00, 0.00, 0.00, 0.00, 0.00, 0.00, 0.000, 0.000, 0.000, 19:01:23.059, 1551484883059
203, -6373.11, 0.00, 0.00, 0.00, 0.00, 0.00, 0.00, 0.00, 0.000, 0.000, 0.000, 19:01:23.060, 1551484883060
204, -6388.15, 0.00, 0.00, 0.00, 0.00, 0.00, 0.00, 0.00, 0.012, -0.042, 1.024, 19:01:23.067, 1551484883067
205, -6399.28, 0.00, 0.00, 0.00, 0.00, 0.00, 0.00, 0.00, 0.000, 0.000, 0.000, 19:01:23.068, 1551484883068
206, -6392.24, 0.00, 0.00, 0.00, 0.00, 0.00, 0.00, 0.00, 0.000, 0.000, 0.000, 19:01:23.075, 1551484883075
207, -6388.73, 0.00, 0.00, 0.00, 0.00, 0.00, 0.00, 0.00, 0.000, 0.000, 0.000, 19:01:23.076, 1551484883076
208, -6388.87, 0.00, 0.00, 0.00, 0.00, 0.00, 0.00, 0.00, 0.000, 0.000, 0.000, 19:01:23.082, 1551484883082
209, -6390.56, 0.00, 0.00, 0.00, 0.00, 0.00, 0.00, 0.00, 0.000, 0.000, 0.000, 19:01:23.083, 1551484883083
210, -6393.14, 0.00, 0.00, 0.00, 0.00, 0.00, 0.00, 0.00, 0.000, 0.000, 0.000, 19:01:23.090, 1551484883090
211, -6389.02, 0.00, 0.00, 0.00, 0.00, 0.00, 0.00, 0.00, 0.000, 0.000, 0.000, 19:01:23.090, 1551484883090
212, -6392.80, 0.00, 0.00, 0.00, 0.00, 0.00, 0.00, 0.00, 0.000, 0.000, 0.000, 19:01:23.098, 1551484883098
213, -6402.12, 0.00, 0.00, 0.00, 0.00, 0.00, 0.00, 0.00, 0.000, 0.000, 0.000, 19:01:23.098, 1551484883098
214, -6408.63, 0.00, 0.00, 0.00, 0.00, 0.00, 0.00, 0.00, 0.016, -0.042, 1.018, 19:01:23.106, 1551484883106
215, -6395.55, 0.00, 0.00, 0.00, 0.00, 0.00, 0.00, 0.00, 0.000, 0.000, 0.000, 19:01:23.106, 1551484883106
216, -6404.49, 0.00, 0.00, 0.00, 0.00, 0.00, 0.00, 0.00, 0.000, 0.000, 0.000, 19:01:23.112, 1551484883112
217, -6412.09, 0.00, 0.00, 0.00, 0.00, 0.00, 0.00, 0.00, 0.000, 0.000, 0.000, 19:01:23.120, 1551484883120
218, -6409.74, 0.00, 0.00, 0.00, 0.00, 0.00, 0.00, 0.00, 0.000, 0.000, 0.000, 19:01:23.120, 1551484883120
219, -6390.72, 0.00, 0.00, 0.00, 0.00, 0.00, 0.00, 0.00, 0.000, 0.000, 0.000, 19:01:23.128, 1551484883128
220, -6392.04, 0.00, 0.00, 0.00, 0.00, 0.00, 0.00, 0.00, 0.000, 0.000, 0.000, 19:01:23.128, 1551484883128
221, -6397.31, 0.00, 0.00, 0.00, 0.00, 0.00, 0.00, 0.00, 0.000, 0.000, 0.000, 19:01:23.135, 1551484883135
222, -6404.96, 0.00, 0.00, 0.00, 0.00, 0.00, 0.00, 0.00, 0.000, 0.000, 0.000, 19:01:23.135, 1551484883135
223, -6387.03, 0.00, 0.00, 0.00, 0.00, 0.00, 0.00, 0.00, 0.000, 0.000, 0.000, 19:01:23.142, 1551484883142
224, -6383.90, 0.00, 0.00, 0.00, 0.00, 0.00, 0.00, 0.00, 0.012, -0.044, 1.024, 19:01:23.142, 1551484883142
225, -6393.05, 0.00, 0.00, 0.00, 0.00, 0.00, 0.00, 0.00, 0.000, 0.000, 0.000, 19:01:23.151, 1551484883151
226, -6401.11, 0.00, 0.00, 0.00, 0.00, 0.00, 0.00, 0.00, 0.000, 0.000, 0.000, 19:01:23.151, 1551484883151
227, -6389.89, 0.00, 0.00, 0.00, 0.00, 0.00, 0.00, 0.00, 0.000, 0.000, 0.000, 19:01:23.158, 1551484883158
228, -6388.71, 0.00, 0.00, 0.00, 0.00, 0.00, 0.00, 0.00, 0.000, 0.000, 0.000, 19:01:23.159, 1551484883159
229, -6396.78, 0.00, 0.00, 0.00, 0.00, 0.00, 0.00, 0.00, 0.000, 0.000, 0.000, 19:01:23.165, 1551484883165
230, -6397.27, 0.00, 0.00, 0.00, 0.00, 0.00, 0.00, 0.00, 0.000, 0.000, 0.000, 19:01:23.165, 1551484883165
231, -6384.69, 0.00, 0.00, 0.00, 0.00, 0.00, 0.00, 0.00, 0.000, 0.000, 0.000, 19:01:23.172, 1551484883172
232, -6373.09, 0.00, 0.00, 0.00, 0.00, 0.00, 0.00, 0.00, 0.000, 0.000, 0.000, 19:01:23.181, 1551484883181
233, -6378.47, 0.00, 0.00, 0.00, 0.00, 0.00, 0.00, 0.00, 0.000, 0.000, 0.000, 19:01:23.181, 1551484883181
234, -6386.43, 0.00, 0.00, 0.00, 0.00, 0.00, 0.00, 0.00, 0.010, -0.040, 1.020, 19:01:23.188, 1551484883188
235, -6387.55, 0.00, 0.00, 0.00, 0.00, 0.00, 0.00, 0.00, 0.000, 0.000, 0.000, 19:01:23.188, 1551484883188
236, -6372.30, 0.00, 0.00, 0.00, 0.00, 0.00, 0.00, 0.00, 0.000, 0.000, 0.000, 19:01:23.195, 1551484883195
237, -6375.75, 0.00, 0.00, 0.00, 0.00, 0.00, 0.00, 0.00, 0.000, 0.000, 0.000, 19:01:23.195, 1551484883195
238, -6382.61, 0.00, 0.00, 0.00, 0.00, 0.00, 0.00, 0.00, 0.000, 0.000, 0.000, 19:01:23.203, 1551484883203
239, -6378.23, 0.00, 0.00, 0.00, 0.00, 0.00, 0.00, 0.00, 0.000, 0.000, 0.000, 19:01:23.203, 1551484883203
240, -6360.35, 0.00, 0.00, 0.00, 0.00, 0.00, 0.00, 0.00, 0.000, 0.000, 0.000, 19:01:23.211, 1551484883211
241, -6355.00, 0.00, 0.00, 0.00, 0.00, 0.00, 0.00, 0.00, 0.000, 0.000, 0.000, 19:01:23.211, 1551484883211
242, -6362.04, 0.00, 0.00, 0.00, 0.00, 0.00, 0.00, 0.00, 0.000, 0.000, 0.000, 19:01:23.218, 1551484883218
243, -6380.89, 0.00, 0.00, 0.00, 0.00, 0.00, 0.00, 0.00, 0.000, 0.000, 0.000, 19:01:23.218, 1551484883218
244, -6373.02, 0.00, 0.00, 0.00, 0.00, 0.00, 0.00, 0.00, 0.016, -0.040, 1.016, 19:01:23.225, 1551484883225
245, -6371.70, 0.00, 0.00, 0.00, 0.00, 0.00, 0.00, 0.00, 0.000, 0.000, 0.000, 19:01:23.225, 1551484883225
246, -6383.43, 0.00, 0.00, 0.00, 0.00, 0.00, 0.00, 0.00, 0.000, 0.000, 0.000, 19:01:23.232, 1551484883232
247, -6396.89, 0.00, 0.00, 0.00, 0.00, 0.00, 0.00, 0.00, 0.000, 0.000, 0.000, 19:01:23.241, 1551484883241
248, -6382.47, 0.00, 0.00, 0.00, 0.00, 0.00, 0.00, 0.00, 0.000, 0.000, 0.000, 19:01:23.241, 1551484883241
249, -6362.56, 0.00, 0.00, 0.00, 0.00, 0.00, 0.00, 0.00, 0.000, 0.000, 0.000, 19:01:23.247, 1551484883247
250, -6375.48, 0.00, 0.00, 0.00, 0.00, 0.00, 0.00, 0.00, 0.000, 0.000, 0.000, 19:01:23.248, 1551484883248
251, -6392.29, 0.00, 0.00, 0.00, 0.00, 0.00, 0.00, 0.00, 0.000, 0.000, 0.000, 19:01:23.255, 1551484883255
252, -6376.39, 0.00, 0.00, 0.00, 0.00, 0.00, 0.00, 0.00, 0.000, 0.000, 0.000, 19:01:23.255, 1551484883255
253, -6374.54, 0.00, 0.00, 0.00, 0.00, 0.00, 0.00, 0.00, 0.000, 0.000, 0.000, 19:01:23.263, 1551484883263
254, -6383.28, 0.00, 0.00, 0.00, 0.00, 0.00, 0.00, 0.00, 0.012, -0.044, 1.030, 19:01:23.263, 1551484883263
255, -6392.51, 0.00, 0.00, 0.00, 0.00, 0.00, 0.00, 0.00, 0.000, 0.000, 0.000, 19:01:23.271, 1551484883271
0, -6383.70, 0.00, 0.00, 0.00, 0.00, 0.00, 0.00, 0.00, 0.000, 0.000, 0.000, 19:01:23.271, 1551484883271
1, -6376.10, 0.00, 0.00, 0.00, 0.00, 0.00, 0.00, 0.00, 0.000, 0.000, 0.000, 19:01:23.278, 1551484883278
2, -6382.45, 0.00, 0.00, 0.00, 0.00, 0.00, 0.00, 0.00, 0.000, 0.000, 0.000, 19:01:23.278, 1551484883278
3, -6399.35, 0.00, 0.00, 0.00, 0.00, 0.00, 0.00, 0.00, 0.000, 0.000, 0.000, 19:01:23.285, 1551484883285
4, -6394.19, 0.00, 0.00, 0.00, 0.00, 0.00, 0.00, 0.00, 0.000, 0.000, 0.000, 19:01:23.286, 1551484883286
5, -6376.68, 0.00, 0.00, 0.00, 0.00, 0.00, 0.00, 0.00, 0.000, 0.000, 0.000, 19:01:23.293, 1551484883293
6, -6381.91, 0.00, 0.00, 0.00, 0.00, 0.00, 0.00, 0.00, 0.000, 0.000, 0.000, 19:01:23.293, 1551484883293
7, -6382.56, 0.00, 0.00, 0.00, 0.00, 0.00, 0.00, 0.00, 0.014, -0.038, 1.032, 19:01:23.300, 1551484883300
8, -6397.65, 0.00, 0.00, 0.00, 0.00, 0.00, 0.00, 0.00, 0.000, 0.000, 0.000, 19:01:23.307, 1551484883307
9, -6387.30, 0.00, 0.00, 0.00, 0.00, 0.00, 0.00, 0.00, 0.000, 0.000, 0.000, 19:01:23.307, 1551484883307
10, -6384.51, 0.00, 0.00, 0.00, 0.00, 0.00, 0.00, 0.00, 0.000, 0.000, 0.000, 19:01:23.315, 1551484883315
11, -6389.72, 0.00, 0.00, 0.00, 0.00, 0.00, 0.00, 0.00, 0.000, 0.000, 0.000, 19:01:23.315, 1551484883315
12, -6404.51, 0.00, 0.00, 0.00, 0.00, 0.00, 0.00, 0.00, 0.000, 0.000, 0.000, 19:01:23.323, 1551484883323
13, -6394.19, 0.00, 0.00, 0.00, 0.00, 0.00, 0.00, 0.00, 0.000, 0.000, 0.000, 19:01:23.323, 1551484883323
14, -6395.79, 0.00, 0.00, 0.00, 0.00, 0.00, 0.00, 0.00, 0.000, 0.000, 0.000, 19:01:23.330, 1551484883330
15, -6398.25, 0.00, 0.00, 0.00, 0.00, 0.00, 0.00, 0.00, 0.000, 0.000, 0.000, 19:01:23.330, 1551484883330
16, -6406.59, 0.00, 0.00, 0.00, 0.00, 0.00, 0.00, 0.00, 0.000, 0.000, 0.000, 19:01:23.338, 1551484883338
17, -6397.58, 0.00, 0.00, 0.00, 0.00, 0.00, 0.00, 0.00, 0.014, -0.038, 1.024, 19:01:23.338, 1551484883338
18, -6394.05, 0.00, 0.00, 0.00, 0.00, 0.00, 0.00, 0.00, 0.000, 0.000, 0.000, 19:01:23.346, 1551484883346
19, -6399.17, 0.00, 0.00, 0.00, 0.00, 0.00, 0.00, 0.00, 0.000, 0.000, 0.000, 19:01:23.346, 1551484883346
20, -6412.94, 0.00, 0.00, 0.00, 0.00, 0.00, 0.00, 0.00, 0.000, 0.000, 0.000, 19:01:23.353, 1551484883353
21, -6400.69, 0.00, 0.00, 0.00, 0.00, 0.00, 0.00, 0.00, 0.000, 0.000, 0.000, 19:01:23.353, 1551484883353
22, -6391.75, 0.00, 0.00, 0.00, 0.00, 0.00, 0.00, 0.00, 0.000, 0.000, 0.000, 19:01:23.359, 1551484883359
23, -6405.74, 0.00, 0.00, 0.00, 0.00, 0.00, 0.00, 0.00, 0.000, 0.000, 0.000, 19:01:23.367, 1551484883367
24, -6415.89, 0.00, 0.00, 0.00, 0.00, 0.00, 0.00, 0.00, 0.000, 0.000, 0.000, 19:01:23.368, 1551484883368
25, -6410.84, 0.00, 0.00, 0.00, 0.00, 0.00, 0.00, 0.00, 0.000, 0.000, 0.000, 19:01:23.375, 1551484883375
26, -6396.17, 0.00, 0.00, 0.00, 0.00, 0.00, 0.00, 0.00, 0.000, 0.000, 0.000, 19:01:23.376, 1551484883376
27, -6405.54, 0.00, 0.00, 0.00, 0.00, 0.00, 0.00, 0.00, 0.016, -0.038, 1.026, 19:01:23.383, 1551484883383
28, -6416.49, 0.00, 0.00, 0.00, 0.00, 0.00, 0.00, 0.00, 0.000, 0.000, 0.000, 19:01:23.383, 1551484883383
29, -6414.88, 0.00, 0.00, 0.00, 0.00, 0.00, 0.00, 0.00, 0.000, 0.000, 0.000, 19:01:23.390, 1551484883390
30, -6395.42, 0.00, 0.00, 0.00, 0.00, 0.00, 0.00, 0.00, 0.000, 0.000, 0.000, 19:01:23.390, 1551484883390
31, -6410.01, 0.00, 0.00, 0.00, 0.00, 0.00, 0.00, 0.00, 0.000, 0.000, 0.000, 19:01:23.398, 1551484883398
32, -6426.28, 0.00, 0.00, 0.00, 0.00, 0.00, 0.00, 0.00, 0.000, 0.000, 0.000, 19:01:23.398, 1551484883398
33, -6426.01, 0.00, 0.00, 0.00, 0.00, 0.00, 0.00, 0.00, 0.000, 0.000, 0.000, 19:01:23.405, 1551484883405
34, -6407.55, 0.00, 0.00, 0.00, 0.00, 0.00, 0.00, 0.00, 0.000, 0.000, 0.000, 19:01:23.405, 1551484883405
35, -6408.67, 0.00, 0.00, 0.00, 0.00, 0.00, 0.00, 0.00, 0.000, 0.000, 0.000, 19:01:23.413, 1551484883413
36, -6419.24, 0.00, 0.00, 0.00, 0.00, 0.00, 0.00, 0.00, 0.000, 0.000, 0.000, 19:01:23.413, 1551484883413
37, -6433.82, 0.00, 0.00, 0.00, 0.00, 0.00, 0.00, 0.00, 0.014, -0.040, 1.028, 19:01:23.420, 1551484883420
38, -6421.63, 0.00, 0.00, 0.00, 0.00, 0.00, 0.00, 0.00, 0.000, 0.000, 0.000, 19:01:23.428, 1551484883428
39, -6410.95, 0.00, 0.00, 0.00, 0.00, 0.00, 0.00, 0.00, 0.000, 0.000, 0.000, 19:01:23.428, 1551484883428
40, -6419.69, 0.00, 0.00, 0.00, 0.00, 0.00, 0.00, 0.00, 0.000, 0.000, 0.000, 19:01:23.435, 1551484883435
41, -6429.88, 0.00, 0.00, 0.00, 0.00, 0.00, 0.00, 0.00, 0.000, 0.000, 0.000, 19:01:23.435, 1551484883435
42, -6420.96, 0.00, 0.00, 0.00, 0.00, 0.00, 0.00, 0.00, 0.000, 0.000, 0.000, 19:01:23.442, 1551484883442
43, -6411.60, 0.00, 0.00, 0.00, 0.00, 0.00, 0.00, 0.00, 0.000, 0.000, 0.000, 19:01:23.442, 1551484883442
44, -6413.30, 0.00, 0.00, 0.00, 0.00, 0.00, 0.00, 0.00, 0.000, 0.000, 0.000, 19:01:23.451, 1551484883451
45, -6419.17, 0.00, 0.00, 0.00, 0.00, 0.00, 0.00, 0.00, 0.000, 0.000, 0.000, 19:01:23.451, 1551484883451
46, -6422.64, 0.00, 0.00, 0.00, 0.00, 0.00, 0.00, 0.00, 0.000, 0.000, 0.000, 19:01:23.458, 1551484883458
47, -6417.10, 0.00, 0.00, 0.00, 0.00, 0.00, 0.00, 0.00, 0.012, -0.038, 1.024, 19:01:23.458, 1551484883458
48, -6407.28, 0.00, 0.00, 0.00, 0.00, 0.00, 0.00, 0.00, 0.000, 0.000, 0.000, 19:01:23.465, 1551484883465
49, -6423.13, 0.00, 0.00, 0.00, 0.00, 0.00, 0.00, 0.00, 0.000, 0.000, 0.000, 19:01:23.465, 1551484883465
50, -6417.99, 0.00, 0.00, 0.00, 0.00, 0.00, 0.00, 0.00, 0.000, 0.000, 0.000, 19:01:23.473, 1551484883473
51, -6407.33, 0.00, 0.00, 0.00, 0.00, 0.00, 0.00, 0.00, 0.000, 0.000, 0.000, 19:01:23.473, 1551484883473
52, -6410.39, 0.00, 0.00, 0.00, 0.00, 0.00, 0.00, 0.00, 0.000, 0.000, 0.000, 19:01:23.480, 1551484883480
53, -6420.61, 0.00, 0.00, 0.00, 0.00, 0.00, 0.00, 0.00, 0.000, 0.000, 0.000, 19:01:23.488, 1551484883488
54, -6421.48, 0.00, 0.00, 0.00, 0.00, 0.00, 0.00, 0.00, 0.000, 0.000, 0.000, 19:01:23.488, 1551484883488
55, -6406.99, 0.00, 0.00, 0.00, 0.00, 0.00, 0.00, 0.00, 0.000, 0.000, 0.000, 19:01:23.495, 1551484883495
56, -6405.47, 0.00, 0.00, 0.00, 0.00, 0.00, 0.00, 0.00, 0.000, 0.000, 0.000, 19:01:23.495, 1551484883495
57, -6413.99, 0.00, 0.00, 0.00, 0.00, 0.00, 0.00, 0.00, 0.012, -0.038, 1.028, 19:01:23.503, 1551484883503
58, -6422.08, 0.00, 0.00, 0.00, 0.00, 0.00, 0.00, 0.00, 0.000, 0.000, 0.000, 19:01:23.503, 1551484883503
59, -6401.03, 0.00, 0.00, 0.00, 0.00, 0.00, 0.00, 0.00, 0.000, 0.000, 0.000, 19:01:23.511, 1551484883511
60, -6407.44, 0.00, 0.00, 0.00, 0.00, 0.00, 0.00, 0.00, 0.000, 0.000, 0.000, 19:01:23.511, 1551484883511
61, -6418.44, 0.00, 0.00, 0.00, 0.00, 0.00, 0.00, 0.00, 0.000, 0.000, 0.000, 19:01:23.518, 1551484883518
62, -6425.10, 0.00, 0.00, 0.00, 0.00, 0.00, 0.00, 0.00, 0.000, 0.000, 0.000, 19:01:23.519, 1551484883519
63, -6410.52, 0.00, 0.00, 0.00, 0.00, 0.00, 0.00, 0.00, 0.000, 0.000, 0.000, 19:01:23.525, 1551484883525
64, -6416.74, 0.00, 0.00, 0.00, 0.00, 0.00, 0.00, 0.00, 0.000, 0.000, 0.000, 19:01:23.525, 1551484883525
65, -6423.78, 0.00, 0.00, 0.00, 0.00, 0.00, 0.00, 0.00, 0.000, 0.000, 0.000, 19:01:23.533, 1551484883533
66, -6429.32, 0.00, 0.00, 0.00, 0.00, 0.00, 0.00, 0.00, 0.000, 0.000, 0.000, 19:01:23.534, 1551484883534
67, -6410.68, 0.00, 0.00, 0.00, 0.00, 0.00, 0.00, 0.00, 0.018, -0.036, 1.032, 19:01:23.540, 1551484883540
68, -6405.94, 0.00, 0.00, 0.00, 0.00, 0.00, 0.00, 0.00, 0.000, 0.000, 0.000, 19:01:23.540, 1551484883540
69, -6418.10, 0.00, 0.00, 0.00, 0.00, 0.00, 0.00, 0.00, 0.000, 0.000, 0.000, 19:01:23.547, 1551484883547
70, -6426.17, 0.00, 0.00, 0.00, 0.00, 0.00, 0.00, 0.00, 0.000, 0.000, 0.000, 19:01:23.555, 1551484883555
71, -6416.83, 0.00, 0.00, 0.00, 0.00, 0.00, 0.00, 0.00, 0.000, 0.000, 0.000, 19:01:23.555, 1551484883555
72, -6411.24, 0.00, 0.00, 0.00, 0.00, 0.00, 0.00, 0.00, 0.000, 0.000, 0.000, 19:01:23.563, 1551484883563
73, -6420.63, 0.00, 0.00, 0.00, 0.00, 0.00, 0.00, 0.00, 0.000, 0.000, 0.000, 19:01:23.563, 1551484883563
74, -6434.46, 0.00, 0.00, 0.00, 0.00, 0.00, 0.00, 0.00, 0.000, 0.000, 0.000, 19:01:23.570, 1551484883570
75, -6435.25, 0.00, 0.00, 0.00, 0.00, 0.00, 0.00, 0.00, 0.000, 0.000, 0.000, 19:01:23.570, 1551484883570
76, -6419.20, 0.00, 0.00, 0.00, 0.00, 0.00, 0.00, 0.00, 0.016, -0.036, 1.032, 19:01:23.577, 1551484883577
77, -6420.52, 0.00, 0.00, 0.00, 0.00, 0.00, 0.00, 0.00, 0.000, 0.000, 0.000, 19:01:23.578, 1551484883578
78, -6432.74, 0.00, 0.00, 0.00, 0.00, 0.00, 0.00, 0.00, 0.000, 0.000, 0.000, 19:01:23.586, 1551484883586
79, -6435.83, 0.00, 0.00, 0.00, 0.00, 0.00, 0.00, 0.00, 0.000, 0.000, 0.000, 19:01:23.586, 1551484883586
80, -6422.91, 0.00, 0.00, 0.00, 0.00, 0.00, 0.00, 0.00, 0.000, 0.000, 0.000, 19:01:23.593, 1551484883593
81, -6432.50, 0.00, 0.00, 0.00, 0.00, 0.00, 0.00, 0.00, 0.000, 0.000, 0.000, 19:01:23.594, 1551484883594
82, -6441.79, 0.00, 0.00, 0.00, 0.00, 0.00, 0.00, 0.00, 0.000, 0.000, 0.000, 19:01:23.600, 1551484883600
83, -6445.68, 0.00, 0.00, 0.00, 0.00, 0.00, 0.00, 0.00, 0.000, 0.000, 0.000, 19:01:23.600, 1551484883600
84, -6436.61, 0.00, 0.00, 0.00, 0.00, 0.00, 0.00, 0.00, 0.000, 0.000, 0.000, 19:01:23.607, 1551484883607
85, -6427.15, 0.00, 0.00, 0.00, 0.00, 0.00, 0.00, 0.00, 0.000, 0.000, 0.000, 19:01:23.615, 1551484883615
86, -6427.85, 0.00, 0.00, 0.00, 0.00, 0.00, 0.00, 0.00, 0.016, -0.034, 1.028, 19:01:23.615, 1551484883615
87, -6437.06, 0.00, 0.00, 0.00, 0.00, 0.00, 0.00, 0.00, 0.000, 0.000, 0.000, 19:01:23.623, 1551484883623
88, -6421.90, 0.00, 0.00, 0.00, 0.00, 0.00, 0.00, 0.00, 0.000, 0.000, 0.000, 19:01:23.624, 1551484883624
89, -6415.26, 0.00, 0.00, 0.00, 0.00, 0.00, 0.00, 0.00, 0.000, 0.000, 0.000, 19:01:23.630, 1551484883630
90, -6420.18, 0.00, 0.00, 0.00, 0.00, 0.00, 0.00, 0.00, 0.000, 0.000, 0.000, 19:01:23.630, 1551484883630
91, -6427.33, 0.00, 0.00, 0.00, 0.00, 0.00, 0.00, 0.00, 0.000, 0.000, 0.000, 19:01:23.638, 1551484883638
92, -6425.10, 0.00, 0.00, 0.00, 0.00, 0.00, 0.00, 0.00, 0.000, 0.000, 0.000, 19:01:23.638, 1551484883638
93, -6409.92, 0.00, 0.00, 0.00, 0.00, 0.00, 0.00, 0.00, 0.000, 0.000, 0.000, 19:01:23.646, 1551484883646
94, -6418.73, 0.00, 0.00, 0.00, 0.00, 0.00, 0.00, 0.00, 0.000, 0.000, 0.000, 19:01:23.646, 1551484883646
95, -6431.07, 0.00, 0.00, 0.00, 0.00, 0.00, 0.00, 0.00, 0.000, 0.000, 0.000, 19:01:23.653, 1551484883653
96, -6421.25, 0.00, 0.00, 0.00, 0.00, 0.00, 0.00, 0.00, 0.012, -0.032, 1.028, 19:01:23.653, 1551484883653
97, -6409.68, 0.00, 0.00, 0.00, 0.00, 0.00, 0.00, 0.00, 0.000, 0.000, 0.000, 19:01:23.660, 1551484883660
98, -6416.38, 0.00, 0.00, 0.00, 0.00, 0.00, 0.00, 0.00, 0.000, 0.000, 0.000, 19:01:23.661, 1551484883661
99, -6434.64, 0.00, 0.00, 0.00, 0.00, 0.00, 0.00, 0.00, 0.000, 0.000, 0.000, 19:01:23.667, 1551484883667
100, -6436.50, 0.00, 0.00, 0.00, 0.00, 0.00, 0.00, 0.00, 0.000, 0.000, 0.000, 19:01:23.675, 1551484883675
101, -6427.58, 0.00, 0.00, 0.00, 0.00, 0.00, 0.00, 0.00, 0.000, 0.000, 0.000, 19:01:23.676, 1551484883676
102, -6428.00, 0.00, 0.00, 0.00, 0.00, 0.00, 0.00, 0.00, 0.000, 0.000, 0.000, 19:01:23.682, 1551484883682
103, -6436.90, 0.00, 0.00, 0.00, 0.00, 0.00, 0.00, 0.00, 0.000, 0.000, 0.000, 19:01:23.682, 1551484883682
104, -6439.20, 0.00, 0.00, 0.00, 0.00, 0.00, 0.00, 0.00, 0.000, 0.000, 0.000, 19:01:23.690, 1551484883690
105, -6417.01, 0.00, 0.00, 0.00, 0.00, 0.00, 0.00, 0.00, 0.000, 0.000, 0.000, 19:01:23.691, 1551484883691
106, -6418.55, 0.00, 0.00, 0.00, 0.00, 0.00, 0.00, 0.00, 0.016, -0.032, 1.026, 19:01:23.698, 1551484883698
107, -6419.29, 0.00, 0.00, 0.00, 0.00, 0.00, 0.00, 0.00, 0.000, 0.000, 0.000, 19:01:23.698, 1551484883698
108, -6420.36, 0.00, 0.00, 0.00, 0.00, 0.00, 0.00, 0.00, 0.000, 0.000, 0.000, 19:01:23.705, 1551484883705
109, -6412.63, 0.00, 0.00, 0.00, 0.00, 0.00, 0.00, 0.00, 0.000, 0.000, 0.000, 19:01:23.706, 1551484883706
110, -6411.62, 0.00, 0.00, 0.00, 0.00, 0.00, 0.00, 0.00, 0.000, 0.000, 0.000, 19:01:23.713, 1551484883713
111, -6426.66, 0.00, 0.00, 0.00, 0.00, 0.00, 0.00, 0.00, 0.000, 0.000, 0.000, 19:01:23.713, 1551484883713
112, -6435.98, 0.00, 0.00, 0.00, 0.00, 0.00, 0.00, 0.00, 0.000, 0.000, 0.000, 19:01:23.721, 1551484883721
113, -6419.31, 0.00, 0.00, 0.00, 0.00, 0.00, 0.00, 0.00, 0.000, 0.000, 0.000, 19:01:23.721, 1551484883721
114, -6417.81, 0.00, 0.00, 0.00, 0.00, 0.00, 0.00, 0.00, 0.000, 0.000, 0.000, 19:01:23.728, 1551484883728
115, -6431.45, 0.00, 0.00, 0.00, 0.00, 0.00, 0.00, 0.00, 0.000, 0.000, 0.000, 19:01:23.735, 1551484883735
116, -6438.29, 0.00, 0.00, 0.00, 0.00, 0.00, 0.00, 0.00, 0.018, -0.036, 1.028, 19:01:23.735, 1551484883735
117, -6434.51, 0.00, 0.00, 0.00, 0.00, 0.00, 0.00, 0.00, 0.000, 0.000, 0.000, 19:01:23.742, 1551484883742
118, -6429.03, 0.00, 0.00, 0.00, 0.00, 0.00, 0.00, 0.00, 0.000, 0.000, 0.000, 19:01:23.743, 1551484883743
119, -6434.20, 0.00, 0.00, 0.00, 0.00, 0.00, 0.00, 0.00, 0.000, 0.000, 0.000, 19:01:23.750, 1551484883750
120, -6443.65, 0.00, 0.00, 0.00, 0.00, 0.00, 0.00, 0.00, 0.000, 0.000, 0.000, 19:01:23.751, 1551484883751
121, -6433.10, 0.00, 0.00, 0.00, 0.00, 0.00, 0.00, 0.00, 0.000, 0.000, 0.000, 19:01:23.758, 1551484883758
122, -6424.29, 0.00, 0.00, 0.00, 0.00, 0.00, 0.00, 0.00, 0.000, 0.000, 0.000, 19:01:23.759, 1551484883759
123, -6425.59, 0.00, 0.00, 0.00, 0.00, 0.00, 0.00, 0.00, 0.000, 0.000, 0.000, 19:01:23.765, 1551484883765
124, -6435.83, 0.00, 0.00, 0.00, 0.00, 0.00, 0.00, 0.00, 0.000, 0.000, 0.000, 19:01:23.766, 1551484883766
125, -6439.78, 0.00, 0.00, 0.00, 0.00, 0.00, 0.00, 0.00, 0.000, 0.000, 0.000, 19:01:23.773, 1551484883773
126, -6412.92, 0.00, 0.00, 0.00, 0.00, 0.00, 0.00, 0.00, 0.014, -0.036, 1.032, 19:01:23.773, 1551484883773
127, -6418.97, 0.00, 0.00, 0.00, 0.00, 0.00, 0.00, 0.00, 0.000, 0.000, 0.000, 19:01:23.781, 1551484883781
128, -6427.89, 0.00, 0.00, 0.00, 0.00, 0.00, 0.00, 0.00, 0.000, 0.000, 0.000, 19:01:23.781, 1551484883781
129, -6432.76, 0.00, 0.00, 0.00, 0.00, 0.00, 0.00, 0.00, 0.000, 0.000, 0.000, 19:01:23.787, 1551484883787
130, -6418.62, 0.00, 0.00, 0.00, 0.00, 0.00, 0.00, 0.00, 0.000, 0.000, 0.000, 19:01:23.787, 1551484883787
131, -6417.14, 0.00, 0.00, 0.00, 0.00, 0.00, 0.00, 0.00, 0.000, 0.000, 0.000, 19:01:23.795, 1551484883795
132, -6419.73, 0.00, 0.00, 0.00, 0.00, 0.00, 0.00, 0.00, 0.000, 0.000, 0.000, 19:01:23.803, 1551484883803
133, -6425.72, 0.00, 0.00, 0.00, 0.00, 0.00, 0.00, 0.00, 0.000, 0.000, 0.000, 19:01:23.803, 1551484883803
134, -6404.98, 0.00, 0.00, 0.00, 0.00, 0.00, 0.00, 0.00, 0.000, 0.000, 0.000, 19:01:23.811, 1551484883811
135, -6405.65, 0.00, 0.00, 0.00, 0.00, 0.00, 0.00, 0.00, 0.016, -0.040, 1.030, 19:01:23.811, 1551484883811
136, -6419.89, 0.00, 0.00, 0.00, 0.00, 0.00, 0.00, 0.00, 0.000, 0.000, 0.000, 19:01:23.817, 1551484883817
137, -6430.22, 0.00, 0.00, 0.00, 0.00, 0.00, 0.00, 0.00, 0.000, 0.000, 0.000, 19:01:23.817, 1551484883817
138, -6427.83, 0.00, 0.00, 0.00, 0.00, 0.00, 0.00, 0.00, 0.000, 0.000, 0.000, 19:01:23.825, 1551484883825
139, -6426.10, 0.00, 0.00, 0.00, 0.00, 0.00, 0.00, 0.00, 0.000, 0.000, 0.000, 19:01:23.825, 1551484883825
140, -6429.23, 0.00, 0.00, 0.00, 0.00, 0.00, 0.00, 0.00, 0.000, 0.000, 0.000, 19:01:23.834, 1551484883834
141, -6440.57, 0.00, 0.00, 0.00, 0.00, 0.00, 0.00, 0.00, 0.000, 0.000, 0.000, 19:01:23.834, 1551484883834
142, -6430.82, 0.00, 0.00, 0.00, 0.00, 0.00, 0.00, 0.00, 0.000, 0.000, 0.000, 19:01:23.840, 1551484883840
143, -6418.50, 0.00, 0.00, 0.00, 0.00, 0.00, 0.00, 0.00, 0.000, 0.000, 0.000, 19:01:23.840, 1551484883840
144, -6423.58, 0.00, 0.00, 0.00, 0.00, 0.00, 0.00, 0.00, 0.000, 0.000, 0.000, 19:01:23.848, 1551484883848
145, -6439.92, 0.00, 0.00, 0.00, 0.00, 0.00, 0.00, 0.00, 0.018, -0.040, 1.028, 19:01:23.848, 1551484883848
146, -6429.28, 0.00, 0.00, 0.00, 0.00, 0.00, 0.00, 0.00, 0.000, 0.000, 0.000, 19:01:23.855, 1551484883855
147, -6416.54, 0.00, 0.00, 0.00, 0.00, 0.00, 0.00, 0.00, 0.000, 0.000, 0.000, 19:01:23.863, 1551484883863
148, -6415.78, 0.00, 0.00, 0.00, 0.00, 0.00, 0.00, 0.00, 0.000, 0.000, 0.000, 19:01:23.863, 1551484883863
149, -6427.27, 0.00, 0.00, 0.00, 0.00, 0.00, 0.00, 0.00, 0.000, 0.000, 0.000, 19:01:23.870, 1551484883870
150, -6432.85, 0.00, 0.00, 0.00, 0.00, 0.00, 0.00, 0.00, 0.000, 0.000, 0.000, 19:01:23.870, 1551484883870
151, -6423.22, 0.00, 0.00, 0.00, 0.00, 0.00, 0.00, 0.00, 0.000, 0.000, 0.000, 19:01:23.877, 1551484883877
152, -6425.86, 0.00, 0.00, 0.00, 0.00, 0.00, 0.00, 0.00, 0.000, 0.000, 0.000, 19:01:23.878, 1551484883878
153, -6438.40, 0.00, 0.00, 0.00, 0.00, 0.00, 0.00, 0.00, 0.000, 0.000, 0.000, 19:01:23.886, 1551484883886
154, -6443.54, 0.00, 0.00, 0.00, 0.00, 0.00, 0.00, 0.00, 0.000, 0.000, 0.000, 19:01:23.886, 1551484883886
155, -6424.76, 0.00, 0.00, 0.00, 0.00, 0.00, 0.00, 0.00, 0.012, -0.040, 1.032, 19:01:23.894, 1551484883894
156, -6429.64, 0.00, 0.00, 0.00, 0.00, 0.00, 0.00, 0.00, 0.000, 0.000, 0.000, 19:01:23.894, 1551484883894
157, -6434.69, 0.00, 0.00, 0.00, 0.00, 0.00, 0.00, 0.00, 0.000, 0.000, 0.000, 19:01:23.900, 1551484883900
158, -6441.77, 0.00, 0.00, 0.00, 0.00, 0.00, 0.00, 0.00, 0.000, 0.000, 0.000, 19:01:23.900, 1551484883900
159, -6430.06, 0.00, 0.00, 0.00, 0.00, 0.00, 0.00, 0.00, 0.000, 0.000, 0.000, 19:01:23.908, 1551484883908
160, -6428.16, 0.00, 0.00, 0.00, 0.00, 0.00, 0.00, 0.00, 0.000, 0.000, 0.000, 19:01:23.909, 1551484883909
161, -6434.60, 0.00, 0.00, 0.00, 0.00, 0.00, 0.00, 0.00, 0.000, 0.000, 0.000, 19:01:23.915, 1551484883915
162, -6443.00, 0.00, 0.00, 0.00, 0.00, 0.00, 0.00, 0.00, 0.000, 0.000, 0.000, 19:01:23.922, 1551484883922
163, -6428.32, 0.00, 0.00, 0.00, 0.00, 0.00, 0.00, 0.00, 0.000, 0.000, 0.000, 19:01:23.922, 1551484883922
164, -6422.59, 0.00, 0.00, 0.00, 0.00, 0.00, 0.00, 0.00, 0.000, 0.000, 0.000, 19:01:23.930, 1551484883930
165, -6430.62, 0.00, 0.00, 0.00, 0.00, 0.00, 0.00, 0.00, 0.012, -0.040, 1.036, 19:01:23.930, 1551484883930
166, -6449.24, 0.00, 0.00, 0.00, 0.00, 0.00, 0.00, 0.00, 0.000, 0.000, 0.000, 19:01:23.938, 1551484883938
167, -6440.25, 0.00, 0.00, 0.00, 0.00, 0.00, 0.00, 0.00, 0.000, 0.000, 0.000, 19:01:23.938, 1551484883938
168, -6423.87, 0.00, 0.00, 0.00, 0.00, 0.00, 0.00, 0.00, 0.000, 0.000, 0.000, 19:01:23.946, 1551484883946
169, -6431.07, 0.00, 0.00, 0.00, 0.00, 0.00, 0.00, 0.00, 0.000, 0.000, 0.000, 19:01:23.946, 1551484883946
170, -6437.84, 0.00, 0.00, 0.00, 0.00, 0.00, 0.00, 0.00, 0.000, 0.000, 0.000, 19:01:23.952, 1551484883952
171, -6432.88, 0.00, 0.00, 0.00, 0.00, 0.00, 0.00, 0.00, 0.000, 0.000, 0.000, 19:01:23.953, 1551484883953
172, -6415.60, 0.00, 0.00, 0.00, 0.00, 0.00, 0.00, 0.00, 0.000, 0.000, 0.000, 19:01:23.960, 1551484883960
173, -6416.94, 0.00, 0.00, 0.00, 0.00, 0.00, 0.00, 0.00, 0.000, 0.000, 0.000, 19:01:23.961, 1551484883961
174, -6421.72, 0.00, 0.00, 0.00, 0.00, 0.00, 0.00, 0.00, 0.000, 0.000, 0.000, 19:01:23.968, 1551484883968
175, -6422.10, 0.00, 0.00, 0.00, 0.00, 0.00, 0.00, 0.00, 0.014, -0.036, 1.032, 19:01:23.969, 1551484883969
176, -6414.44, 0.00, 0.00, 0.00, 0.00, 0.00, 0.00, 0.00, 0.000, 0.000, 0.000, 19:01:23.976, 1551484883976
177, -6415.93, 0.00, 0.00, 0.00, 0.00, 0.00, 0.00, 0.00, 0.000, 0.000, 0.000, 19:01:23.982, 1551484883982
178, -6428.74, 0.00, 0.00, 0.00, 0.00, 0.00, 0.00, 0.00, 0.000, 0.000, 0.000, 19:01:23.982, 1551484883982
179, -6430.31, 0.00, 0.00, 0.00, 0.00, 0.00, 0.00, 0.00, 0.000, 0.000, 0.000, 19:01:23.990, 1551484883990
180, -6417.72, 0.00, 0.00, 0.00, 0.00, 0.00, 0.00, 0.00, 0.000, 0.000, 0.000, 19:01:23.990, 1551484883990
181, -6420.96, 0.00, 0.00, 0.00, 0.00, 0.00, 0.00, 0.00, 0.000, 0.000, 0.000, 19:01:23.998, 1551484883998
182, -6427.65, 0.00, 0.00, 0.00, 0.00, 0.00, 0.00, 0.00, 0.000, 0.000, 0.000, 19:01:23.998, 1551484883998
183, -6437.68, 0.00, 0.00, 0.00, 0.00, 0.00, 0.00, 0.00, 0.000, 0.000, 0.000, 19:01:24.005, 1551484884005
184, -6419.96, 0.00, 0.00, 0.00, 0.00, 0.00, 0.00, 0.00, 0.000, 0.000, 0.000, 19:01:24.005, 1551484884005
185, -6425.10, 0.00, 0.00, 0.00, 0.00, 0.00, 0.00, 0.00, 0.010, -0.038, 1.038, 19:01:24.013, 1551484884013
186, -6426.48, 0.00, 0.00, 0.00, 0.00, 0.00, 0.00, 0.00, 0.000, 0.000, 0.000, 19:01:24.013, 1551484884013
187, -6427.27, 0.00, 0.00, 0.00, 0.00, 0.00, 0.00, 0.00, 0.000, 0.000, 0.000, 19:01:24.021, 1551484884021
188, -6429.86, 0.00, 0.00, 0.00, 0.00, 0.00, 0.00, 0.00, 0.000, 0.000, 0.000, 19:01:24.021, 1551484884021
189, -6422.10, 0.00, 0.00, 0.00, 0.00, 0.00, 0.00, 0.00, 0.000, 0.000, 0.000, 19:01:24.028, 1551484884028
190, -6429.43, 0.00, 0.00, 0.00, 0.00, 0.00, 0.00, 0.00, 0.000, 0.000, 0.000, 19:01:24.028, 1551484884028
191, -6447.99, 0.00, 0.00, 0.00, 0.00, 0.00, 0.00, 0.00, 0.000, 0.000, 0.000, 19:01:24.034, 1551484884034
192, -6443.52, 0.00, 0.00, 0.00, 0.00, 0.00, 0.00, 0.00, 0.000, 0.000, 0.000, 19:01:24.035, 1551484884035
193, -6431.22, 0.00, 0.00, 0.00, 0.00, 0.00, 0.00, 0.00, 0.000, 0.000, 0.000, 19:01:24.042, 1551484884042
194, -6433.99, 0.00, 0.00, 0.00, 0.00, 0.00, 0.00, 0.00, 0.000, 0.000, 0.000, 19:01:24.051, 1551484884051
195, -6446.18, 0.00, 0.00, 0.00, 0.00, 0.00, 0.00, 0.00, 0.012, -0.038, 1.034, 19:01:24.051, 1551484884051
196, -6442.62, 0.00, 0.00, 0.00, 0.00, 0.00, 0.00, 0.00, 0.000, 0.000, 0.000, 19:01:24.057, 1551484884057
197, -6432.21, 0.00, 0.00, 0.00, 0.00, 0.00, 0.00, 0.00, 0.000, 0.000, 0.000, 19:01:24.058, 1551484884058
198, -6436.70, 0.00, 0.00, 0.00, 0.00, 0.00, 0.00, 0.00, 0.000, 0.000, 0.000, 19:01:24.065, 1551484884065
199, -6444.32, 0.00, 0.00, 0.00, 0.00, 0.00, 0.00, 0.00, 0.000, 0.000, 0.000, 19:01:24.065, 1551484884065
200, -6438.53, 0.00, 0.00, 0.00, 0.00, 0.00, 0.00, 0.00, 0.000, 0.000, 0.000, 19:01:24.073, 1551484884073
201, -6426.84, 0.00, 0.00, 0.00, 0.00, 0.00, 0.00, 0.00, 0.000, 0.000, 0.000, 19:01:24.073, 1551484884073
202, -6433.32, 0.00, 0.00, 0.00, 0.00, 0.00, 0.00, 0.00, 0.000, 0.000, 0.000, 19:01:24.081, 1551484884081
203, -6442.33, 0.00, 0.00, 0.00, 0.00, 0.00, 0.00, 0.00, 0.000, 0.000, 0.000, 19:01:24.081, 1551484884081
204, -6455.32, 0.00, 0.00, 0.00, 0.00, 0.00, 0.00, 0.00, 0.016, -0.044, 1.032, 19:01:24.088, 1551484884088
205, -6440.01, 0.00, 0.00, 0.00, 0.00, 0.00, 0.00, 0.00, 0.000, 0.000, 0.000, 19:01:24.088, 1551484884088
206, -6442.04, 0.00, 0.00, 0.00, 0.00, 0.00, 0.00, 0.00, 0.000, 0.000, 0.000, 19:01:24.096, 1551484884096
207, -6451.23, 0.00, 0.00, 0.00, 0.00, 0.00, 0.00, 0.00, 0.000, 0.000, 0.000, 19:01:24.096, 1551484884096
208, -6456.48, 0.00, 0.00, 0.00, 0.00, 0.00, 0.00, 0.00, 0.000, 0.000, 0.000, 19:01:24.103, 1551484884103
209, -6439.40, 0.00, 0.00, 0.00, 0.00, 0.00, 0.00, 0.00, 0.000, 0.000, 0.000, 19:01:24.111, 1551484884111
210, -6430.71, 0.00, 0.00, 0.00, 0.00, 0.00, 0.00, 0.00, 0.000, 0.000, 0.000, 19:01:24.111, 1551484884111
211, -6434.89, 0.00, 0.00, 0.00, 0.00, 0.00, 0.00, 0.00, 0.000, 0.000, 0.000, 19:01:24.117, 1551484884117
212, -6438.55, 0.00, 0.00, 0.00, 0.00, 0.00, 0.00, 0.00, 0.000, 0.000, 0.000, 19:01:24.117, 1551484884117
213, -6433.10, 0.00, 0.00, 0.00, 0.00, 0.00, 0.00, 0.00, 0.000, 0.000, 0.000, 19:01:24.125, 1551484884125
214, -6419.91, 0.00, 0.00, 0.00, 0.00, 0.00, 0.00, 0.00, 0.014, -0.042, 1.032, 19:01:24.125, 1551484884125
215, -6415.04, 0.00, 0.00, 0.00, 0.00, 0.00, 0.00, 0.00, 0.000, 0.000, 0.000, 19:01:24.133, 1551484884133
216, -6426.84, 0.00, 0.00, 0.00, 0.00, 0.00, 0.00, 0.00, 0.000, 0.000, 0.000, 19:01:24.133, 1551484884133
217, -6425.46, 0.00, 0.00, 0.00, 0.00, 0.00, 0.00, 0.00, 0.000, 0.000, 0.000, 19:01:24.141, 1551484884141
218, -6425.59, 0.00, 0.00, 0.00, 0.00, 0.00, 0.00, 0.00, 0.000, 0.000, 0.000, 19:01:24.141, 1551484884141
219, -6429.52, 0.00, 0.00, 0.00, 0.00, 0.00, 0.00, 0.00, 0.000, 0.000, 0.000, 19:01:24.149, 1551484884149
220, -6433.70, 0.00, 0.00, 0.00, 0.00, 0.00, 0.00, 0.00, 0.000, 0.000, 0.000, 19:01:24.149, 1551484884149
221, -6438.98, 0.00, 0.00, 0.00, 0.00, 0.00, 0.00, 0.00, 0.000, 0.000, 0.000, 19:01:24.155, 1551484884155
222, -6419.09, 0.00, 0.00, 0.00, 0.00, 0.00, 0.00, 0.00, 0.000, 0.000, 0.000, 19:01:24.155, 1551484884155
223, -6424.09, 0.00, 0.00, 0.00, 0.00, 0.00, 0.00, 0.00, 0.000, 0.000, 0.000, 19:01:24.162, 1551484884162
224, -6438.80, 0.00, 0.00, 0.00, 0.00, 0.00, 0.00, 0.00, 0.014, -0.038, 1.030, 19:01:24.170, 1551484884170
225, -6443.02, 0.00, 0.00, 0.00, 0.00, 0.00, 0.00, 0.00, 0.000, 0.000, 0.000, 19:01:24.171, 1551484884171
226, -6428.56, 0.00, 0.00, 0.00, 0.00, 0.00, 0.00, 0.00, 0.000, 0.000, 0.000, 19:01:24.178, 1551484884178
227, -6432.83, 0.00, 0.00, 0.00, 0.00, 0.00, 0.00, 0.00, 0.000, 0.000, 0.000, 19:01:24.179, 1551484884179
228, -6441.46, 0.00, 0.00, 0.00, 0.00, 0.00, 0.00, 0.00, 0.000, 0.000, 0.000, 19:01:24.185, 1551484884185
229, -6448.52, 0.00, 0.00, 0.00, 0.00, 0.00, 0.00, 0.00, 0.000, 0.000, 0.000, 19:01:24.185, 1551484884185
230, -6435.85, 0.00, 0.00, 0.00, 0.00, 0.00, 0.00, 0.00, 0.000, 0.000, 0.000, 19:01:24.193, 1551484884193
231, -6429.34, 0.00, 0.00, 0.00, 0.00, 0.00, 0.00, 0.00, 0.000, 0.000, 0.000, 19:01:24.193, 1551484884193
232, -6427.76, 0.00, 0.00, 0.00, 0.00, 0.00, 0.00, 0.00, 0.000, 0.000, 0.000, 19:01:24.201, 1551484884201
233, -6429.68, 0.00, 0.00, 0.00, 0.00, 0.00, 0.00, 0.00, 0.000, 0.000, 0.000, 19:01:24.201, 1551484884201
234, -6421.48, 0.00, 0.00, 0.00, 0.00, 0.00, 0.00, 0.00, 0.014, -0.034, 1.036, 19:01:24.208, 1551484884208
235, -6419.26, 0.00, 0.00, 0.00, 0.00, 0.00, 0.00, 0.00, 0.000, 0.000, 0.000, 19:01:24.208, 1551484884208
236, -6422.04, 0.00, 0.00, 0.00, 0.00, 0.00, 0.00, 0.00, 0.000, 0.000, 0.000, 19:01:24.215, 1551484884215
237, -6435.09, 0.00, 0.00, 0.00, 0.00, 0.00, 0.00, 0.00, 0.000, 0.000, 0.000, 19:01:24.216, 1551484884216
238, -6432.43, 0.00, 0.00, 0.00, 0.00, 0.00, 0.00, 0.00, 0.000, 0.000, 0.000, 19:01:24.223, 1551484884223
239, -6422.86, 0.00, 0.00, 0.00, 0.00, 0.00, 0.00, 0.00, 0.000, 0.000, 0.000, 19:01:24.231, 1551484884231
240, -6422.93, 0.00, 0.00, 0.00, 0.00, 0.00, 0.00, 0.00, 0.000, 0.000, 0.000, 19:01:24.231, 1551484884231
241, -6429.41, 0.00, 0.00, 0.00, 0.00, 0.00, 0.00, 0.00, 0.000, 0.000, 0.000, 19:01:24.238, 1551484884238
242, -6428.05, 0.00, 0.00, 0.00, 0.00, 0.00, 0.00, 0.00, 0.000, 0.000, 0.000, 19:01:24.238, 1551484884238
243, -6424.16, 0.00, 0.00, 0.00, 0.00, 0.00, 0.00, 0.00, 0.000, 0.000, 0.000, 19:01:24.245, 1551484884245
244, -6432.03, 0.00, 0.00, 0.00, 0.00, 0.00, 0.00, 0.00, 0.014, -0.032, 1.032, 19:01:24.245, 1551484884245
245, -6436.83, 0.00, 0.00, 0.00, 0.00, 0.00, 0.00, 0.00, 0.000, 0.000, 0.000, 19:01:24.253, 1551484884253
246, -6432.76, 0.00, 0.00, 0.00, 0.00, 0.00, 0.00, 0.00, 0.000, 0.000, 0.000, 19:01:24.253, 1551484884253
247, -6420.40, 0.00, 0.00, 0.00, 0.00, 0.00, 0.00, 0.00, 0.000, 0.000, 0.000, 19:01:24.260, 1551484884260
248, -6420.11, 0.00, 0.00, 0.00, 0.00, 0.00, 0.00, 0.00, 0.000, 0.000, 0.000, 19:01:24.261, 1551484884261
249, -6424.36, 0.00, 0.00, 0.00, 0.00, 0.00, 0.00, 0.00, 0.000, 0.000, 0.000, 19:01:24.268, 1551484884268
250, -6424.32, 0.00, 0.00, 0.00, 0.00, 0.00, 0.00, 0.00, 0.000, 0.000, 0.000, 19:01:24.268, 1551484884268
251, -6414.70, 0.00, 0.00, 0.00, 0.00, 0.00, 0.00, 0.00, 0.000, 0.000, 0.000, 19:01:24.276, 1551484884276
252, -6409.52, 0.00, 0.00, 0.00, 0.00, 0.00, 0.00, 0.00, 0.000, 0.000, 0.000, 19:01:24.276, 1551484884276
253, -6418.35, 0.00, 0.00, 0.00, 0.00, 0.00, 0.00, 0.00, 0.000, 0.000, 0.000, 19:01:24.283, 1551484884283
254, -6428.05, 0.00, 0.00, 0.00, 0.00, 0.00, 0.00, 0.00, 0.014, -0.038, 1.034, 19:01:24.283, 1551484884283
255, -6422.77, 0.00, 0.00, 0.00, 0.00, 0.00, 0.00, 0.00, 0.000, 0.000, 0.000, 19:01:24.290, 1551484884290
0, -6417.30, 0.00, 0.00, 0.00, 0.00, 0.00, 0.00, 0.00, 0.000, 0.000, 0.000, 19:01:24.298, 1551484884298
1, -6423.13, 0.00, 0.00, 0.00, 0.00, 0.00, 0.00, 0.00, 0.000, 0.000, 0.000, 19:01:24.298, 1551484884298
2, -6438.11, 0.00, 0.00, 0.00, 0.00, 0.00, 0.00, 0.00, 0.000, 0.000, 0.000, 19:01:24.306, 1551484884306
3, -6422.01, 0.00, 0.00, 0.00, 0.00, 0.00, 0.00, 0.00, 0.000, 0.000, 0.000, 19:01:24.306, 1551484884306
4, -6412.04, 0.00, 0.00, 0.00, 0.00, 0.00, 0.00, 0.00, 0.000, 0.000, 0.000, 19:01:24.313, 1551484884313
5, -6420.29, 0.00, 0.00, 0.00, 0.00, 0.00, 0.00, 0.00, 0.000, 0.000, 0.000, 19:01:24.314, 1551484884314
6, -6430.93, 0.00, 0.00, 0.00, 0.00, 0.00, 0.00, 0.00, 0.000, 0.000, 0.000, 19:01:24.320, 1551484884320
7, -6429.61, 0.00, 0.00, 0.00, 0.00, 0.00, 0.00, 0.00, 0.018, -0.040, 1.032, 19:01:24.320, 1551484884320
8, -6412.18, 0.00, 0.00, 0.00, 0.00, 0.00, 0.00, 0.00, 0.000, 0.000, 0.000, 19:01:24.328, 1551484884328
9, -6419.31, 0.00, 0.00, 0.00, 0.00, 0.00, 0.00, 0.00, 0.000, 0.000, 0.000, 19:01:24.328, 1551484884328
10, -6438.73, 0.00, 0.00, 0.00, 0.00, 0.00, 0.00, 0.00, 0.000, 0.000, 0.000, 19:01:24.336, 1551484884336
11, -6432.27, 0.00, 0.00, 0.00, 0.00, 0.00, 0.00, 0.00, 0.000, 0.000, 0.000, 19:01:24.336, 1551484884336
12, -6429.05, 0.00, 0.00, 0.00, 0.00, 0.00, 0.00, 0.00, 0.000, 0.000, 0.000, 19:01:24.343, 1551484884343
13, -6444.01, 0.00, 0.00, 0.00, 0.00, 0.00, 0.00, 0.00, 0.000, 0.000, 0.000, 19:01:24.343, 1551484884343
14, -6454.89, 0.00, 0.00, 0.00, 0.00, 0.00, 0.00, 0.00, 0.000, 0.000, 0.000, 19:01:24.350, 1551484884350
15, -6434.78, 0.00, 0.00, 0.00, 0.00, 0.00, 0.00, 0.00, 0.000, 0.000, 0.000, 19:01:24.358, 1551484884358
16, -6425.48, 0.00, 0.00, 0.00, 0.00, 0.00, 0.00, 0.00, 0.000, 0.000, 0.000, 19:01:24.358, 1551484884358
17, -6432.61, 0.00, 0.00, 0.00, 0.00, 0.00, 0.00, 0.00, 0.018, -0.040, 1.022, 19:01:24.366, 1551484884366
18, -6445.51, 0.00, 0.00, 0.00, 0.00, 0.00, 0.00, 0.00, 0.000, 0.000, 0.000, 19:01:24.366, 1551484884366
19, -6442.93, 0.00, 0.00, 0.00, 0.00, 0.00, 0.00, 0.00, 0.000, 0.000, 0.000, 19:01:24.373, 1551484884373
20, -6429.39, 0.00, 0.00, 0.00, 0.00, 0.00, 0.00, 0.00, 0.000, 0.000, 0.000, 19:01:24.373, 1551484884373
21, -6427.96, 0.00, 0.00, 0.00, 0.00, 0.00, 0.00, 0.00, 0.000, 0.000, 0.000, 19:01:24.380, 1551484884380
22, -6436.85, 0.00, 0.00, 0.00, 0.00, 0.00, 0.00, 0.00, 0.000, 0.000, 0.000, 19:01:24.380, 1551484884380
23, -6438.58, 0.00, 0.00, 0.00, 0.00, 0.00, 0.00, 0.00, 0.000, 0.000, 0.000, 19:01:24.388, 1551484884388
24, -6422.19, 0.00, 0.00, 0.00, 0.00, 0.00, 0.00, 0.00, 0.000, 0.000, 0.000, 19:01:24.388, 1551484884388
25, -6412.56, 0.00, 0.00, 0.00, 0.00, 0.00, 0.00, 0.00, 0.000, 0.000, 0.000, 19:01:24.395, 1551484884395
26, -6414.12, 0.00, 0.00, 0.00, 0.00, 0.00, 0.00, 0.00, 0.000, 0.000, 0.000, 19:01:24.396, 1551484884396
27, -6422.80, 0.00, 0.00, 0.00, 0.00, 0.00, 0.00, 0.00, 0.018, -0.044, 1.022, 19:01:24.403, 1551484884403
28, -6417.12, 0.00, 0.00, 0.00, 0.00, 0.00, 0.00, 0.00, 0.000, 0.000, 0.000, 19:01:24.403, 1551484884403
29, -6413.70, 0.00, 0.00, 0.00, 0.00, 0.00, 0.00, 0.00, 0.000, 0.000, 0.000, 19:01:24.410, 1551484884410
30, -6433.30, 0.00, 0.00, 0.00, 0.00, 0.00, 0.00, 0.00, 0.000, 0.000, 0.000, 19:01:24.418, 1551484884418
31, -6451.67, 0.00, 0.00, 0.00, 0.00, 0.00, 0.00, 0.00, 0.000, 0.000, 0.000, 19:01:24.418, 1551484884418
32, -6444.68, 0.00, 0.00, 0.00, 0.00, 0.00, 0.00, 0.00, 0.000, 0.000, 0.000, 19:01:24.425, 1551484884425
33, -6435.45, 0.00, 0.00, 0.00, 0.00, 0.00, 0.00, 0.00, 0.000, 0.000, 0.000, 19:01:24.425, 1551484884425
34, -6438.13, 0.00, 0.00, 0.00, 0.00, 0.00, 0.00, 0.00, 0.000, 0.000, 0.000, 19:01:24.433, 1551484884433
35, -6458.13, 0.00, 0.00, 0.00, 0.00, 0.00, 0.00, 0.00, 0.000, 0.000, 0.000, 19:01:24.433, 1551484884433
36, -6444.77, 0.00, 0.00, 0.00, 0.00, 0.00, 0.00, 0.00, 0.000, 0.000, 0.000, 19:01:24.441, 1551484884441
37, -6428.81, 0.00, 0.00, 0.00, 0.00, 0.00, 0.00, 0.00, 0.016, -0.044, 1.020, 19:01:24.441, 1551484884441
38, -6429.17, 0.00, 0.00, 0.00, 0.00, 0.00, 0.00, 0.00, 0.000, 0.000, 0.000, 19:01:24.449, 1551484884449
39, -6436.77, 0.00, 0.00, 0.00, 0.00, 0.00, 0.00, 0.00, 0.000, 0.000, 0.000, 19:01:24.449, 1551484884449
40, -6436.12, 0.00, 0.00, 0.00, 0.00, 0.00, 0.00, 0.00, 0.000, 0.000, 0.000, 19:01:24.455, 1551484884455
41, -6418.33, 0.00, 0.00, 0.00, 0.00, 0.00, 0.00, 0.00, 0.000, 0.000, 0.000, 19:01:24.455, 1551484884455
42, -6417.32, 0.00, 0.00, 0.00, 0.00, 0.00, 0.00, 0.00, 0.000, 0.000, 0.000, 19:01:24.463, 1551484884463
43, -6425.32, 0.00, 0.00, 0.00, 0.00, 0.00, 0.00, 0.00, 0.000, 0.000, 0.000, 19:01:24.463, 1551484884463
44, -6433.10, 0.00, 0.00, 0.00, 0.00, 0.00, 0.00, 0.00, 0.000, 0.000, 0.000, 19:01:24.470, 1551484884470
45, -6420.11, 0.00, 0.00, 0.00, 0.00, 0.00, 0.00, 0.00, 0.000, 0.000, 0.000, 19:01:24.478, 1551484884478
46, -6414.82, 0.00, 0.00, 0.00, 0.00, 0.00, 0.00, 0.00, 0.000, 0.000, 0.000, 19:01:24.479, 1551484884479
47, -6431.29, 0.00, 0.00, 0.00, 0.00, 0.00, 0.00, 0.00, 0.014, -0.040, 1.018, 19:01:24.485, 1551484884485
48, -6433.66, 0.00, 0.00, 0.00, 0.00, 0.00, 0.00, 0.00, 0.000, 0.000, 0.000, 19:01:24.485, 1551484884485
49, -6417.50, 0.00, 0.00, 0.00, 0.00, 0.00, 0.00, 0.00, 0.000, 0.000, 0.000, 19:01:24.493, 1551484884493
50, -6429.30, 0.00, 0.00, 0.00, 0.00, 0.00, 0.00, 0.00, 0.000, 0.000, 0.000, 19:01:24.493, 1551484884493
51, -6444.83, 0.00, 0.00, 0.00, 0.00, 0.00, 0.00, 0.00, 0.000, 0.000, 0.000, 19:01:24.501, 1551484884501
52, -6455.43, 0.00, 0.00, 0.00, 0.00, 0.00, 0.00, 0.00, 0.000, 0.000, 0.000, 19:01:24.501, 1551484884501
53, -6443.34, 0.00, 0.00, 0.00, 0.00, 0.00, 0.00, 0.00, 0.000, 0.000, 0.000, 19:01:24.508, 1551484884508
54, -6431.42, 0.00, 0.00, 0.00, 0.00, 0.00, 0.00, 0.00, 0.000, 0.000, 0.000, 19:01:24.508, 1551484884508
55, -6444.39, 0.00, 0.00, 0.00, 0.00, 0.00, 0.00, 0.00, 0.000, 0.000, 0.000, 19:01:24.516, 1551484884516
56, -6451.63, 0.00, 0.00, 0.00, 0.00, 0.00, 0.00, 0.00, 0.000, 0.000, 0.000, 19:01:24.516, 1551484884516
57, -6444.92, 0.00, 0.00, 0.00, 0.00, 0.00, 0.00, 0.00, 0.018, -0.038, 1.016, 19:01:24.524, 1551484884524
58, -6431.76, 0.00, 0.00, 0.00, 0.00, 0.00, 0.00, 0.00, 0.000, 0.000, 0.000, 19:01:24.524, 1551484884524
59, -6437.88, 0.00, 0.00, 0.00, 0.00, 0.00, 0.00, 0.00, 0.000, 0.000, 0.000, 19:01:24.531, 1551484884531
60, -6446.89, 0.00, 0.00, 0.00, 0.00, 0.00, 0.00, 0.00, 0.000, 0.000, 0.000, 19:01:24.531, 1551484884531
61, -6442.26, 0.00, 0.00, 0.00, 0.00, 0.00, 0.00, 0.00, 0.000, 0.000, 0.000, 19:01:24.538, 1551484884538
62, -6433.12, 0.00, 0.00, 0.00, 0.00, 0.00, 0.00, 0.00, 0.000, 0.000, 0.000, 19:01:24.545, 1551484884545
63, -6434.13, 0.00, 0.00, 0.00, 0.00, 0.00, 0.00, 0.00, 0.000, 0.000, 0.000, 19:01:24.545, 1551484884545
64, -6432.59, 0.00, 0.00, 0.00, 0.00, 0.00, 0.00, 0.00, 0.000, 0.000, 0.000, 19:01:24.554, 1551484884554
65, -6435.51, 0.00, 0.00, 0.00, 0.00, 0.00, 0.00, 0.00, 0.000, 0.000, 0.000, 19:01:24.555, 1551484884555
66, -6421.07, 0.00, 0.00, 0.00, 0.00, 0.00, 0.00, 0.00, 0.000, 0.000, 0.000, 19:01:24.561, 1551484884561
67, -6422.19, 0.00, 0.00, 0.00, 0.00, 0.00, 0.00, 0.00, 0.016, -0.042, 1.018, 19:01:24.561, 1551484884561
68, -6435.89, 0.00, 0.00, 0.00, 0.00, 0.00, 0.00, 0.00, 0.000, 0.000, 0.000, 19:01:24.568, 1551484884568
69, -6447.00, 0.00, 0.00, 0.00, 0.00, 0.00, 0.00, 0.00, 0.000, 0.000, 0.000, 19:01:24.569, 1551484884569
70, -6433.66, 0.00, 0.00, 0.00, 0.00, 0.00, 0.00, 0.00, 0.000, 0.000, 0.000, 19:01:24.576, 1551484884576
71, -6444.48, 0.00, 0.00, 0.00, 0.00, 0.00, 0.00, 0.00, 0.000, 0.000, 0.000, 19:01:24.577, 1551484884577
72, -6453.22, 0.00, 0.00, 0.00, 0.00, 0.00, 0.00, 0.00, 0.000, 0.000, 0.000, 19:01:24.584, 1551484884584
73, -6465.71, 0.00, 0.00, 0.00, 0.00, 0.00, 0.00, 0.00, 0.000, 0.000, 0.000, 19:01:24.584, 1551484884584
74, -6449.73, 0.00, 0.00, 0.00, 0.00, 0.00, 0.00, 0.00, 0.000, 0.000, 0.000, 19:01:24.590, 1551484884590
75, -6443.14, 0.00, 0.00, 0.00, 0.00, 0.00, 0.00, 0.00, 0.000, 0.000, 0.000, 19:01:24.591, 1551484884591
76, -6449.42, 0.00, 0.00, 0.00, 0.00, 0.00, 0.00, 0.00, 0.016, -0.040, 1.020, 19:01:24.597, 1551484884597
77, -6460.03, 0.00, 0.00, 0.00, 0.00, 0.00, 0.00, 0.00, 0.000, 0.000, 0.000, 19:01:24.606, 1551484884606
78, -6454.09, 0.00, 0.00, 0.00, 0.00, 0.00, 0.00, 0.00, 0.000, 0.000, 0.000, 19:01:24.606, 1551484884606
79, -6435.54, 0.00, 0.00, 0.00, 0.00, 0.00, 0.00, 0.00, 0.000, 0.000, 0.000, 19:01:24.613, 1551484884613
80, -6441.64, 0.00, 0.00, 0.00, 0.00, 0.00, 0.00, 0.00, 0.000, 0.000, 0.000, 19:01:24.614, 1551484884614
81, -6460.01, 0.00, 0.00, 0.00, 0.00, 0.00, 0.00, 0.00, 0.000, 0.000, 0.000, 19:01:24.620, 1551484884620
82, -6460.93, 0.00, 0.00, 0.00, 0.00, 0.00, 0.00, 0.00, 0.000, 0.000, 0.000, 19:01:24.620, 1551484884620
83, -6441.42, 0.00, 0.00, 0.00, 0.00, 0.00, 0.00, 0.00, 0.000, 0.000, 0.000, 19:01:24.628, 1551484884628
84, -6447.65, 0.00, 0.00, 0.00, 0.00, 0.00, 0.00, 0.00, 0.000, 0.000, 0.000, 19:01:24.628, 1551484884628
85, -6459.74, 0.00, 0.00, 0.00, 0.00, 0.00, 0.00, 0.00, 0.000, 0.000, 0.000, 19:01:24.636, 1551484884636
86, -6459.16, 0.00, 0.00, 0.00, 0.00, 0.00, 0.00, 0.00, 0.018, -0.040, 1.022, 19:01:24.636, 1551484884636
87, -6439.58, 0.00, 0.00, 0.00, 0.00, 0.00, 0.00, 0.00, 0.000, 0.000, 0.000, 19:01:24.643, 1551484884643
88, -6441.48, 0.00, 0.00, 0.00, 0.00, 0.00, 0.00, 0.00, 0.000, 0.000, 0.000, 19:01:24.643, 1551484884643
89, -6450.85, 0.00, 0.00, 0.00, 0.00, 0.00, 0.00, 0.00, 0.000, 0.000, 0.000, 19:01:24.651, 1551484884651
90, -6459.45, 0.00, 0.00, 0.00, 0.00, 0.00, 0.00, 0.00, 0.000, 0.000, 0.000, 19:01:24.651, 1551484884651
91, -6451.18, 0.00, 0.00, 0.00, 0.00, 0.00, 0.00, 0.00, 0.000, 0.000, 0.000, 19:01:24.658, 1551484884658
92, -6450.51, 0.00, 0.00, 0.00, 0.00, 0.00, 0.00, 0.00, 0.000, 0.000, 0.000, 19:01:24.666, 1551484884666
93, -6450.76, 0.00, 0.00, 0.00, 0.00, 0.00, 0.00, 0.00, 0.000, 0.000, 0.000, 19:01:24.666, 1551484884666
94, -6457.35, 0.00, 0.00, 0.00, 0.00, 0.00, 0.00, 0.00, 0.000, 0.000, 0.000, 19:01:24.672, 1551484884672
95, -6442.00, 0.00, 0.00, 0.00, 0.00, 0.00, 0.00, 0.00, 0.000, 0.000, 0.000, 19:01:24.673, 1551484884673
96, -6430.93, 0.00, 0.00, 0.00, 0.00, 0.00, 0.00, 0.00, 0.016, -0.032, 1.026, 19:01:24.680, 1551484884680
97, -6437.32, 0.00, 0.00, 0.00, 0.00, 0.00, 0.00, 0.00, 0.000, 0.000, 0.000, 19:01:24.681, 1551484884681
98, -6450.65, 0.00, 0.00, 0.00, 0.00, 0.00, 0.00, 0.00, 0.000, 0.000, 0.000, 19:01:24.688, 1551484884688
