%OpenBCI Raw EEG Data
%Number of channels = 8
%Sample Rate = 250.0 Hz
%First Column = SampleIndex
%Last Column = Timestamp 
%Other Columns = EEG data in microvolts followed by Accel Data (in G) interleaved with Aux Data
0, 0.00, 0.00, 0.00, 0.00, 0.00, 0.00, 0.00, 0.00, -0.416, 0.420, 0.538, 18:24:48.241, 1551482688241
1, 0.00, 0.00, 0.00, 0.00, 0.00, 0.00, 12530.75, 0.00, 0.000, 0.000, 0.000, 18:24:48.253, 1551482688253
2, 0.00, 0.00, 0.00, 0.00, 0.00, 0.00, 12528.11, 0.00, 0.000, 0.000, 0.000, 18:24:48.259, 1551482688259
3, 0.00, 0.00, 0.00, 0.00, 0.00, 0.00, 12545.99, 0.00, 0.000, 0.000, 0.000, 18:24:48.260, 1551482688260
4, 0.00, 0.00, 0.00, 0.00, 0.00, 0.00, 12546.79, 0.00, 0.000, 0.000, 0.000, 18:24:48.267, 1551482688267
5, 0.00, 0.00, 0.00, 0.00, 0.00, 0.00, 12545.03, 0.00, 0.000, 0.000, 0.000, 18:24:48.267, 1551482688267
6, 0.00, 0.00, 0.00, 0.00, 0.00, 0.00, 12554.68, 0.00, 0.000, 0.000, 0.000, 18:24:48.275, 1551482688275
7, 0.00, 0.00, 0.00, 0.00, 0.00, 0.00, 12558.51, 0.00, -0.182, 0.472, 0.704, 18:24:48.275, 1551482688275
8, 0.00, 0.00, 0.00, 0.00, 0.00, 0.00, 12554.97, 0.00, 0.000, 0.000, 0.000, 18:24:48.282, 1551482688282
9, 0.00, 0.00, 0.00, 0.00, 0.00, 0.00, 12546.32, 0.00, 0.000, 0.000, 0.000, 18:24:48.282, 1551482688282
10, 0.00, 0.00, 0.00, 0.00, 0.00, 0.00, 12552.76, 0.00, 0.000, 0.000, 0.000, 18:24:48.290, 1551482688290
11, 0.00, 0.00, 0.00, 0.00, 0.00, 0.00, 12570.38, 0.00, 0.000, 0.000, 0.000, 18:24:48.290, 1551482688290
12, 0.00, 0.00, 0.00, 0.00, 0.00, 0.00, 12576.83, 0.00, 0.000, 0.000, 0.000, 18:24:48.298, 1551482688298
13, 0.00, 0.00, 0.00, 0.00, 0.00, 0.00, 12570.75, 0.00, 0.000, 0.000, 0.000, 18:24:48.298, 1551482688298
14, 0.00, 0.00, 0.00, 0.00, 0.00, 0.00, 12568.90, 0.00, 0.000, 0.000, 0.000, 18:24:48.304, 1551482688304
15, 0.00, 0.00, 0.00, 0.00, 0.00, 0.00, 12571.89, 0.00, 0.000, 0.000, 0.000, 18:24:48.304, 1551482688304
16, 0.00, 0.00, 0.00, 0.00, 0.00, 0.00, 12578.67, 0.00, 0.000, 0.000, 0.000, 18:24:48.311, 1551482688311
17, 0.00, 0.00, 0.00, 0.00, 0.00, 0.00, 12563.47, 0.00, -0.064, 0.504, 0.788, 18:24:48.319, 1551482688319
18, 0.00, 0.00, 0.00, 0.00, 0.00, 0.00, 12541.32, 0.00, 0.000, 0.000, 0.000, 18:24:48.320, 1551482688320
19, 0.00, 0.00, 0.00, 0.00, 0.00, 0.00, 12535.77, 0.00, 0.000, 0.000, 0.000, 18:24:48.329, 1551482688329
20, 0.00, 0.00, 0.00, 0.00, 0.00, 0.00, 12544.13, 0.00, 0.000, 0.000, 0.000, 18:24:48.329, 1551482688329
21, 0.00, 0.00, 0.00, 0.00, 0.00, 0.00, 12548.09, 0.00, 0.000, 0.000, 0.000, 18:24:48.334, 1551482688334
22, 0.00, 0.00, 0.00, 0.00, 0.00, 0.00, 12546.66, 0.00, 0.000, 0.000, 0.000, 18:24:48.334, 1551482688334
23, 0.00, 0.00, 0.00, 0.00, 0.00, 0.00, 12550.93, 0.00, 0.000, 0.000, 0.000, 18:24:48.342, 1551482688342
24, 0.00, 0.00, 0.00, 0.00, 0.00, 0.00, 12547.89, 0.00, 0.000, 0.000, 0.000, 18:24:48.342, 1551482688342
25, 0.00, 0.00, 0.00, 0.00, 0.00, 0.00, 12543.78, 0.00, 0.000, 0.000, 0.000, 18:24:48.350, 1551482688350
26, 0.00, 0.00, 0.00, 0.00, 0.00, 0.00, 12532.60, 0.00, 0.000, 0.000, 0.000, 18:24:48.350, 1551482688350
27, 0.00, 0.00, 0.00, 0.00, 0.00, 0.00, 12531.59, 0.00, -0.008, 0.520, 0.834, 18:24:48.357, 1551482688357
28, 0.00, 0.00, 0.00, 0.00, 0.00, 0.00, 12545.41, 0.00, 0.000, 0.000, 0.000, 18:24:48.357, 1551482688357
29, 0.00, 0.00, 0.00, 0.00, 0.00, 0.00, 12548.45, 0.00, 0.000, 0.000, 0.000, 18:24:48.366, 1551482688366
30, 0.00, 0.00, 0.00, 0.00, 0.00, 0.00, 12541.56, 0.00, 0.000, 0.000, 0.000, 18:24:48.366, 1551482688366
31, 0.00, 0.00, 0.00, 0.00, 0.00, 0.00, 12543.08, 0.00, 0.000, 0.000, 0.000, 18:24:48.372, 1551482688372
32, 0.00, 0.00, 0.00, 0.00, 0.00, 0.00, 12555.18, 0.00, 0.000, 0.000, 0.000, 18:24:48.380, 1551482688380
33, 0.00, 0.00, 0.00, 0.00, 0.00, 0.00, 12548.56, 0.00, 0.000, 0.000, 0.000, 18:24:48.380, 1551482688380
34, 0.00, 0.00, 0.00, 0.00, 0.00, 0.00, 12554.75, 0.00, 0.000, 0.000, 0.000, 18:24:48.387, 1551482688387
35, 0.00, 0.00, 0.00, 0.00, 0.00, 0.00, 12549.72, 0.00, 0.000, 0.000, 0.000, 18:24:48.387, 1551482688387
36, 0.00, 0.00, 0.00, 0.00, 0.00, 0.00, 12562.89, 0.00, 0.000, 0.000, 0.000, 18:24:48.396, 1551482688396
37, 0.00, 0.00, 0.00, 0.00, 0.00, 0.00, 12574.35, 0.00, 0.022, 0.516, 0.850, 18:24:48.396, 1551482688396
38, 0.00, 0.00, 0.00, 0.00, 0.00, 0.00, 12579.23, 0.00, 0.000, 0.000, 0.000, 18:24:48.402, 1551482688402
39, 0.00, 0.00, 0.00, 0.00, 0.00, 0.00, 12563.22, 0.00, 0.000, 0.000, 0.000, 18:24:48.402, 1551482688402
40, 0.00, 0.00, 0.00, 0.00, 0.00, 0.00, 12569.48, 0.00, 0.000, 0.000, 0.000, 18:24:48.410, 1551482688410
41, 0.00, 0.00, 0.00, 0.00, 0.00, 0.00, 12569.35, 0.00, 0.000, 0.000, 0.000, 18:24:48.410, 1551482688410
42, 0.00, 0.00, 0.00, 0.00, 0.00, 0.00, 12543.11, 0.00, 0.000, 0.000, 0.000, 18:24:48.417, 1551482688417
43, 0.00, 0.00, 0.00, 0.00, 0.00, 0.00, 12513.74, 0.00, 0.000, 0.000, 0.000, 18:24:48.418, 1551482688418
44, 0.00, 0.00, 0.00, 0.00, 0.00, 0.00, 12526.07, 0.00, 0.000, 0.000, 0.000, 18:24:48.424, 1551482688424
45, 0.00, 0.00, 0.00, 0.00, 0.00, 0.00, 12549.23, 0.00, 0.000, 0.000, 0.000, 18:24:48.425, 1551482688425
46, 0.00, 0.00, 0.00, 0.00, 0.00, 0.00, 12558.01, 0.00, 0.000, 0.000, 0.000, 18:24:48.431, 1551482688431
47, 0.00, 0.00, 0.00, 0.00, 0.00, 0.00, 12552.14, 0.00, 0.038, 0.516, 0.862, 18:24:48.441, 1551482688441
48, 0.00, 0.00, 0.00, 0.00, 0.00, 0.00, 12559.69, 0.00, 0.000, 0.000, 0.000, 18:24:48.441, 1551482688441
49, 0.00, 0.00, 0.00, 0.00, 0.00, 0.00, 12558.04, 0.00, 0.000, 0.000, 0.000, 18:24:48.453, 1551482688453
50, 0.00, 0.00, 0.00, 0.00, 0.00, 0.00, 12547.42, 0.00, 0.000, 0.000, 0.000, 18:24:48.453, 1551482688453
51, 0.00, 0.00, 0.00, 0.00, 0.00, 0.00, 12528.06, 0.00, 0.000, 0.000, 0.000, 18:24:48.454, 1551482688454
52, 0.00, 0.00, 0.00, 0.00, 0.00, 0.00, 12522.65, 0.00, 0.000, 0.000, 0.000, 18:24:48.454, 1551482688454
53, 0.00, 0.00, 0.00, 0.00, 0.00, 0.00, 12530.01, 0.00, 0.000, 0.000, 0.000, 18:24:48.467, 1551482688467
54, 0.00, 0.00, 0.00, 0.00, 0.00, 0.00, 12538.39, 0.00, 0.000, 0.000, 0.000, 18:24:48.467, 1551482688467
55, 0.00, 0.00, 0.00, 0.00, 0.00, 0.00, 12537.72, 0.00, 0.000, 0.000, 0.000, 18:24:48.475, 1551482688475
56, 0.00, 0.00, 0.00, 0.00, 0.00, 0.00, 12543.78, 0.00, 0.000, 0.000, 0.000, 18:24:48.475, 1551482688475
57, 0.00, 0.00, 0.00, 0.00, 0.00, 0.00, 12551.91, 0.00, 0.048, 0.522, 0.862, 18:24:48.482, 1551482688482
58, 0.00, 0.00, 0.00, 0.00, 0.00, 0.00, 12541.07, 0.00, 0.000, 0.000, 0.000, 18:24:48.482, 1551482688482
59, 0.00, 0.00, 0.00, 0.00, 0.00, 0.00, 12539.35, 0.00, 0.000, 0.000, 0.000, 18:24:48.486, 1551482688486
60, 0.00, 0.00, 0.00, 0.00, 0.00, 0.00, 12540.16, 0.00, 0.000, 0.000, 0.000, 18:24:48.487, 1551482688487
61, 0.00, 0.00, 0.00, 0.00, 0.00, 0.00, 12536.18, 0.00, 0.000, 0.000, 0.000, 18:24:48.492, 1551482688492
62, 0.00, 0.00, 0.00, 0.00, 0.00, 0.00, 12554.08, 0.00, 0.000, 0.000, 0.000, 18:24:48.492, 1551482688492
63, 0.00, 0.00, 0.00, 0.00, 0.00, 0.00, 12556.05, 0.00, 0.000, 0.000, 0.000, 18:24:48.500, 1551482688500
64, 0.00, 0.00, 0.00, 0.00, 0.00, 0.00, 12561.86, 0.00, 0.000, 0.000, 0.000, 18:24:48.514, 1551482688514
65, 0.00, 0.00, 0.00, 0.00, 0.00, 0.00, 12570.42, 0.00, 0.000, 0.000, 0.000, 18:24:48.514, 1551482688514
66, 0.00, 0.00, 0.00, 0.00, 0.00, 0.00, 12570.04, 0.00, 0.000, 0.000, 0.000, 18:24:48.514, 1551482688514
67, 0.00, 0.00, 0.00, 0.00, 0.00, 0.00, 12568.90, 0.00, 0.058, 0.528, 0.870, 18:24:48.515, 1551482688515
68, 0.00, 0.00, 0.00, 0.00, 0.00, 0.00, 12539.69, 0.00, 0.000, 0.000, 0.000, 18:24:48.522, 1551482688522
69, 0.00, 0.00, 0.00, 0.00, 0.00, 0.00, 12531.64, 0.00, 0.000, 0.000, 0.000, 18:24:48.522, 1551482688522
70, 0.00, 0.00, 0.00, 0.00, 0.00, 0.00, 12567.31, 0.00, 0.000, 0.000, 0.000, 18:24:48.530, 1551482688530
71, 0.00, 0.00, 0.00, 0.00, 0.00, 0.00, 12592.39, 0.00, 0.000, 0.000, 0.000, 18:24:48.530, 1551482688530
72, 0.00, 0.00, 0.00, 0.00, 0.00, 0.00, 12567.87, 0.00, 0.000, 0.000, 0.000, 18:24:48.537, 1551482688537
73, 0.00, 0.00, 0.00, 0.00, 0.00, 0.00, 12538.05, 0.00, 0.000, 0.000, 0.000, 18:24:48.537, 1551482688537
74, 0.00, 0.00, 0.00, 0.00, 0.00, 0.00, 12531.97, 0.00, 0.000, 0.000, 0.000, 18:24:48.545, 1551482688545
75, 0.00, 0.00, 0.00, 0.00, 0.00, 0.00, 12531.77, 0.00, 0.000, 0.000, 0.000, 18:24:48.545, 1551482688545
76, 0.00, 0.00, 0.00, 0.00, 0.00, 0.00, 12518.56, 0.00, 0.060, 0.522, 0.876, 18:24:48.553, 1551482688553
77, 0.00, 0.00, 0.00, 0.00, 0.00, 0.00, 12512.39, 0.00, 0.000, 0.000, 0.000, 18:24:48.553, 1551482688553
78, 0.00, 0.00, 0.00, 0.00, 0.00, 0.00, 12534.59, 0.00, 0.000, 0.000, 0.000, 18:24:48.560, 1551482688560
79, 0.00, 0.00, 0.00, 0.00, 0.00, 0.00, 12544.56, 0.00, 0.000, 0.000, 0.000, 18:24:48.566, 1551482688566
80, 0.00, 0.00, 0.00, 0.00, 0.00, 0.00, 12529.85, 0.00, 0.000, 0.000, 0.000, 18:24:48.566, 1551482688566
81, 0.00, 0.00, 0.00, 0.00, 0.00, 0.00, 12518.07, 0.00, 0.000, 0.000, 0.000, 18:24:48.574, 1551482688574
82, 0.00, 0.00, 0.00, 0.00, 0.00, 0.00, 12525.56, 0.00, 0.000, 0.000, 0.000, 18:24:48.574, 1551482688574
83, 0.00, 0.00, 0.00, 0.00, 0.00, 0.00, 12544.94, 0.00, 0.000, 0.000, 0.000, 18:24:48.582, 1551482688582
84, 0.00, 0.00, 0.00, 0.00, 0.00, 0.00, 12544.60, 0.00, 0.000, 0.000, 0.000, 18:24:48.582, 1551482688582
85, 0.00, 0.00, 0.00, 0.00, 0.00, 0.00, 12540.76, 0.00, 0.000, 0.000, 0.000, 18:24:48.589, 1551482688589
86, 0.00, 0.00, 0.00, 0.00, 0.00, 0.00, 12538.08, 0.00, 0.062, 0.522, 0.870, 18:24:48.589, 1551482688589
87, 0.00, 0.00, 0.00, 0.00, 0.00, 0.00, 12548.27, 0.00, 0.000, 0.000, 0.000, 18:24:48.597, 1551482688597
88, 0.00, 0.00, 0.00, 0.00, 0.00, 0.00, 12550.15, 0.00, 0.000, 0.000, 0.000, 18:24:48.597, 1551482688597
89, 0.00, 0.00, 0.00, 0.00, 0.00, 0.00, 12558.62, 0.00, 0.000, 0.000, 0.000, 18:24:48.605, 1551482688605
90, 0.00, 0.00, 0.00, 0.00, 0.00, 0.00, 12579.25, 0.00, 0.000, 0.000, 0.000, 18:24:48.605, 1551482688605
91, 0.00, 0.00, 0.00, 0.00, 0.00, 0.00, 12580.68, 0.00, 0.000, 0.000, 0.000, 18:24:48.613, 1551482688613
92, 0.00, 0.00, 0.00, 0.00, 0.00, 0.00, 12564.36, 0.00, 0.000, 0.000, 0.000, 18:24:48.613, 1551482688613
93, 0.00, 0.00, 0.00, 0.00, 0.00, 0.00, 12530.30, 0.00, 0.000, 0.000, 0.000, 18:24:48.619, 1551482688619
94, 0.00, 0.00, 0.00, 0.00, 0.00, 0.00, 12531.57, 0.00, 0.000, 0.000, 0.000, 18:24:48.627, 1551482688627
95, 0.00, 0.00, 0.00, 0.00, 0.00, 0.00, 12556.34, 0.00, 0.000, 0.000, 0.000, 18:24:48.627, 1551482688627
96, 0.00, 0.00, 0.00, 0.00, 0.00, 0.00, 12562.08, 0.00, 0.064, 0.530, 0.874, 18:24:48.635, 1551482688635
97, 0.00, 0.00, 0.00, 0.00, 0.00, 0.00, 12544.22, 0.00, 0.000, 0.000, 0.000, 18:24:48.635, 1551482688635
98, 0.00, 0.00, 0.00, 0.00, 0.00, 0.00, 12515.17, 0.00, 0.000, 0.000, 0.000, 18:24:48.642, 1551482688642
99, 0.00, 0.00, 0.00, 0.00, 0.00, 0.00, 12523.59, 0.00, 0.000, 0.000, 0.000, 18:24:48.643, 1551482688643
100, 0.00, 0.00, 0.00, 0.00, 0.00, 0.00, 12537.45, 0.00, 0.000, 0.000, 0.000, 18:24:48.649, 1551482688649
101, 0.00, 0.00, 0.00, 0.00, 0.00, 0.00, 12541.43, 0.00, 0.000, 0.000, 0.000, 18:24:48.649, 1551482688649
102, 0.00, 0.00, 0.00, 0.00, 0.00, 0.00, 12539.06, 0.00, 0.000, 0.000, 0.000, 18:24:48.657, 1551482688657
103, 0.00, 0.00, 0.00, 0.00, 0.00, 0.00, 12546.26, 0.00, 0.000, 0.000, 0.000, 18:24:48.657, 1551482688657
104, 0.00, 0.00, 0.00, 0.00, 0.00, 0.00, 12536.42, 0.00, 0.000, 0.000, 0.000, 18:24:48.665, 1551482688665
105, 0.00, 0.00, 0.00, 0.00, 0.00, 0.00, 12526.50, 0.00, 0.000, 0.000, 0.000, 18:24:48.665, 1551482688665
106, 0.00, 0.00, 0.00, 0.00, 0.00, 0.00, 12519.64, 0.00, 0.060, 0.530, 0.878, 18:24:48.672, 1551482688672
107, 0.00, 0.00, 0.00, 0.00, 0.00, 0.00, 12534.32, 0.00, 0.000, 0.000, 0.000, 18:24:48.672, 1551482688672
108, 0.00, 0.00, 0.00, 0.00, 0.00, 0.00, 12547.49, 0.00, 0.000, 0.000, 0.000, 18:24:48.679, 1551482688679
109, 0.00, 0.00, 0.00, 0.00, 0.00, 0.00, 12546.17, 0.00, 0.000, 0.000, 0.000, 18:24:48.687, 1551482688687
110, 0.00, 0.00, 0.00, 0.00, 0.00, 0.00, 12551.93, 0.00, 0.000, 0.000, 0.000, 18:24:48.687, 1551482688687
111, 0.00, 0.00, 0.00, 0.00, 0.00, 0.00, 12558.35, 0.00, 0.000, 0.000, 0.000, 18:24:48.695, 1551482688695
112, 0.00, 0.00, 0.00, 0.00, 0.00, 0.00, 12562.71, 0.00, 0.000, 0.000, 0.000, 18:24:48.695, 1551482688695
113, 0.00, 0.00, 0.00, 0.00, 0.00, 0.00, 12553.59, 0.00, 0.000, 0.000, 0.000, 18:24:48.701, 1551482688701
114, 0.00, 0.00, 0.00, 0.00, 0.00, 0.00, 12555.13, 0.00, 0.000, 0.000, 0.000, 18:24:48.701, 1551482688701
115, 0.00, 0.00, 0.00, 0.00, 0.00, 0.00, 12558.91, 0.00, 0.000, 0.000, 0.000, 18:24:48.710, 1551482688710
116, 0.00, 0.00, 0.00, 0.00, 0.00, 0.00, 12572.70, 0.00, 0.058, 0.530, 0.876, 18:24:48.710, 1551482688710
117, 0.00, 0.00, 0.00, 0.00, 0.00, 0.00, 12609.56, 0.00, 0.000, 0.000, 0.000, 18:24:48.717, 1551482688717
118, 0.00, 0.00, 0.00, 0.00, 0.00, 0.00, 12619.37, 0.00, 0.000, 0.000, 0.000, 18:24:48.718, 1551482688718
119, 0.00, 0.00, 0.00, 0.00, 0.00, 0.00, 12594.47, 0.00, 0.000, 0.000, 0.000, 18:24:48.725, 1551482688725
120, 0.00, 0.00, 0.00, 0.00, 0.00, 0.00, 12538.86, 0.00, 0.000, 0.000, 0.000, 18:24:48.726, 1551482688726
121, 0.00, 0.00, 0.00, 0.00, 0.00, 0.00, 12536.36, 0.00, 0.000, 0.000, 0.000, 18:24:48.732, 1551482688732
122, 0.00, 0.00, 0.00, 0.00, 0.00, 0.00, 12516.51, 0.00, 0.000, 0.000, 0.000, 18:24:48.732, 1551482688732
123, 0.00, 0.00, 0.00, 0.00, 0.00, 0.00, 12491.23, 0.00, 0.000, 0.000, 0.000, 18:24:48.739, 1551482688739
124, 0.00, 0.00, 0.00, 0.00, 0.00, 0.00, 12513.13, 0.00, 0.000, 0.000, 0.000, 18:24:48.739, 1551482688739
125, 0.00, 0.00, 0.00, 0.00, 0.00, 0.00, 12504.86, 0.00, 0.000, 0.000, 0.000, 18:24:48.747, 1551482688747
126, 0.00, 0.00, 0.00, 0.00, 0.00, 0.00, 12506.20, 0.00, 0.058, 0.530, 0.876, 18:24:48.754, 1551482688754
127, 0.00, 0.00, 0.00, 0.00, 0.00, 0.00, 12515.57, 0.00, 0.000, 0.000, 0.000, 18:24:48.754, 1551482688754
128, 0.00, 0.00, 0.00, 0.00, 0.00, 0.00, 12532.82, 0.00, 0.000, 0.000, 0.000, 18:24:48.762, 1551482688762
129, 0.00, 0.00, 0.00, 0.00, 0.00, 0.00, 12537.52, 0.00, 0.000, 0.000, 0.000, 18:24:48.762, 1551482688762
130, 0.00, 0.00, 0.00, 0.00, 0.00, 0.00, 12530.75, 0.00, 0.000, 0.000, 0.000, 18:24:48.770, 1551482688770
131, 0.00, 0.00, 0.00, 0.00, 0.00, 0.00, 12530.97, 0.00, 0.000, 0.000, 0.000, 18:24:48.770, 1551482688770
132, 0.00, 0.00, 0.00, 0.00, 0.00, 0.00, 12544.16, 0.00, 0.000, 0.000, 0.000, 18:24:48.778, 1551482688778
133, 0.00, 0.00, 0.00, 0.00, 0.00, 0.00, 12555.04, 0.00, 0.000, 0.000, 0.000, 18:24:48.778, 1551482688778
134, 0.00, 0.00, 0.00, 0.00, 0.00, 0.00, 12551.78, 0.00, 0.000, 0.000, 0.000, 18:24:48.784, 1551482688784
135, 0.00, 0.00, 0.00, 0.00, 0.00, 0.00, 12538.10, 0.00, 0.058, 0.532, 0.872, 18:24:48.784, 1551482688784
136, 0.00, 0.00, 0.00, 0.00, 0.00, 0.00, 12547.91, 0.00, 0.000, 0.000, 0.000, 18:24:48.793, 1551482688793
137, 0.00, 0.00, 0.00, 0.00, 0.00, 0.00, 12565.39, 0.00, 0.000, 0.000, 0.000, 18:24:48.793, 1551482688793
138, 0.00, 0.00, 0.00, 0.00, 0.00, 0.00, 12565.26, 0.00, 0.000, 0.000, 0.000, 18:24:48.800, 1551482688800
139, 0.00, 0.00, 0.00, 0.00, 0.00, 0.00, 12554.84, 0.00, 0.000, 0.000, 0.000, 18:24:48.800, 1551482688800
140, 0.00, 0.00, 0.00, 0.00, 0.00, 0.00, 12575.61, 0.00, 0.000, 0.000, 0.000, 18:24:48.806, 1551482688806
141, 0.00, 0.00, 0.00, 0.00, 0.00, 0.00, 12596.86, 0.00, 0.000, 0.000, 0.000, 18:24:48.814, 1551482688814
142, 0.00, 0.00, 0.00, 0.00, 0.00, 0.00, 12586.22, 0.00, 0.000, 0.000, 0.000, 18:24:48.814, 1551482688814
143, 0.00, 0.00, 0.00, 0.00, 0.00, 0.00, 12545.99, 0.00, 0.000, 0.000, 0.000, 18:24:48.822, 1551482688822
144, 0.00, 0.00, 0.00, 0.00, 0.00, 0.00, 12552.00, 0.00, 0.000, 0.000, 0.000, 18:24:48.822, 1551482688822
145, 0.00, 0.00, 0.00, 0.00, 0.00, 0.00, 12544.16, 0.00, 0.058, 0.528, 0.878, 18:24:48.830, 1551482688830
146, 0.00, 0.00, 0.00, 0.00, 0.00, 0.00, 12519.48, 0.00, 0.000, 0.000, 0.000, 18:24:48.830, 1551482688830
147, 0.00, 0.00, 0.00, 0.00, 0.00, 0.00, 12494.47, 0.00, 0.000, 0.000, 0.000, 18:24:48.837, 1551482688837
148, 0.00, 0.00, 0.00, 0.00, 0.00, 0.00, 12489.73, 0.00, 0.000, 0.000, 0.000, 18:24:48.837, 1551482688837
149, 0.00, 0.00, 0.00, 0.00, 0.00, 0.00, 12514.09, 0.00, 0.000, 0.000, 0.000, 18:24:48.845, 1551482688845
150, 0.00, 0.00, 0.00, 0.00, 0.00, 0.00, 12521.51, 0.00, 0.000, 0.000, 0.000, 18:24:48.845, 1551482688845
151, 0.00, 0.00, 0.00, 0.00, 0.00, 0.00, 12515.77, 0.00, 0.000, 0.000, 0.000, 18:24:48.853, 1551482688853
152, 0.00, 0.00, 0.00, 0.00, 0.00, 0.00, 12524.98, 0.00, 0.000, 0.000, 0.000, 18:24:48.853, 1551482688853
153, 0.00, 0.00, 0.00, 0.00, 0.00, 0.00, 12545.30, 0.00, 0.000, 0.000, 0.000, 18:24:48.861, 1551482688861
154, 0.00, 0.00, 0.00, 0.00, 0.00, 0.00, 12553.01, 0.00, 0.000, 0.000, 0.000, 18:24:48.861, 1551482688861
155, 0.00, 0.00, 0.00, 0.00, 0.00, 0.00, 12546.30, 0.00, 0.052, 0.524, 0.878, 18:24:48.867, 1551482688867
156, 0.00, 0.00, 0.00, 0.00, 0.00, 0.00, 12534.37, 0.00, 0.000, 0.000, 0.000, 18:24:48.874, 1551482688874
157, 0.00, 0.00, 0.00, 0.00, 0.00, 0.00, 12539.42, 0.00, 0.000, 0.000, 0.000, 18:24:48.874, 1551482688874
158, 0.00, 0.00, 0.00, 0.00, 0.00, 0.00, 12550.57, 0.00, 0.000, 0.000, 0.000, 18:24:48.882, 1551482688882
159, 0.00, 0.00, 0.00, 0.00, 0.00, 0.00, 12547.20, 0.00, 0.000, 0.000, 0.000, 18:24:48.882, 1551482688882
160, 0.00, 0.00, 0.00, 0.00, 0.00, 0.00, 12541.41, 0.00, 0.000, 0.000, 0.000, 18:24:48.889, 1551482688889
161, 0.00, 0.00, 0.00, 0.00, 0.00, 0.00, 12552.58, 0.00, 0.000, 0.000, 0.000, 18:24:48.889, 1551482688889
162, 0.00, 0.00, 0.00, 0.00, 0.00, 0.00, 12555.33, 0.00, 0.000, 0.000, 0.000, 18:24:48.897, 1551482688897
163, 0.00, 0.00, 0.00, 0.00, 0.00, 0.00, 12554.04, 0.00, 0.000, 0.000, 0.000, 18:24:48.897, 1551482688897
164, 0.00, 0.00, 0.00, 0.00, 0.00, 0.00, 12543.69, 0.00, 0.000, 0.000, 0.000, 18:24:48.905, 1551482688905
165, 0.00, 0.00, 0.00, 0.00, 0.00, 0.00, 12544.89, 0.00, 0.054, 0.516, 0.880, 18:24:48.905, 1551482688905
166, 0.00, 0.00, 0.00, 0.00, 0.00, 0.00, 12557.05, 0.00, 0.000, 0.000, 0.000, 18:24:48.913, 1551482688913
167, 0.00, 0.00, 0.00, 0.00, 0.00, 0.00, 12557.32, 0.00, 0.000, 0.000, 0.000, 18:24:48.913, 1551482688913
168, 0.00, 0.00, 0.00, 0.00, 0.00, 0.00, 12532.58, 0.00, 0.000, 0.000, 0.000, 18:24:48.919, 1551482688919
169, 0.00, 0.00, 0.00, 0.00, 0.00, 0.00, 12539.71, 0.00, 0.000, 0.000, 0.000, 18:24:48.920, 1551482688920
170, 0.00, 0.00, 0.00, 0.00, 0.00, 0.00, 12590.54, 0.00, 0.000, 0.000, 0.000, 18:24:48.927, 1551482688927
171, 0.00, 0.00, 0.00, 0.00, 0.00, 0.00, 12604.91, 0.00, 0.000, 0.000, 0.000, 18:24:48.935, 1551482688935
172, 0.00, 0.00, 0.00, 0.00, 0.00, 0.00, 12580.92, 0.00, 0.000, 0.000, 0.000, 18:24:48.935, 1551482688935
173, 0.00, 0.00, 0.00, 0.00, 0.00, 0.00, 12563.07, 0.00, 0.000, 0.000, 0.000, 18:24:48.943, 1551482688943
174, 0.00, 0.00, 0.00, 0.00, 0.00, 0.00, 12553.70, 0.00, 0.000, 0.000, 0.000, 18:24:48.943, 1551482688943
175, 0.00, 0.00, 0.00, 0.00, 0.00, 0.00, 12515.55, 0.00, 0.056, 0.520, 0.876, 18:24:48.949, 1551482688949
176, 0.00, 0.00, 0.00, 0.00, 0.00, 0.00, 12466.93, 0.00, 0.000, 0.000, 0.000, 18:24:48.949, 1551482688949
177, 0.00, 0.00, 0.00, 0.00, 0.00, 0.00, 12466.73, 0.00, 0.000, 0.000, 0.000, 18:24:48.957, 1551482688957
178, 0.00, 0.00, 0.00, 0.00, 0.00, 0.00, 12500.59, 0.00, 0.000, 0.000, 0.000, 18:24:48.957, 1551482688957
179, 0.00, 0.00, 0.00, 0.00, 0.00, 0.00, 12521.36, 0.00, 0.000, 0.000, 0.000, 18:24:48.965, 1551482688965
180, 0.00, 0.00, 0.00, 0.00, 0.00, 0.00, 12521.47, 0.00, 0.000, 0.000, 0.000, 18:24:48.965, 1551482688965
181, 0.00, 0.00, 0.00, 0.00, 0.00, 0.00, 12520.13, 0.00, 0.000, 0.000, 0.000, 18:24:48.972, 1551482688972
182, 0.00, 0.00, 0.00, 0.00, 0.00, 0.00, 12540.24, 0.00, 0.000, 0.000, 0.000, 18:24:48.972, 1551482688972
183, 0.00, 0.00, 0.00, 0.00, 0.00, 0.00, 12550.53, 0.00, 0.000, 0.000, 0.000, 18:24:48.980, 1551482688980
184, 0.00, 0.00, 0.00, 0.00, 0.00, 0.00, 12533.20, 0.00, 0.000, 0.000, 0.000, 18:24:48.980, 1551482688980
185, 0.00, 0.00, 0.00, 0.00, 0.00, 0.00, 12527.21, 0.00, 0.056, 0.520, 0.874, 18:24:48.987, 1551482688987
186, 0.00, 0.00, 0.00, 0.00, 0.00, 0.00, 12534.08, 0.00, 0.000, 0.000, 0.000, 18:24:48.987, 1551482688987
187, 0.00, 0.00, 0.00, 0.00, 0.00, 0.00, 12542.82, 0.00, 0.000, 0.000, 0.000, 18:24:48.995, 1551482688995
188, 0.00, 0.00, 0.00, 0.00, 0.00, 0.00, 12541.36, 0.00, 0.000, 0.000, 0.000, 18:24:49.001, 1551482689001
189, 0.00, 0.00, 0.00, 0.00, 0.00, 0.00, 12539.95, 0.00, 0.000, 0.000, 0.000, 18:24:49.002, 1551482689002
190, 0.00, 0.00, 0.00, 0.00, 0.00, 0.00, 12545.16, 0.00, 0.000, 0.000, 0.000, 18:24:49.010, 1551482689010
191, 0.00, 0.00, 0.00, 0.00, 0.00, 0.00, 12550.95, 0.00, 0.000, 0.000, 0.000, 18:24:49.010, 1551482689010
192, 0.00, 0.00, 0.00, 0.00, 0.00, 0.00, 12546.62, 0.00, 0.000, 0.000, 0.000, 18:24:49.018, 1551482689018
193, 0.00, 0.00, 0.00, 0.00, 0.00, 0.00, 12543.89, 0.00, 0.000, 0.000, 0.000, 18:24:49.018, 1551482689018
194, 0.00, 0.00, 0.00, 0.00, 0.00, 0.00, 12557.01, 0.00, 0.000, 0.000, 0.000, 18:24:49.036, 1551482689036
195, 0.00, 0.00, 0.00, 0.00, 0.00, 0.00, 12554.19, 0.00, 0.058, 0.522, 0.872, 18:24:49.037, 1551482689037
196, 0.00, 0.00, 0.00, 0.00, 0.00, 0.00, 12554.73, 0.00, 0.000, 0.000, 0.000, 18:24:49.037, 1551482689037
197, 0.00, 0.00, 0.00, 0.00, 0.00, 0.00, 12542.57, 0.00, 0.000, 0.000, 0.000, 18:24:49.037, 1551482689037
198, 0.00, 0.00, 0.00, 0.00, 0.00, 0.00, 12546.32, 0.00, 0.000, 0.000, 0.000, 18:24:49.042, 1551482689042
199, 0.00, 0.00, 0.00, 0.00, 0.00, 0.00, 12566.06, 0.00, 0.000, 0.000, 0.000, 18:24:49.042, 1551482689042
200, 0.00, 0.00, 0.00, 0.00, 0.00, 0.00, 12574.26, 0.00, 0.000, 0.000, 0.000, 18:24:49.048, 1551482689048
201, 0.00, 0.00, 0.00, 0.00, 0.00, 0.00, 12575.11, 0.00, 0.000, 0.000, 0.000, 18:24:49.048, 1551482689048
202, 0.00, 0.00, 0.00, 0.00, 0.00, 0.00, 12541.88, 0.00, 0.000, 0.000, 0.000, 18:24:49.055, 1551482689055
203, 0.00, 0.00, 0.00, 0.00, 0.00, 0.00, 12530.79, 0.00, 0.000, 0.000, 0.000, 18:24:49.062, 1551482689062
204, 0.00, 0.00, 0.00, 0.00, 0.00, 0.00, 12514.65, 0.00, 0.056, 0.524, 0.872, 18:24:49.062, 1551482689062
205, 0.00, 0.00, 0.00, 0.00, 0.00, 0.00, 12511.61, 0.00, 0.000, 0.000, 0.000, 18:24:49.070, 1551482689070
206, 0.00, 0.00, 0.00, 0.00, 0.00, 0.00, 12514.16, 0.00, 0.000, 0.000, 0.000, 18:24:49.070, 1551482689070
207, 0.00, 0.00, 0.00, 0.00, 0.00, 0.00, 12519.79, 0.00, 0.000, 0.000, 0.000, 18:24:49.077, 1551482689077
208, 0.00, 0.00, 0.00, 0.00, 0.00, 0.00, 12522.63, 0.00, 0.000, 0.000, 0.000, 18:24:49.077, 1551482689077
209, 0.00, 0.00, 0.00, 0.00, 0.00, 0.00, 12517.38, 0.00, 0.000, 0.000, 0.000, 18:24:49.084, 1551482689084
210, 0.00, 0.00, 0.00, 0.00, 0.00, 0.00, 12508.46, 0.00, 0.000, 0.000, 0.000, 18:24:49.085, 1551482689085
211, 0.00, 0.00, 0.00, 0.00, 0.00, 0.00, 12523.15, 0.00, 0.000, 0.000, 0.000, 18:24:49.093, 1551482689093
212, 0.00, 0.00, 0.00, 0.00, 0.00, 0.00, 12527.73, 0.00, 0.000, 0.000, 0.000, 18:24:49.093, 1551482689093
213, 0.00, 0.00, 0.00, 0.00, 0.00, 0.00, 12526.90, 0.00, 0.000, 0.000, 0.000, 18:24:49.100, 1551482689100
214, 0.00, 0.00, 0.00, 0.00, 0.00, 0.00, 12526.39, 0.00, 0.056, 0.522, 0.868, 18:24:49.100, 1551482689100
215, 0.00, 0.00, 0.00, 0.00, 0.00, 0.00, 12532.73, 0.00, 0.000, 0.000, 0.000, 18:24:49.107, 1551482689107
216, 0.00, 0.00, 0.00, 0.00, 0.00, 0.00, 12539.53, 0.00, 0.000, 0.000, 0.000, 18:24:49.107, 1551482689107
217, 0.00, 0.00, 0.00, 0.00, 0.00, 0.00, 12539.95, 0.00, 0.000, 0.000, 0.000, 18:24:49.114, 1551482689114
218, 0.00, 0.00, 0.00, 0.00, 0.00, 0.00, 12548.89, 0.00, 0.000, 0.000, 0.000, 18:24:49.122, 1551482689122
219, 0.00, 0.00, 0.00, 0.00, 0.00, 0.00, 12552.94, 0.00, 0.000, 0.000, 0.000, 18:24:49.122, 1551482689122
220, 0.00, 0.00, 0.00, 0.00, 0.00, 0.00, 12549.59, 0.00, 0.000, 0.000, 0.000, 18:24:49.130, 1551482689130
221, 0.00, 0.00, 0.00, 0.00, 0.00, 0.00, 12539.06, 0.00, 0.000, 0.000, 0.000, 18:24:49.130, 1551482689130
222, 0.00, 0.00, 0.00, 0.00, 0.00, 0.00, 12539.19, 0.00, 0.000, 0.000, 0.000, 18:24:49.137, 1551482689137
223, 0.00, 0.00, 0.00, 0.00, 0.00, 0.00, 12541.07, 0.00, 0.000, 0.000, 0.000, 18:24:49.137, 1551482689137
224, 0.00, 0.00, 0.00, 0.00, 0.00, 0.00, 12556.34, 0.00, 0.056, 0.526, 0.872, 18:24:49.145, 1551482689145
225, 0.00, 0.00, 0.00, 0.00, 0.00, 0.00, 12565.68, 0.00, 0.000, 0.000, 0.000, 18:24:49.145, 1551482689145
226, 0.00, 0.00, 0.00, 0.00, 0.00, 0.00, 12550.62, 0.00, 0.000, 0.000, 0.000, 18:24:49.153, 1551482689153
227, 0.00, 0.00, 0.00, 0.00, 0.00, 0.00, 12543.55, 0.00, 0.000, 0.000, 0.000, 18:24:49.153, 1551482689153
228, 0.00, 0.00, 0.00, 0.00, 0.00, 0.00, 12542.14, 0.00, 0.000, 0.000, 0.000, 18:24:49.160, 1551482689160
229, 0.00, 0.00, 0.00, 0.00, 0.00, 0.00, 12515.59, 0.00, 0.000, 0.000, 0.000, 18:24:49.161, 1551482689161
230, 0.00, 0.00, 0.00, 0.00, 0.00, 0.00, 12483.31, 0.00, 0.000, 0.000, 0.000, 18:24:49.167, 1551482689167
231, 0.00, 0.00, 0.00, 0.00, 0.00, 0.00, 12485.44, 0.00, 0.000, 0.000, 0.000, 18:24:49.167, 1551482689167
232, 0.00, 0.00, 0.00, 0.00, 0.00, 0.00, 12513.51, 0.00, 0.000, 0.000, 0.000, 18:24:49.174, 1551482689174
233, 0.00, 0.00, 0.00, 0.00, 0.00, 0.00, 12522.01, 0.00, 0.000, 0.000, 0.000, 18:24:49.182, 1551482689182
234, 0.00, 0.00, 0.00, 0.00, 0.00, 0.00, 12506.76, 0.00, 0.060, 0.526, 0.872, 18:24:49.183, 1551482689183
235, 0.00, 0.00, 0.00, 0.00, 0.00, 0.00, 12495.47, 0.00, 0.000, 0.000, 0.000, 18:24:49.189, 1551482689189
236, 0.00, 0.00, 0.00, 0.00, 0.00, 0.00, 12515.03, 0.00, 0.000, 0.000, 0.000, 18:24:49.190, 1551482689190
237, 0.00, 0.00, 0.00, 0.00, 0.00, 0.00, 12527.66, 0.00, 0.000, 0.000, 0.000, 18:24:49.197, 1551482689197
238, 0.00, 0.00, 0.00, 0.00, 0.00, 0.00, 12522.59, 0.00, 0.000, 0.000, 0.000, 18:24:49.197, 1551482689197
239, 0.00, 0.00, 0.00, 0.00, 0.00, 0.00, 12518.32, 0.00, 0.000, 0.000, 0.000, 18:24:49.205, 1551482689205
240, 0.00, 0.00, 0.00, 0.00, 0.00, 0.00, 12532.47, 0.00, 0.000, 0.000, 0.000, 18:24:49.205, 1551482689205
241, 0.00, 0.00, 0.00, 0.00, 0.00, 0.00, 12545.94, 0.00, 0.000, 0.000, 0.000, 18:24:49.213, 1551482689213
242, 0.00, 0.00, 0.00, 0.00, 0.00, 0.00, 12539.28, 0.00, 0.000, 0.000, 0.000, 18:24:49.213, 1551482689213
243, 0.00, 0.00, 0.00, 0.00, 0.00, 0.00, 12530.90, 0.00, 0.000, 0.000, 0.000, 18:24:49.220, 1551482689220
244, 0.00, 0.00, 0.00, 0.00, 0.00, 0.00, 12523.10, 0.00, 0.056, 0.524, 0.874, 18:24:49.220, 1551482689220
245, 0.00, 0.00, 0.00, 0.00, 0.00, 0.00, 12527.82, 0.00, 0.000, 0.000, 0.000, 18:24:49.228, 1551482689228
246, 0.00, 0.00, 0.00, 0.00, 0.00, 0.00, 12522.88, 0.00, 0.000, 0.000, 0.000, 18:24:49.228, 1551482689228
247, 0.00, 0.00, 0.00, 0.00, 0.00, 0.00, 12517.29, 0.00, 0.000, 0.000, 0.000, 18:24:49.235, 1551482689235
248, 0.00, 0.00, 0.00, 0.00, 0.00, 0.00, 12528.33, 0.00, 0.000, 0.000, 0.000, 18:24:49.235, 1551482689235
249, 0.00, 0.00, 0.00, 0.00, 0.00, 0.00, 12548.83, 0.00, 0.000, 0.000, 0.000, 18:24:49.242, 1551482689242
250, 0.00, 0.00, 0.00, 0.00, 0.00, 0.00, 12553.86, 0.00, 0.000, 0.000, 0.000, 18:24:49.249, 1551482689249
251, 0.00, 0.00, 0.00, 0.00, 0.00, 0.00, 12537.00, 0.00, 0.000, 0.000, 0.000, 18:24:49.249, 1551482689249
252, 0.00, 0.00, 0.00, 0.00, 0.00, 0.00, 12517.25, 0.00, 0.000, 0.000, 0.000, 18:24:49.258, 1551482689258
253, 0.00, 0.00, 0.00, 0.00, 0.00, 0.00, 12509.82, 0.00, 0.000, 0.000, 0.000, 18:24:49.258, 1551482689258
254, 0.00, 0.00, 0.00, 0.00, 0.00, 0.00, 12537.18, 0.00, 0.056, 0.520, 0.870, 18:24:49.266, 1551482689266
255, 0.00, 0.00, 0.00, 0.00, 0.00, 0.00, 12544.69, 0.00, 0.000, 0.000, 0.000, 18:24:49.266, 1551482689266
0, 0.00, 0.00, 0.00, 0.00, 0.00, 0.00, 12536.18, 0.00, 0.000, 0.000, 0.000, 18:24:49.272, 1551482689272
1, 0.00, 0.00, 0.00, 0.00, 0.00, 0.00, 12517.69, 0.00, 0.000, 0.000, 0.000, 18:24:49.272, 1551482689272
2, 0.00, 0.00, 0.00, 0.00, 0.00, 0.00, 12502.94, 0.00, 0.000, 0.000, 0.000, 18:24:49.280, 1551482689280
3, 0.00, 0.00, 0.00, 0.00, 0.00, 0.00, 12473.66, 0.00, 0.000, 0.000, 0.000, 18:24:49.280, 1551482689280
4, 0.00, 0.00, 0.00, 0.00, 0.00, 0.00, 12468.99, 0.00, 0.000, 0.000, 0.000, 18:24:49.288, 1551482689288
5, 0.00, 0.00, 0.00, 0.00, 0.00, 0.00, 12493.04, 0.00, 0.000, 0.000, 0.000, 18:24:49.288, 1551482689288
6, 0.00, 0.00, 0.00, 0.00, 0.00, 0.00, 12519.03, 0.00, 0.000, 0.000, 0.000, 18:24:49.295, 1551482689295
7, 0.00, 0.00, 0.00, 0.00, 0.00, 0.00, 12520.24, 0.00, 0.000, 0.000, 0.000, 18:24:49.295, 1551482689295
8, 0.00, 0.00, 0.00, 0.00, 0.00, 0.00, 12510.09, 0.00, 0.056, 0.522, 0.874, 18:24:49.302, 1551482689302
9, 0.00, 0.00, 0.00, 0.00, 0.00, 0.00, 12513.49, 0.00, 0.000, 0.000, 0.000, 18:24:49.310, 1551482689310
10, 0.00, 0.00, 0.00, 0.00, 0.00, 0.00, 12521.45, 0.00, 0.000, 0.000, 0.000, 18:24:49.310, 1551482689310
11, 0.00, 0.00, 0.00, 0.00, 0.00, 0.00, 12517.45, 0.00, 0.000, 0.000, 0.000, 18:24:49.318, 1551482689318
12, 0.00, 0.00, 0.00, 0.00, 0.00, 0.00, 12506.69, 0.00, 0.000, 0.000, 0.000, 18:24:49.318, 1551482689318
13, 0.00, 0.00, 0.00, 0.00, 0.00, 0.00, 12509.02, 0.00, 0.000, 0.000, 0.000, 18:24:49.325, 1551482689325
14, 0.00, 0.00, 0.00, 0.00, 0.00, 0.00, 12525.69, 0.00, 0.000, 0.000, 0.000, 18:24:49.325, 1551482689325
15, 0.00, 0.00, 0.00, 0.00, 0.00, 0.00, 12524.42, 0.00, 0.000, 0.000, 0.000, 18:24:49.333, 1551482689333
16, 0.00, 0.00, 0.00, 0.00, 0.00, 0.00, 12513.53, 0.00, 0.000, 0.000, 0.000, 18:24:49.333, 1551482689333
17, 0.00, 0.00, 0.00, 0.00, 0.00, 0.00, 12523.37, 0.00, 0.058, 0.526, 0.874, 18:24:49.340, 1551482689340
18, 0.00, 0.00, 0.00, 0.00, 0.00, 0.00, 12548.87, 0.00, 0.000, 0.000, 0.000, 18:24:49.340, 1551482689340
19, 0.00, 0.00, 0.00, 0.00, 0.00, 0.00, 12554.28, 0.00, 0.000, 0.000, 0.000, 18:24:49.348, 1551482689348
20, 0.00, 0.00, 0.00, 0.00, 0.00, 0.00, 12559.62, 0.00, 0.000, 0.000, 0.000, 18:24:49.348, 1551482689348
21, 0.00, 0.00, 0.00, 0.00, 0.00, 0.00, 12560.96, 0.00, 0.000, 0.000, 0.000, 18:24:49.355, 1551482689355
22, 0.00, 0.00, 0.00, 0.00, 0.00, 0.00, 12551.69, 0.00, 0.000, 0.000, 0.000, 18:24:49.355, 1551482689355
23, 0.00, 0.00, 0.00, 0.00, 0.00, 0.00, 12515.59, 0.00, 0.000, 0.000, 0.000, 18:24:49.362, 1551482689362
24, 0.00, 0.00, 0.00, 0.00, 0.00, 0.00, 12471.74, 0.00, 0.000, 0.000, 0.000, 18:24:49.370, 1551482689370
25, 0.00, 0.00, 0.00, 0.00, 0.00, 0.00, 12478.04, 0.00, 0.000, 0.000, 0.000, 18:24:49.371, 1551482689371
26, 0.00, 0.00, 0.00, 0.00, 0.00, 0.00, 12502.25, 0.00, 0.000, 0.000, 0.000, 18:24:49.380, 1551482689380
27, 0.00, 0.00, 0.00, 0.00, 0.00, 0.00, 12505.29, 0.00, 0.056, 0.528, 0.872, 18:24:49.380, 1551482689380
28, 0.00, 0.00, 0.00, 0.00, 0.00, 0.00, 12488.41, 0.00, 0.000, 0.000, 0.000, 18:24:49.385, 1551482689385
29, 0.00, 0.00, 0.00, 0.00, 0.00, 0.00, 12482.73, 0.00, 0.000, 0.000, 0.000, 18:24:49.385, 1551482689385
30, 0.00, 0.00, 0.00, 0.00, 0.00, 0.00, 12497.17, 0.00, 0.000, 0.000, 0.000, 18:24:49.392, 1551482689392
31, 0.00, 0.00, 0.00, 0.00, 0.00, 0.00, 12511.81, 0.00, 0.000, 0.000, 0.000, 18:24:49.393, 1551482689393
32, 0.00, 0.00, 0.00, 0.00, 0.00, 0.00, 12511.12, 0.00, 0.000, 0.000, 0.000, 18:24:49.401, 1551482689401
33, 0.00, 0.00, 0.00, 0.00, 0.00, 0.00, 12506.05, 0.00, 0.000, 0.000, 0.000, 18:24:49.401, 1551482689401
34, 0.00, 0.00, 0.00, 0.00, 0.00, 0.00, 12505.78, 0.00, 0.000, 0.000, 0.000, 18:24:49.408, 1551482689408
35, 0.00, 0.00, 0.00, 0.00, 0.00, 0.00, 12521.92, 0.00, 0.000, 0.000, 0.000, 18:24:49.408, 1551482689408
36, 0.00, 0.00, 0.00, 0.00, 0.00, 0.00, 12522.90, 0.00, 0.000, 0.000, 0.000, 18:24:49.415, 1551482689415
37, 0.00, 0.00, 0.00, 0.00, 0.00, 0.00, 12511.68, 0.00, 0.052, 0.524, 0.870, 18:24:49.415, 1551482689415
38, 0.00, 0.00, 0.00, 0.00, 0.00, 0.00, 12517.69, 0.00, 0.000, 0.000, 0.000, 18:24:49.422, 1551482689422
39, 0.00, 0.00, 0.00, 0.00, 0.00, 0.00, 12542.21, 0.00, 0.000, 0.000, 0.000, 18:24:49.430, 1551482689430
40, 0.00, 0.00, 0.00, 0.00, 0.00, 0.00, 12550.44, 0.00, 0.000, 0.000, 0.000, 18:24:49.430, 1551482689430
41, 0.00, 0.00, 0.00, 0.00, 0.00, 0.00, 12533.20, 0.00, 0.000, 0.000, 0.000, 18:24:49.437, 1551482689437
42, 0.00, 0.00, 0.00, 0.00, 0.00, 0.00, 12516.71, 0.00, 0.000, 0.000, 0.000, 18:24:49.437, 1551482689437
43, 0.00, 0.00, 0.00, 0.00, 0.00, 0.00, 12510.41, 0.00, 0.000, 0.000, 0.000, 18:24:49.445, 1551482689445
44, 0.00, 0.00, 0.00, 0.00, 0.00, 0.00, 12514.25, 0.00, 0.000, 0.000, 0.000, 18:24:49.445, 1551482689445
45, 0.00, 0.00, 0.00, 0.00, 0.00, 0.00, 12516.15, 0.00, 0.000, 0.000, 0.000, 18:24:49.453, 1551482689453
46, 0.00, 0.00, 0.00, 0.00, 0.00, 0.00, 12518.92, 0.00, 0.000, 0.000, 0.000, 18:24:49.453, 1551482689453
47, 0.00, 0.00, 0.00, 0.00, 0.00, 0.00, 12541.88, 0.00, 0.058, 0.520, 0.878, 18:24:49.460, 1551482689460
48, 0.00, 0.00, 0.00, 0.00, 0.00, 0.00, 12549.03, 0.00, 0.000, 0.000, 0.000, 18:24:49.460, 1551482689460
49, 0.00, 0.00, 0.00, 0.00, 0.00, 0.00, 12513.20, 0.00, 0.000, 0.000, 0.000, 18:24:49.467, 1551482689467
50, 0.00, 0.00, 0.00, 0.00, 0.00, 0.00, 12486.87, 0.00, 0.000, 0.000, 0.000, 18:24:49.468, 1551482689468
51, 0.00, 0.00, 0.00, 0.00, 0.00, 0.00, 12473.50, 0.00, 0.000, 0.000, 0.000, 18:24:49.476, 1551482689476
52, 0.00, 0.00, 0.00, 0.00, 0.00, 0.00, 12492.52, 0.00, 0.000, 0.000, 0.000, 18:24:49.476, 1551482689476
53, 0.00, 0.00, 0.00, 0.00, 0.00, 0.00, 12497.02, 0.00, 0.000, 0.000, 0.000, 18:24:49.482, 1551482689482
54, 0.00, 0.00, 0.00, 0.00, 0.00, 0.00, 12499.83, 0.00, 0.000, 0.000, 0.000, 18:24:49.482, 1551482689482
55, 0.00, 0.00, 0.00, 0.00, 0.00, 0.00, 12500.95, 0.00, 0.000, 0.000, 0.000, 18:24:49.489, 1551482689489
56, 0.00, 0.00, 0.00, 0.00, 0.00, 0.00, 12513.83, 0.00, 0.000, 0.000, 0.000, 18:24:49.497, 1551482689497
57, 0.00, 0.00, 0.00, 0.00, 0.00, 0.00, 12518.00, 0.00, 0.060, 0.522, 0.872, 18:24:49.497, 1551482689497
58, 0.00, 0.00, 0.00, 0.00, 0.00, 0.00, 12515.72, 0.00, 0.000, 0.000, 0.000, 18:24:49.509, 1551482689509
59, 0.00, 0.00, 0.00, 0.00, 0.00, 0.00, 12513.45, 0.00, 0.000, 0.000, 0.000, 18:24:49.509, 1551482689509
60, 0.00, 0.00, 0.00, 0.00, 0.00, 0.00, 12521.09, 0.00, 0.000, 0.000, 0.000, 18:24:49.515, 1551482689515
61, 0.00, 0.00, 0.00, 0.00, 0.00, 0.00, 12522.12, 0.00, 0.000, 0.000, 0.000, 18:24:49.515, 1551482689515
62, 0.00, 0.00, 0.00, 0.00, 0.00, 0.00, 12516.82, 0.00, 0.000, 0.000, 0.000, 18:24:49.520, 1551482689520
63, 0.00, 0.00, 0.00, 0.00, 0.00, 0.00, 12516.91, 0.00, 0.000, 0.000, 0.000, 18:24:49.520, 1551482689520
64, 0.00, 0.00, 0.00, 0.00, 0.00, 0.00, 12520.28, 0.00, 0.000, 0.000, 0.000, 18:24:49.528, 1551482689528
65, 0.00, 0.00, 0.00, 0.00, 0.00, 0.00, 12527.06, 0.00, 0.000, 0.000, 0.000, 18:24:49.528, 1551482689528
66, 0.00, 0.00, 0.00, 0.00, 0.00, 0.00, 12531.37, 0.00, 0.000, 0.000, 0.000, 18:24:49.543, 1551482689543
67, 0.00, 0.00, 0.00, 0.00, 0.00, 0.00, 12534.99, 0.00, 0.060, 0.524, 0.868, 18:24:49.543, 1551482689543
68, 0.00, 0.00, 0.00, 0.00, 0.00, 0.00, 12539.24, 0.00, 0.000, 0.000, 0.000, 18:24:49.543, 1551482689543
69, 0.00, 0.00, 0.00, 0.00, 0.00, 0.00, 12526.39, 0.00, 0.000, 0.000, 0.000, 18:24:49.544, 1551482689544
70, 0.00, 0.00, 0.00, 0.00, 0.00, 0.00, 12507.19, 0.00, 0.000, 0.000, 0.000, 18:24:49.550, 1551482689550
71, 0.00, 0.00, 0.00, 0.00, 0.00, 0.00, 12501.40, 0.00, 0.000, 0.000, 0.000, 18:24:49.557, 1551482689557
72, 0.00, 0.00, 0.00, 0.00, 0.00, 0.00, 12512.15, 0.00, 0.000, 0.000, 0.000, 18:24:49.558, 1551482689558
73, 0.00, 0.00, 0.00, 0.00, 0.00, 0.00, 12530.97, 0.00, 0.000, 0.000, 0.000, 18:24:49.565, 1551482689565
74, 0.00, 0.00, 0.00, 0.00, 0.00, 0.00, 12522.72, 0.00, 0.000, 0.000, 0.000, 18:24:49.565, 1551482689565
75, 0.00, 0.00, 0.00, 0.00, 0.00, 0.00, 12502.83, 0.00, 0.000, 0.000, 0.000, 18:24:49.575, 1551482689575
76, 0.00, 0.00, 0.00, 0.00, 0.00, 0.00, 12482.26, 0.00, 0.058, 0.526, 0.872, 18:24:49.576, 1551482689576
77, 0.00, 0.00, 0.00, 0.00, 0.00, 0.00, 12501.00, 0.00, 0.000, 0.000, 0.000, 18:24:49.580, 1551482689580
78, 0.00, 0.00, 0.00, 0.00, 0.00, 0.00, 12505.53, 0.00, 0.000, 0.000, 0.000, 18:24:49.580, 1551482689580
79, 0.00, 0.00, 0.00, 0.00, 0.00, 0.00, 12508.59, 0.00, 0.000, 0.000, 0.000, 18:24:49.588, 1551482689588
80, 0.00, 0.00, 0.00, 0.00, 0.00, 0.00, 12515.25, 0.00, 0.000, 0.000, 0.000, 18:24:49.588, 1551482689588
81, 0.00, 0.00, 0.00, 0.00, 0.00, 0.00, 12514.45, 0.00, 0.000, 0.000, 0.000, 18:24:49.595, 1551482689595
82, 0.00, 0.00, 0.00, 0.00, 0.00, 0.00, 12524.84, 0.00, 0.000, 0.000, 0.000, 18:24:49.595, 1551482689595
83, 0.00, 0.00, 0.00, 0.00, 0.00, 0.00, 12521.69, 0.00, 0.000, 0.000, 0.000, 18:24:49.602, 1551482689602
84, 0.00, 0.00, 0.00, 0.00, 0.00, 0.00, 12522.56, 0.00, 0.000, 0.000, 0.000, 18:24:49.603, 1551482689603
85, 0.00, 0.00, 0.00, 0.00, 0.00, 0.00, 12538.17, 0.00, 0.000, 0.000, 0.000, 18:24:49.610, 1551482689610
86, 0.00, 0.00, 0.00, 0.00, 0.00, 0.00, 12528.80, 0.00, 0.058, 0.526, 0.872, 18:24:49.617, 1551482689617
87, 0.00, 0.00, 0.00, 0.00, 0.00, 0.00, 12491.34, 0.00, 0.000, 0.000, 0.000, 18:24:49.618, 1551482689618
88, 0.00, 0.00, 0.00, 0.00, 0.00, 0.00, 12505.98, 0.00, 0.000, 0.000, 0.000, 18:24:49.625, 1551482689625
89, 0.00, 0.00, 0.00, 0.00, 0.00, 0.00, 12538.52, 0.00, 0.000, 0.000, 0.000, 18:24:49.625, 1551482689625
90, 0.00, 0.00, 0.00, 0.00, 0.00, 0.00, 12547.71, 0.00, 0.000, 0.000, 0.000, 18:24:49.632, 1551482689632
91, 0.00, 0.00, 0.00, 0.00, 0.00, 0.00, 12521.40, 0.00, 0.000, 0.000, 0.000, 18:24:49.632, 1551482689632
92, 0.00, 0.00, 0.00, 0.00, 0.00, 0.00, 12502.22, 0.00, 0.000, 0.000, 0.000, 18:24:49.640, 1551482689640
93, 0.00, 0.00, 0.00, 0.00, 0.00, 0.00, 12515.48, 0.00, 0.000, 0.000, 0.000, 18:24:49.640, 1551482689640
94, 0.00, 0.00, 0.00, 0.00, 0.00, 0.00, 12517.00, 0.00, 0.000, 0.000, 0.000, 18:24:49.650, 1551482689650
95, 0.00, 0.00, 0.00, 0.00, 0.00, 0.00, 12510.47, 0.00, 0.000, 0.000, 0.000, 18:24:49.650, 1551482689650
96, 0.00, 0.00, 0.00, 0.00, 0.00, 0.00, 12502.36, 0.00, 0.056, 0.524, 0.872, 18:24:49.655, 1551482689655
97, 0.00, 0.00, 0.00, 0.00, 0.00, 0.00, 12502.36, 0.00, 0.000, 0.000, 0.000, 18:24:49.655, 1551482689655
98, 0.00, 0.00, 0.00, 0.00, 0.00, 0.00, 12507.88, 0.00, 0.000, 0.000, 0.000, 18:24:49.663, 1551482689663
99, 0.00, 0.00, 0.00, 0.00, 0.00, 0.00, 12516.44, 0.00, 0.000, 0.000, 0.000, 18:24:49.664, 1551482689664
100, 0.00, 0.00, 0.00, 0.00, 0.00, 0.00, 12517.74, 0.00, 0.000, 0.000, 0.000, 18:24:49.670, 1551482689670
101, 0.00, 0.00, 0.00, 0.00, 0.00, 0.00, 12528.73, 0.00, 0.000, 0.000, 0.000, 18:24:49.682, 1551482689682
102, 0.00, 0.00, 0.00, 0.00, 0.00, 0.00, 12540.63, 0.00, 0.000, 0.000, 0.000, 18:24:49.682, 1551482689682
103, 0.00, 0.00, 0.00, 0.00, 0.00, 0.00, 12534.12, 0.00, 0.000, 0.000, 0.000, 18:24:49.684, 1551482689684
104, 0.00, 0.00, 0.00, 0.00, 0.00, 0.00, 12518.03, 0.00, 0.000, 0.000, 0.000, 18:24:49.684, 1551482689684
105, 0.00, 0.00, 0.00, 0.00, 0.00, 0.00, 12518.16, 0.00, 0.000, 0.000, 0.000, 18:24:49.693, 1551482689693
106, 0.00, 0.00, 0.00, 0.00, 0.00, 0.00, 12540.51, 0.00, 0.058, 0.528, 0.874, 18:24:49.693, 1551482689693
107, 0.00, 0.00, 0.00, 0.00, 0.00, 0.00, 12542.44, 0.00, 0.000, 0.000, 0.000, 18:24:49.700, 1551482689700
108, 0.00, 0.00, 0.00, 0.00, 0.00, 0.00, 12539.35, 0.00, 0.000, 0.000, 0.000, 18:24:49.701, 1551482689701
109, 0.00, 0.00, 0.00, 0.00, 0.00, 0.00, 12538.88, 0.00, 0.000, 0.000, 0.000, 18:24:49.707, 1551482689707
110, 0.00, 0.00, 0.00, 0.00, 0.00, 0.00, 12538.55, 0.00, 0.000, 0.000, 0.000, 18:24:49.707, 1551482689707
111, 0.00, 0.00, 0.00, 0.00, 0.00, 0.00, 12544.09, 0.00, 0.000, 0.000, 0.000, 18:24:49.715, 1551482689715
112, 0.00, 0.00, 0.00, 0.00, 0.00, 0.00, 12542.28, 0.00, 0.000, 0.000, 0.000, 18:24:49.715, 1551482689715
113, 0.00, 0.00, 0.00, 0.00, 0.00, 0.00, 12534.92, 0.00, 0.000, 0.000, 0.000, 18:24:49.725, 1551482689725
114, 0.00, 0.00, 0.00, 0.00, 0.00, 0.00, 12526.25, 0.00, 0.000, 0.000, 0.000, 18:24:49.725, 1551482689725
115, 0.00, 0.00, 0.00, 0.00, 0.00, 0.00, 12544.11, 0.00, 0.000, 0.000, 0.000, 18:24:49.731, 1551482689731
116, 0.00, 0.00, 0.00, 0.00, 0.00, 0.00, 12549.12, 0.00, 0.058, 0.528, 0.876, 18:24:49.731, 1551482689731
117, 0.00, 0.00, 0.00, 0.00, 0.00, 0.00, 12532.15, 0.00, 0.000, 0.000, 0.000, 18:24:49.738, 1551482689738
118, 0.00, 0.00, 0.00, 0.00, 0.00, 0.00, 12534.54, 0.00, 0.000, 0.000, 0.000, 18:24:49.747, 1551482689747
119, 0.00, 0.00, 0.00, 0.00, 0.00, 0.00, 12524.62, 0.00, 0.000, 0.000, 0.000, 18:24:49.747, 1551482689747
120, 0.00, 0.00, 0.00, 0.00, 0.00, 0.00, 12510.96, 0.00, 0.000, 0.000, 0.000, 18:24:49.756, 1551482689756
121, 0.00, 0.00, 0.00, 0.00, 0.00, 0.00, 12515.84, 0.00, 0.000, 0.000, 0.000, 18:24:49.756, 1551482689756
122, 0.00, 0.00, 0.00, 0.00, 0.00, 0.00, 12534.32, 0.00, 0.000, 0.000, 0.000, 18:24:49.768, 1551482689768
123, 0.00, 0.00, 0.00, 0.00, 0.00, 0.00, 12527.28, 0.00, 0.000, 0.000, 0.000, 18:24:49.768, 1551482689768
124, 0.00, 0.00, 0.00, 0.00, 0.00, 0.00, 12517.18, 0.00, 0.000, 0.000, 0.000, 18:24:49.768, 1551482689768
125, 0.00, 0.00, 0.00, 0.00, 0.00, 0.00, 12510.05, 0.00, 0.000, 0.000, 0.000, 18:24:49.768, 1551482689768
126, 0.00, 0.00, 0.00, 0.00, 0.00, 0.00, 12518.29, 0.00, 0.060, 0.524, 0.866, 18:24:49.775, 1551482689775
127, 0.00, 0.00, 0.00, 0.00, 0.00, 0.00, 12537.99, 0.00, 0.000, 0.000, 0.000, 18:24:49.776, 1551482689776
128, 0.00, 0.00, 0.00, 0.00, 0.00, 0.00, 12536.33, 0.00, 0.000, 0.000, 0.000, 18:24:49.786, 1551482689786
129, 0.00, 0.00, 0.00, 0.00, 0.00, 0.00, 12526.72, 0.00, 0.000, 0.000, 0.000, 18:24:49.786, 1551482689786
130, 0.00, 0.00, 0.00, 0.00, 0.00, 0.00, 12540.98, 0.00, 0.000, 0.000, 0.000, 18:24:49.791, 1551482689791
131, 0.00, 0.00, 0.00, 0.00, 0.00, 0.00, 12568.01, 0.00, 0.000, 0.000, 0.000, 18:24:49.791, 1551482689791
132, 0.00, 0.00, 0.00, 0.00, 0.00, 0.00, 12556.52, 0.00, 0.000, 0.000, 0.000, 18:24:49.802, 1551482689802
133, 0.00, 0.00, 0.00, 0.00, 0.00, 0.00, 12547.13, 0.00, 0.000, 0.000, 0.000, 18:24:49.806, 1551482689806
134, 0.00, 0.00, 0.00, 0.00, 0.00, 0.00, 12542.03, 0.00, 0.000, 0.000, 0.000, 18:24:49.806, 1551482689806
135, 0.00, 0.00, 0.00, 0.00, 0.00, 0.00, 12555.20, 0.00, 0.000, 0.000, 0.000, 18:24:49.812, 1551482689812
136, 0.00, 0.00, 0.00, 0.00, 0.00, 0.00, 12574.93, 0.00, 0.058, 0.520, 0.870, 18:24:49.813, 1551482689813
137, 0.00, 0.00, 0.00, 0.00, 0.00, 0.00, 12566.96, 0.00, 0.000, 0.000, 0.000, 18:24:49.824, 1551482689824
138, 0.00, 0.00, 0.00, 0.00, 0.00, 0.00, 12543.42, 0.00, 0.000, 0.000, 0.000, 18:24:49.824, 1551482689824
139, 0.00, 0.00, 0.00, 0.00, 0.00, 0.00, 12536.09, 0.00, 0.000, 0.000, 0.000, 18:24:49.828, 1551482689828
140, 0.00, 0.00, 0.00, 0.00, 0.00, 0.00, 12529.56, 0.00, 0.000, 0.000, 0.000, 18:24:49.828, 1551482689828
141, 0.00, 0.00, 0.00, 0.00, 0.00, 0.00, 12509.40, 0.00, 0.000, 0.000, 0.000, 18:24:49.836, 1551482689836
142, 0.00, 0.00, 0.00, 0.00, 0.00, 0.00, 12508.10, 0.00, 0.000, 0.000, 0.000, 18:24:49.836, 1551482689836
143, 0.00, 0.00, 0.00, 0.00, 0.00, 0.00, 12528.80, 0.00, 0.000, 0.000, 0.000, 18:24:49.842, 1551482689842
144, 0.00, 0.00, 0.00, 0.00, 0.00, 0.00, 12539.06, 0.00, 0.000, 0.000, 0.000, 18:24:49.842, 1551482689842
145, 0.00, 0.00, 0.00, 0.00, 0.00, 0.00, 12529.90, 0.00, 0.054, 0.524, 0.874, 18:24:49.850, 1551482689850
146, 0.00, 0.00, 0.00, 0.00, 0.00, 0.00, 12526.10, 0.00, 0.000, 0.000, 0.000, 18:24:49.851, 1551482689851
147, 0.00, 0.00, 0.00, 0.00, 0.00, 0.00, 12536.74, 0.00, 0.000, 0.000, 0.000, 18:24:49.859, 1551482689859
148, 0.00, 0.00, 0.00, 0.00, 0.00, 0.00, 12543.37, 0.00, 0.000, 0.000, 0.000, 18:24:49.866, 1551482689866
149, 0.00, 0.00, 0.00, 0.00, 0.00, 0.00, 12540.09, 0.00, 0.000, 0.000, 0.000, 18:24:49.866, 1551482689866
150, 0.00, 0.00, 0.00, 0.00, 0.00, 0.00, 12533.38, 0.00, 0.000, 0.000, 0.000, 18:24:49.876, 1551482689876
151, 0.00, 0.00, 0.00, 0.00, 0.00, 0.00, 12541.29, 0.00, 0.000, 0.000, 0.000, 18:24:49.876, 1551482689876
152, 0.00, 0.00, 0.00, 0.00, 0.00, 0.00, 12557.50, 0.00, 0.000, 0.000, 0.000, 18:24:49.887, 1551482689887
153, 0.00, 0.00, 0.00, 0.00, 0.00, 0.00, 12573.26, 0.00, 0.000, 0.000, 0.000, 18:24:49.887, 1551482689887
154, 0.00, 0.00, 0.00, 0.00, 0.00, 0.00, 12584.90, 0.00, 0.000, 0.000, 0.000, 18:24:49.888, 1551482689888
155, 0.00, 0.00, 0.00, 0.00, 0.00, 0.00, 12601.64, 0.00, 0.058, 0.528, 0.874, 18:24:49.888, 1551482689888
156, 0.00, 0.00, 0.00, 0.00, 0.00, 0.00, 12601.82, 0.00, 0.000, 0.000, 0.000, 18:24:49.895, 1551482689895
157, 0.00, 0.00, 0.00, 0.00, 0.00, 0.00, 12566.17, 0.00, 0.000, 0.000, 0.000, 18:24:49.895, 1551482689895
158, 0.00, 0.00, 0.00, 0.00, 0.00, 0.00, 12511.46, 0.00, 0.000, 0.000, 0.000, 18:24:49.903, 1551482689903
159, 0.00, 0.00, 0.00, 0.00, 0.00, 0.00, 12487.11, 0.00, 0.000, 0.000, 0.000, 18:24:49.903, 1551482689903
160, 0.00, 0.00, 0.00, 0.00, 0.00, 0.00, 12511.37, 0.00, 0.000, 0.000, 0.000, 18:24:49.910, 1551482689910
161, 0.00, 0.00, 0.00, 0.00, 0.00, 0.00, 12524.04, 0.00, 0.000, 0.000, 0.000, 18:24:49.911, 1551482689911
162, 0.00, 0.00, 0.00, 0.00, 0.00, 0.00, 12520.31, 0.00, 0.000, 0.000, 0.000, 18:24:49.918, 1551482689918
163, 0.00, 0.00, 0.00, 0.00, 0.00, 0.00, 12511.97, 0.00, 0.000, 0.000, 0.000, 18:24:49.928, 1551482689928
164, 0.00, 0.00, 0.00, 0.00, 0.00, 0.00, 12523.70, 0.00, 0.000, 0.000, 0.000, 18:24:49.928, 1551482689928
165, 0.00, 0.00, 0.00, 0.00, 0.00, 0.00, 12523.64, 0.00, 0.058, 0.528, 0.876, 18:24:49.937, 1551482689937
166, 0.00, 0.00, 0.00, 0.00, 0.00, 0.00, 12526.34, 0.00, 0.000, 0.000, 0.000, 18:24:49.937, 1551482689937
167, 0.00, 0.00, 0.00, 0.00, 0.00, 0.00, 12528.00, 0.00, 0.000, 0.000, 0.000, 18:24:49.942, 1551482689942
168, 0.00, 0.00, 0.00, 0.00, 0.00, 0.00, 12542.37, 0.00, 0.000, 0.000, 0.000, 18:24:49.942, 1551482689942
169, 0.00, 0.00, 0.00, 0.00, 0.00, 0.00, 12552.02, 0.00, 0.000, 0.000, 0.000, 18:24:49.947, 1551482689947
170, 0.00, 0.00, 0.00, 0.00, 0.00, 0.00, 12542.64, 0.00, 0.000, 0.000, 0.000, 18:24:49.948, 1551482689948
171, 0.00, 0.00, 0.00, 0.00, 0.00, 0.00, 12530.88, 0.00, 0.000, 0.000, 0.000, 18:24:49.955, 1551482689955
172, 0.00, 0.00, 0.00, 0.00, 0.00, 0.00, 12543.22, 0.00, 0.000, 0.000, 0.000, 18:24:49.955, 1551482689955
173, 0.00, 0.00, 0.00, 0.00, 0.00, 0.00, 12549.74, 0.00, 0.000, 0.000, 0.000, 18:24:49.963, 1551482689963
174, 0.00, 0.00, 0.00, 0.00, 0.00, 0.00, 12543.40, 0.00, 0.000, 0.000, 0.000, 18:24:49.963, 1551482689963
175, 0.00, 0.00, 0.00, 0.00, 0.00, 0.00, 12539.24, 0.00, 0.058, 0.526, 0.876, 18:24:49.971, 1551482689971
176, 0.00, 0.00, 0.00, 0.00, 0.00, 0.00, 12551.60, 0.00, 0.000, 0.000, 0.000, 18:24:49.971, 1551482689971
177, 0.00, 0.00, 0.00, 0.00, 0.00, 0.00, 12575.27, 0.00, 0.000, 0.000, 0.000, 18:24:49.978, 1551482689978
178, 0.00, 0.00, 0.00, 0.00, 0.00, 0.00, 12559.18, 0.00, 0.000, 0.000, 0.000, 18:24:49.978, 1551482689978
179, 0.00, 0.00, 0.00, 0.00, 0.00, 0.00, 12542.86, 0.00, 0.000, 0.000, 0.000, 18:24:49.984, 1551482689984
180, 0.00, 0.00, 0.00, 0.00, 0.00, 0.00, 12539.75, 0.00, 0.000, 0.000, 0.000, 18:24:49.992, 1551482689992
181, 0.00, 0.00, 0.00, 0.00, 0.00, 0.00, 12557.34, 0.00, 0.000, 0.000, 0.000, 18:24:49.993, 1551482689993
182, 0.00, 0.00, 0.00, 0.00, 0.00, 0.00, 12562.80, 0.00, 0.000, 0.000, 0.000, 18:24:50.000, 1551482690000
183, 0.00, 0.00, 0.00, 0.00, 0.00, 0.00, 12545.92, 0.00, 0.000, 0.000, 0.000, 18:24:50.001, 1551482690001
184, 0.00, 0.00, 0.00, 0.00, 0.00, 0.00, 12516.48, 0.00, 0.000, 0.000, 0.000, 18:24:50.007, 1551482690007
185, 0.00, 0.00, 0.00, 0.00, 0.00, 0.00, 12511.77, 0.00, 0.060, 0.522, 0.880, 18:24:50.007, 1551482690007
186, 0.00, 0.00, 0.00, 0.00, 0.00, 0.00, 12517.25, 0.00, 0.000, 0.000, 0.000, 18:24:50.015, 1551482690015
187, 0.00, 0.00, 0.00, 0.00, 0.00, 0.00, 12519.17, 0.00, 0.000, 0.000, 0.000, 18:24:50.015, 1551482690015
188, 0.00, 0.00, 0.00, 0.00, 0.00, 0.00, 12522.85, 0.00, 0.000, 0.000, 0.000, 18:24:50.023, 1551482690023
189, 0.00, 0.00, 0.00, 0.00, 0.00, 0.00, 12545.39, 0.00, 0.000, 0.000, 0.000, 18:24:50.023, 1551482690023
190, 0.00, 0.00, 0.00, 0.00, 0.00, 0.00, 12551.71, 0.00, 0.000, 0.000, 0.000, 18:24:50.030, 1551482690030
191, 0.00, 0.00, 0.00, 0.00, 0.00, 0.00, 12540.80, 0.00, 0.000, 0.000, 0.000, 18:24:50.030, 1551482690030
192, 0.00, 0.00, 0.00, 0.00, 0.00, 0.00, 12545.52, 0.00, 0.000, 0.000, 0.000, 18:24:50.038, 1551482690038
193, 0.00, 0.00, 0.00, 0.00, 0.00, 0.00, 12550.37, 0.00, 0.000, 0.000, 0.000, 18:24:50.039, 1551482690039
194, 0.00, 0.00, 0.00, 0.00, 0.00, 0.00, 12526.23, 0.00, 0.000, 0.000, 0.000, 18:24:50.045, 1551482690045
195, 0.00, 0.00, 0.00, 0.00, 0.00, 0.00, 12523.08, 0.00, 0.058, 0.526, 0.874, 18:24:50.053, 1551482690053
196, 0.00, 0.00, 0.00, 0.00, 0.00, 0.00, 12528.11, 0.00, 0.000, 0.000, 0.000, 18:24:50.053, 1551482690053
197, 0.00, 0.00, 0.00, 0.00, 0.00, 0.00, 12537.07, 0.00, 0.000, 0.000, 0.000, 18:24:50.059, 1551482690059
198, 0.00, 0.00, 0.00, 0.00, 0.00, 0.00, 12547.15, 0.00, 0.000, 0.000, 0.000, 18:24:50.060, 1551482690060
199, 0.00, 0.00, 0.00, 0.00, 0.00, 0.00, 12550.35, 0.00, 0.000, 0.000, 0.000, 18:24:50.067, 1551482690067
200, 0.00, 0.00, 0.00, 0.00, 0.00, 0.00, 12540.42, 0.00, 0.000, 0.000, 0.000, 18:24:50.067, 1551482690067
201, 0.00, 0.00, 0.00, 0.00, 0.00, 0.00, 12541.21, 0.00, 0.000, 0.000, 0.000, 18:24:50.076, 1551482690076
202, 0.00, 0.00, 0.00, 0.00, 0.00, 0.00, 12565.32, 0.00, 0.000, 0.000, 0.000, 18:24:50.076, 1551482690076
203, 0.00, 0.00, 0.00, 0.00, 0.00, 0.00, 12563.49, 0.00, 0.000, 0.000, 0.000, 18:24:50.083, 1551482690083
204, 0.00, 0.00, 0.00, 0.00, 0.00, 0.00, 12532.87, 0.00, 0.060, 0.530, 0.874, 18:24:50.083, 1551482690083
205, 0.00, 0.00, 0.00, 0.00, 0.00, 0.00, 12504.42, 0.00, 0.000, 0.000, 0.000, 18:24:50.090, 1551482690090
206, 0.00, 0.00, 0.00, 0.00, 0.00, 0.00, 12514.27, 0.00, 0.000, 0.000, 0.000, 18:24:50.090, 1551482690090
207, 0.00, 0.00, 0.00, 0.00, 0.00, 0.00, 12534.14, 0.00, 0.000, 0.000, 0.000, 18:24:50.098, 1551482690098
208, 0.00, 0.00, 0.00, 0.00, 0.00, 0.00, 12544.80, 0.00, 0.000, 0.000, 0.000, 18:24:50.098, 1551482690098
209, 0.00, 0.00, 0.00, 0.00, 0.00, 0.00, 12561.25, 0.00, 0.000, 0.000, 0.000, 18:24:50.105, 1551482690105
210, 0.00, 0.00, 0.00, 0.00, 0.00, 0.00, 12567.78, 0.00, 0.000, 0.000, 0.000, 18:24:50.112, 1551482690112
211, 0.00, 0.00, 0.00, 0.00, 0.00, 0.00, 12540.18, 0.00, 0.000, 0.000, 0.000, 18:24:50.112, 1551482690112
212, 0.00, 0.00, 0.00, 0.00, 0.00, 0.00, 12504.17, 0.00, 0.000, 0.000, 0.000, 18:24:50.120, 1551482690120
213, 0.00, 0.00, 0.00, 0.00, 0.00, 0.00, 12503.32, 0.00, 0.000, 0.000, 0.000, 18:24:50.120, 1551482690120
214, 0.00, 0.00, 0.00, 0.00, 0.00, 0.00, 12529.52, 0.00, 0.064, 0.526, 0.874, 18:24:50.128, 1551482690128
215, 0.00, 0.00, 0.00, 0.00, 0.00, 0.00, 12546.50, 0.00, 0.000, 0.000, 0.000, 18:24:50.128, 1551482690128
216, 0.00, 0.00, 0.00, 0.00, 0.00, 0.00, 12552.94, 0.00, 0.000, 0.000, 0.000, 18:24:50.136, 1551482690136
217, 0.00, 0.00, 0.00, 0.00, 0.00, 0.00, 12549.88, 0.00, 0.000, 0.000, 0.000, 18:24:50.136, 1551482690136
218, 0.00, 0.00, 0.00, 0.00, 0.00, 0.00, 12554.44, 0.00, 0.000, 0.000, 0.000, 18:24:50.142, 1551482690142
219, 0.00, 0.00, 0.00, 0.00, 0.00, 0.00, 12538.48, 0.00, 0.000, 0.000, 0.000, 18:24:50.143, 1551482690143
220, 0.00, 0.00, 0.00, 0.00, 0.00, 0.00, 12513.36, 0.00, 0.000, 0.000, 0.000, 18:24:50.151, 1551482690151
221, 0.00, 0.00, 0.00, 0.00, 0.00, 0.00, 12510.18, 0.00, 0.000, 0.000, 0.000, 18:24:50.151, 1551482690151
222, 0.00, 0.00, 0.00, 0.00, 0.00, 0.00, 12523.53, 0.00, 0.000, 0.000, 0.000, 18:24:50.158, 1551482690158
223, 0.00, 0.00, 0.00, 0.00, 0.00, 0.00, 12534.14, 0.00, 0.000, 0.000, 0.000, 18:24:50.158, 1551482690158
224, 0.00, 0.00, 0.00, 0.00, 0.00, 0.00, 12542.37, 0.00, 0.056, 0.524, 0.876, 18:24:50.166, 1551482690166
225, 0.00, 0.00, 0.00, 0.00, 0.00, 0.00, 12530.57, 0.00, 0.000, 0.000, 0.000, 18:24:50.172, 1551482690172
226, 0.00, 0.00, 0.00, 0.00, 0.00, 0.00, 12520.26, 0.00, 0.000, 0.000, 0.000, 18:24:50.172, 1551482690172
227, 0.00, 0.00, 0.00, 0.00, 0.00, 0.00, 12539.60, 0.00, 0.000, 0.000, 0.000, 18:24:50.180, 1551482690180
228, 0.00, 0.00, 0.00, 0.00, 0.00, 0.00, 12538.46, 0.00, 0.000, 0.000, 0.000, 18:24:50.180, 1551482690180
229, 0.00, 0.00, 0.00, 0.00, 0.00, 0.00, 12537.07, 0.00, 0.000, 0.000, 0.000, 18:24:50.188, 1551482690188
230, 0.00, 0.00, 0.00, 0.00, 0.00, 0.00, 12543.69, 0.00, 0.000, 0.000, 0.000, 18:24:50.189, 1551482690189
231, 0.00, 0.00, 0.00, 0.00, 0.00, 0.00, 12544.45, 0.00, 0.000, 0.000, 0.000, 18:24:50.194, 1551482690194
232, 0.00, 0.00, 0.00, 0.00, 0.00, 0.00, 12549.63, 0.00, 0.000, 0.000, 0.000, 18:24:50.195, 1551482690195
233, 0.00, 0.00, 0.00, 0.00, 0.00, 0.00, 12535.84, 0.00, 0.000, 0.000, 0.000, 18:24:50.203, 1551482690203
234, 0.00, 0.00, 0.00, 0.00, 0.00, 0.00, 12524.64, 0.00, 0.058, 0.526, 0.878, 18:24:50.203, 1551482690203
235, 0.00, 0.00, 0.00, 0.00, 0.00, 0.00, 12527.91, 0.00, 0.000, 0.000, 0.000, 18:24:50.211, 1551482690211
236, 0.00, 0.00, 0.00, 0.00, 0.00, 0.00, 12529.16, 0.00, 0.000, 0.000, 0.000, 18:24:50.211, 1551482690211
237, 0.00, 0.00, 0.00, 0.00, 0.00, 0.00, 12525.89, 0.00, 0.000, 0.000, 0.000, 18:24:50.218, 1551482690218
238, 0.00, 0.00, 0.00, 0.00, 0.00, 0.00, 12529.18, 0.00, 0.000, 0.000, 0.000, 18:24:50.218, 1551482690218
239, 0.00, 0.00, 0.00, 0.00, 0.00, 0.00, 12541.32, 0.00, 0.000, 0.000, 0.000, 18:24:50.224, 1551482690224
240, 0.00, 0.00, 0.00, 0.00, 0.00, 0.00, 12550.19, 0.00, 0.000, 0.000, 0.000, 18:24:50.224, 1551482690224
241, 0.00, 0.00, 0.00, 0.00, 0.00, 0.00, 12545.25, 0.00, 0.000, 0.000, 0.000, 18:24:50.232, 1551482690232
242, 0.00, 0.00, 0.00, 0.00, 0.00, 0.00, 12534.59, 0.00, 0.000, 0.000, 0.000, 18:24:50.240, 1551482690240
243, 0.00, 0.00, 0.00, 0.00, 0.00, 0.00, 12542.23, 0.00, 0.000, 0.000, 0.000, 18:24:50.240, 1551482690240
244, 0.00, 0.00, 0.00, 0.00, 0.00, 0.00, 12547.06, 0.00, 0.050, 0.526, 0.874, 18:24:50.247, 1551482690247
245, 0.00, 0.00, 0.00, 0.00, 0.00, 0.00, 12550.48, 0.00, 0.000, 0.000, 0.000, 18:24:50.247, 1551482690247
246, 0.00, 0.00, 0.00, 0.00, 0.00, 0.00, 12559.42, 0.00, 0.000, 0.000, 0.000, 18:24:50.255, 1551482690255
247, 0.00, 0.00, 0.00, 0.00, 0.00, 0.00, 12589.98, 0.00, 0.000, 0.000, 0.000, 18:24:50.255, 1551482690255
248, 0.00, 0.00, 0.00, 0.00, 0.00, 0.00, 12598.20, 0.00, 0.000, 0.000, 0.000, 18:24:50.263, 1551482690263
249, 0.00, 0.00, 0.00, 0.00, 0.00, 0.00, 12564.16, 0.00, 0.000, 0.000, 0.000, 18:24:50.263, 1551482690263
250, 0.00, 0.00, 0.00, 0.00, 0.00, 0.00, 12520.53, 0.00, 0.000, 0.000, 0.000, 18:24:50.271, 1551482690271
251, 0.00, 0.00, 0.00, 0.00, 0.00, 0.00, 12542.66, 0.00, 0.000, 0.000, 0.000, 18:24:50.271, 1551482690271
252, 0.00, 0.00, 0.00, 0.00, 0.00, 0.00, 12574.40, 0.00, 0.000, 0.000, 0.000, 18:24:50.277, 1551482690277
253, 0.00, 0.00, 0.00, 0.00, 0.00, 0.00, 12551.58, 0.00, 0.000, 0.000, 0.000, 18:24:50.278, 1551482690278
254, 0.00, 0.00, 0.00, 0.00, 0.00, 0.00, 12505.49, 0.00, 0.058, 0.524, 0.882, 18:24:50.286, 1551482690286
255, 0.00, 0.00, 0.00, 0.00, 0.00, 0.00, 12477.01, 0.00, 0.000, 0.000, 0.000, 18:24:50.286, 1551482690286
0, 0.00, 0.00, 0.00, 0.00, 0.00, 0.00, 12504.57, 0.00, 0.000, 0.000, 0.000, 18:24:50.292, 1551482690292
1, 0.00, 0.00, 0.00, 0.00, 0.00, 0.00, 12517.89, 0.00, 0.000, 0.000, 0.000, 18:24:50.300, 1551482690300
2, 0.00, 0.00, 0.00, 0.00, 0.00, 0.00, 12504.37, 0.00, 0.000, 0.000, 0.000, 18:24:50.301, 1551482690301
3, 0.00, 0.00, 0.00, 0.00, 0.00, 0.00, 12511.81, 0.00, 0.000, 0.000, 0.000, 18:24:50.309, 1551482690309
4, 0.00, 0.00, 0.00, 0.00, 0.00, 0.00, 12528.17, 0.00, 0.000, 0.000, 0.000, 18:24:50.309, 1551482690309
5, 0.00, 0.00, 0.00, 0.00, 0.00, 0.00, 12535.26, 0.00, 0.000, 0.000, 0.000, 18:24:50.315, 1551482690315
6, 0.00, 0.00, 0.00, 0.00, 0.00, 0.00, 12535.35, 0.00, 0.000, 0.000, 0.000, 18:24:50.315, 1551482690315
7, 0.00, 0.00, 0.00, 0.00, 0.00, 0.00, 12540.87, 0.00, 0.000, 0.000, 0.000, 18:24:50.323, 1551482690323
8, 0.00, 0.00, 0.00, 0.00, 0.00, 0.00, 12567.00, 0.00, 0.060, 0.520, 0.882, 18:24:50.323, 1551482690323
9, 0.00, 0.00, 0.00, 0.00, 0.00, 0.00, 12575.11, 0.00, 0.000, 0.000, 0.000, 18:24:50.330, 1551482690330
10, 0.00, 0.00, 0.00, 0.00, 0.00, 0.00, 12541.45, 0.00, 0.000, 0.000, 0.000, 18:24:50.331, 1551482690331
11, 0.00, 0.00, 0.00, 0.00, 0.00, 0.00, 12506.05, 0.00, 0.000, 0.000, 0.000, 18:24:50.338, 1551482690338
12, 0.00, 0.00, 0.00, 0.00, 0.00, 0.00, 12519.88, 0.00, 0.000, 0.000, 0.000, 18:24:50.339, 1551482690339
13, 0.00, 0.00, 0.00, 0.00, 0.00, 0.00, 12546.28, 0.00, 0.000, 0.000, 0.000, 18:24:50.346, 1551482690346
14, 0.00, 0.00, 0.00, 0.00, 0.00, 0.00, 12559.94, 0.00, 0.000, 0.000, 0.000, 18:24:50.347, 1551482690347
15, 0.00, 0.00, 0.00, 0.00, 0.00, 0.00, 12555.47, 0.00, 0.000, 0.000, 0.000, 18:24:50.352, 1551482690352
16, 0.00, 0.00, 0.00, 0.00, 0.00, 0.00, 12548.43, 0.00, 0.000, 0.000, 0.000, 18:24:50.362, 1551482690362
17, 0.00, 0.00, 0.00, 0.00, 0.00, 0.00, 12541.88, 0.00, 0.056, 0.520, 0.880, 18:24:50.363, 1551482690363
18, 0.00, 0.00, 0.00, 0.00, 0.00, 0.00, 12544.96, 0.00, 0.000, 0.000, 0.000, 18:24:50.368, 1551482690368
19, 0.00, 0.00, 0.00, 0.00, 0.00, 0.00, 12543.53, 0.00, 0.000, 0.000, 0.000, 18:24:50.368, 1551482690368
20, 0.00, 0.00, 0.00, 0.00, 0.00, 0.00, 12530.23, 0.00, 0.000, 0.000, 0.000, 18:24:50.375, 1551482690375
21, 0.00, 0.00, 0.00, 0.00, 0.00, 0.00, 12531.33, 0.00, 0.000, 0.000, 0.000, 18:24:50.375, 1551482690375
22, 0.00, 0.00, 0.00, 0.00, 0.00, 0.00, 12543.87, 0.00, 0.000, 0.000, 0.000, 18:24:50.383, 1551482690383
23, 0.00, 0.00, 0.00, 0.00, 0.00, 0.00, 12544.54, 0.00, 0.000, 0.000, 0.000, 18:24:50.383, 1551482690383
24, 0.00, 0.00, 0.00, 0.00, 0.00, 0.00, 12553.54, 0.00, 0.000, 0.000, 0.000, 18:24:50.391, 1551482690391
25, 0.00, 0.00, 0.00, 0.00, 0.00, 0.00, 12555.22, 0.00, 0.000, 0.000, 0.000, 18:24:50.391, 1551482690391
26, 0.00, 0.00, 0.00, 0.00, 0.00, 0.00, 12538.10, 0.00, 0.000, 0.000, 0.000, 18:24:50.398, 1551482690398
27, 0.00, 0.00, 0.00, 0.00, 0.00, 0.00, 12546.70, 0.00, 0.058, 0.528, 0.876, 18:24:50.398, 1551482690398
28, 0.00, 0.00, 0.00, 0.00, 0.00, 0.00, 12561.99, 0.00, 0.000, 0.000, 0.000, 18:24:50.405, 1551482690405
29, 0.00, 0.00, 0.00, 0.00, 0.00, 0.00, 12573.66, 0.00, 0.000, 0.000, 0.000, 18:24:50.406, 1551482690406
30, 0.00, 0.00, 0.00, 0.00, 0.00, 0.00, 12533.45, 0.00, 0.000, 0.000, 0.000, 18:24:50.412, 1551482690412
31, 0.00, 0.00, 0.00, 0.00, 0.00, 0.00, 12518.83, 0.00, 0.000, 0.000, 0.000, 18:24:50.421, 1551482690421
32, 0.00, 0.00, 0.00, 0.00, 0.00, 0.00, 12540.02, 0.00, 0.000, 0.000, 0.000, 18:24:50.421, 1551482690421
33, 0.00, 0.00, 0.00, 0.00, 0.00, 0.00, 12570.20, 0.00, 0.000, 0.000, 0.000, 18:24:50.427, 1551482690427
34, 0.00, 0.00, 0.00, 0.00, 0.00, 0.00, 12549.12, 0.00, 0.000, 0.000, 0.000, 18:24:50.427, 1551482690427
35, 0.00, 0.00, 0.00, 0.00, 0.00, 0.00, 12517.69, 0.00, 0.000, 0.000, 0.000, 18:24:50.435, 1551482690435
36, 0.00, 0.00, 0.00, 0.00, 0.00, 0.00, 12516.22, 0.00, 0.000, 0.000, 0.000, 18:24:50.435, 1551482690435
37, 0.00, 0.00, 0.00, 0.00, 0.00, 0.00, 12541.27, 0.00, 0.060, 0.528, 0.874, 18:24:50.443, 1551482690443
38, 0.00, 0.00, 0.00, 0.00, 0.00, 0.00, 12553.25, 0.00, 0.000, 0.000, 0.000, 18:24:50.443, 1551482690443
39, 0.00, 0.00, 0.00, 0.00, 0.00, 0.00, 12549.86, 0.00, 0.000, 0.000, 0.000, 18:24:50.453, 1551482690453
40, 0.00, 0.00, 0.00, 0.00, 0.00, 0.00, 12528.35, 0.00, 0.000, 0.000, 0.000, 18:24:50.454, 1551482690454
41, 0.00, 0.00, 0.00, 0.00, 0.00, 0.00, 12529.45, 0.00, 0.000, 0.000, 0.000, 18:24:50.458, 1551482690458
42, 0.00, 0.00, 0.00, 0.00, 0.00, 0.00, 12544.04, 0.00, 0.000, 0.000, 0.000, 18:24:50.458, 1551482690458
43, 0.00, 0.00, 0.00, 0.00, 0.00, 0.00, 12555.11, 0.00, 0.000, 0.000, 0.000, 18:24:50.466, 1551482690466
44, 0.00, 0.00, 0.00, 0.00, 0.00, 0.00, 12555.29, 0.00, 0.000, 0.000, 0.000, 18:24:50.466, 1551482690466
45, 0.00, 0.00, 0.00, 0.00, 0.00, 0.00, 12568.18, 0.00, 0.000, 0.000, 0.000, 18:24:50.473, 1551482690473
46, 0.00, 0.00, 0.00, 0.00, 0.00, 0.00, 12567.00, 0.00, 0.000, 0.000, 0.000, 18:24:50.473, 1551482690473
47, 0.00, 0.00, 0.00, 0.00, 0.00, 0.00, 12545.21, 0.00, 0.058, 0.526, 0.874, 18:24:50.480, 1551482690480
48, 0.00, 0.00, 0.00, 0.00, 0.00, 0.00, 12535.33, 0.00, 0.000, 0.000, 0.000, 18:24:50.487, 1551482690487
49, 0.00, 0.00, 0.00, 0.00, 0.00, 0.00, 12561.72, 0.00, 0.000, 0.000, 0.000, 18:24:50.487, 1551482690487
50, 0.00, 0.00, 0.00, 0.00, 0.00, 0.00, 12575.56, 0.00, 0.000, 0.000, 0.000, 18:24:50.497, 1551482690497
51, 0.00, 0.00, 0.00, 0.00, 0.00, 0.00, 12559.94, 0.00, 0.000, 0.000, 0.000, 18:24:50.497, 1551482690497
52, 0.00, 0.00, 0.00, 0.00, 0.00, 0.00, 12535.10, 0.00, 0.000, 0.000, 0.000, 18:24:50.504, 1551482690504
53, 0.00, 0.00, 0.00, 0.00, 0.00, 0.00, 12527.28, 0.00, 0.000, 0.000, 0.000, 18:24:50.504, 1551482690504
54, 0.00, 0.00, 0.00, 0.00, 0.00, 0.00, 12532.26, 0.00, 0.000, 0.000, 0.000, 18:24:50.510, 1551482690510
55, 0.00, 0.00, 0.00, 0.00, 0.00, 0.00, 12538.68, 0.00, 0.000, 0.000, 0.000, 18:24:50.510, 1551482690510
56, 0.00, 0.00, 0.00, 0.00, 0.00, 0.00, 12532.31, 0.00, 0.000, 0.000, 0.000, 18:24:50.518, 1551482690518
57, 0.00, 0.00, 0.00, 0.00, 0.00, 0.00, 12531.46, 0.00, 0.052, 0.526, 0.872, 18:24:50.518, 1551482690518
58, 0.00, 0.00, 0.00, 0.00, 0.00, 0.00, 12546.26, 0.00, 0.000, 0.000, 0.000, 18:24:50.526, 1551482690526
59, 0.00, 0.00, 0.00, 0.00, 0.00, 0.00, 12554.84, 0.00, 0.000, 0.000, 0.000, 18:24:50.526, 1551482690526
60, 0.00, 0.00, 0.00, 0.00, 0.00, 0.00, 12549.07, 0.00, 0.000, 0.000, 0.000, 18:24:50.533, 1551482690533
61, 0.00, 0.00, 0.00, 0.00, 0.00, 0.00, 12544.87, 0.00, 0.000, 0.000, 0.000, 18:24:50.533, 1551482690533
62, 0.00, 0.00, 0.00, 0.00, 0.00, 0.00, 12560.88, 0.00, 0.000, 0.000, 0.000, 18:24:50.540, 1551482690540
63, 0.00, 0.00, 0.00, 0.00, 0.00, 0.00, 12575.00, 0.00, 0.000, 0.000, 0.000, 18:24:50.547, 1551482690547
64, 0.00, 0.00, 0.00, 0.00, 0.00, 0.00, 12567.11, 0.00, 0.000, 0.000, 0.000, 18:24:50.548, 1551482690548
65, 0.00, 0.00, 0.00, 0.00, 0.00, 0.00, 12564.76, 0.00, 0.000, 0.000, 0.000, 18:24:50.556, 1551482690556
66, 0.00, 0.00, 0.00, 0.00, 0.00, 0.00, 12568.63, 0.00, 0.000, 0.000, 0.000, 18:24:50.556, 1551482690556
67, 0.00, 0.00, 0.00, 0.00, 0.00, 0.00, 12579.99, 0.00, 0.062, 0.526, 0.868, 18:24:50.562, 1551482690562
68, 0.00, 0.00, 0.00, 0.00, 0.00, 0.00, 12577.01, 0.00, 0.000, 0.000, 0.000, 18:24:50.562, 1551482690562
69, 0.00, 0.00, 0.00, 0.00, 0.00, 0.00, 12582.87, 0.00, 0.000, 0.000, 0.000, 18:24:50.570, 1551482690570
70, 0.00, 0.00, 0.00, 0.00, 0.00, 0.00, 12570.31, 0.00, 0.000, 0.000, 0.000, 18:24:50.570, 1551482690570
71, 0.00, 0.00, 0.00, 0.00, 0.00, 0.00, 12567.67, 0.00, 0.000, 0.000, 0.000, 18:24:50.579, 1551482690579
72, 0.00, 0.00, 0.00, 0.00, 0.00, 0.00, 12550.48, 0.00, 0.000, 0.000, 0.000, 18:24:50.579, 1551482690579
73, 0.00, 0.00, 0.00, 0.00, 0.00, 0.00, 12529.81, 0.00, 0.000, 0.000, 0.000, 18:24:50.585, 1551482690585
74, 0.00, 0.00, 0.00, 0.00, 0.00, 0.00, 12508.77, 0.00, 0.000, 0.000, 0.000, 18:24:50.586, 1551482690586
75, 0.00, 0.00, 0.00, 0.00, 0.00, 0.00, 12522.70, 0.00, 0.000, 0.000, 0.000, 18:24:50.593, 1551482690593
76, 0.00, 0.00, 0.00, 0.00, 0.00, 0.00, 12526.99, 0.00, 0.060, 0.530, 0.868, 18:24:50.593, 1551482690593
77, 0.00, 0.00, 0.00, 0.00, 0.00, 0.00, 12525.34, 0.00, 0.000, 0.000, 0.000, 18:24:50.600, 1551482690600
78, 0.00, 0.00, 0.00, 0.00, 0.00, 0.00, 12527.84, 0.00, 0.000, 0.000, 0.000, 18:24:50.608, 1551482690608
79, 0.00, 0.00, 0.00, 0.00, 0.00, 0.00, 12546.21, 0.00, 0.000, 0.000, 0.000, 18:24:50.608, 1551482690608
80, 0.00, 0.00, 0.00, 0.00, 0.00, 0.00, 12556.41, 0.00, 0.000, 0.000, 0.000, 18:24:50.615, 1551482690615
81, 0.00, 0.00, 0.00, 0.00, 0.00, 0.00, 12551.78, 0.00, 0.000, 0.000, 0.000, 18:24:50.615, 1551482690615
82, 0.00, 0.00, 0.00, 0.00, 0.00, 0.00, 12549.68, 0.00, 0.000, 0.000, 0.000, 18:24:50.622, 1551482690622
83, 0.00, 0.00, 0.00, 0.00, 0.00, 0.00, 12562.37, 0.00, 0.000, 0.000, 0.000, 18:24:50.623, 1551482690623
84, 0.00, 0.00, 0.00, 0.00, 0.00, 0.00, 12564.38, 0.00, 0.000, 0.000, 0.000, 18:24:50.630, 1551482690630
85, 0.00, 0.00, 0.00, 0.00, 0.00, 0.00, 12556.09, 0.00, 0.000, 0.000, 0.000, 18:24:50.630, 1551482690630
86, 0.00, 0.00, 0.00, 0.00, 0.00, 0.00, 12539.66, 0.00, 0.056, 0.528, 0.870, 18:24:50.638, 1551482690638
87, 0.00, 0.00, 0.00, 0.00, 0.00, 0.00, 12547.80, 0.00, 0.000, 0.000, 0.000, 18:24:50.639, 1551482690639
88, 0.00, 0.00, 0.00, 0.00, 0.00, 0.00, 12562.24, 0.00, 0.000, 0.000, 0.000, 18:24:50.645, 1551482690645
89, 0.00, 0.00, 0.00, 0.00, 0.00, 0.00, 12558.86, 0.00, 0.000, 0.000, 0.000, 18:24:50.645, 1551482690645
90, 0.00, 0.00, 0.00, 0.00, 0.00, 0.00, 12567.31, 0.00, 0.000, 0.000, 0.000, 18:24:50.653, 1551482690653
91, 0.00, 0.00, 0.00, 0.00, 0.00, 0.00, 12582.38, 0.00, 0.000, 0.000, 0.000, 18:24:50.653, 1551482690653
92, 0.00, 0.00, 0.00, 0.00, 0.00, 0.00, 12578.15, 0.00, 0.000, 0.000, 0.000, 18:24:50.660, 1551482690660
93, 0.00, 0.00, 0.00, 0.00, 0.00, 0.00, 12568.07, 0.00, 0.000, 0.000, 0.000, 18:24:50.668, 1551482690668
94, 0.00, 0.00, 0.00, 0.00, 0.00, 0.00, 12556.63, 0.00, 0.000, 0.000, 0.000, 18:24:50.668, 1551482690668
95, 0.00, 0.00, 0.00, 0.00, 0.00, 0.00, 12555.58, 0.00, 0.000, 0.000, 0.000, 18:24:50.675, 1551482690675
96, 0.00, 0.00, 0.00, 0.00, 0.00, 0.00, 12570.64, 0.00, 0.052, 0.530, 0.868, 18:24:50.675, 1551482690675
97, 0.00, 0.00, 0.00, 0.00, 0.00, 0.00, 12559.94, 0.00, 0.000, 0.000, 0.000, 18:24:50.683, 1551482690683
98, 0.00, 0.00, 0.00, 0.00, 0.00, 0.00, 12546.39, 0.00, 0.000, 0.000, 0.000, 18:24:50.683, 1551482690683
99, 0.00, 0.00, 0.00, 0.00, 0.00, 0.00, 12535.17, 0.00, 0.000, 0.000, 0.000, 18:24:50.691, 1551482690691
100, 0.00, 0.00, 0.00, 0.00, 0.00, 0.00, 12532.00, 0.00, 0.000, 0.000, 0.000, 18:24:50.691, 1551482690691
101, 0.00, 0.00, 0.00, 0.00, 0.00, 0.00, 12516.60, 0.00, 0.000, 0.000, 0.000, 18:24:50.698, 1551482690698
102, 0.00, 0.00, 0.00, 0.00, 0.00, 0.00, 12517.78, 0.00, 0.000, 0.000, 0.000, 18:24:50.698, 1551482690698
103, 0.00, 0.00, 0.00, 0.00, 0.00, 0.00, 12521.07, 0.00, 0.000, 0.000, 0.000, 18:24:50.705, 1551482690705
104, 0.00, 0.00, 0.00, 0.00, 0.00, 0.00, 12534.05, 0.00, 0.000, 0.000, 0.000, 18:24:50.705, 1551482690705
105, 0.00, 0.00, 0.00, 0.00, 0.00, 0.00, 12552.05, 0.00, 0.000, 0.000, 0.000, 18:24:50.713, 1551482690713
106, 0.00, 0.00, 0.00, 0.00, 0.00, 0.00, 12547.67, 0.00, 0.052, 0.530, 0.872, 18:24:50.713, 1551482690713
107, 0.00, 0.00, 0.00, 0.00, 0.00, 0.00, 12533.70, 0.00, 0.000, 0.000, 0.000, 18:24:50.720, 1551482690720
108, 0.00, 0.00, 0.00, 0.00, 0.00, 0.00, 12539.95, 0.00, 0.000, 0.000, 0.000, 18:24:50.721, 1551482690721
109, 0.00, 0.00, 0.00, 0.00, 0.00, 0.00, 12546.12, 0.00, 0.000, 0.000, 0.000, 18:24:50.728, 1551482690728
110, 0.00, 0.00, 0.00, 0.00, 0.00, 0.00, 12541.54, 0.00, 0.000, 0.000, 0.000, 18:24:50.735, 1551482690735
111, 0.00, 0.00, 0.00, 0.00, 0.00, 0.00, 12537.43, 0.00, 0.000, 0.000, 0.000, 18:24:50.735, 1551482690735
112, 0.00, 0.00, 0.00, 0.00, 0.00, 0.00, 12550.12, 0.00, 0.000, 0.000, 0.000, 18:24:50.743, 1551482690743
113, 0.00, 0.00, 0.00, 0.00, 0.00, 0.00, 12566.31, 0.00, 0.000, 0.000, 0.000, 18:24:50.743, 1551482690743
114, 0.00, 0.00, 0.00, 0.00, 0.00, 0.00, 12574.96, 0.00, 0.000, 0.000, 0.000, 18:24:50.750, 1551482690750
115, 0.00, 0.00, 0.00, 0.00, 0.00, 0.00, 12578.89, 0.00, 0.000, 0.000, 0.000, 18:24:50.750, 1551482690750
116, 0.00, 0.00, 0.00, 0.00, 0.00, 0.00, 12571.81, 0.00, 0.054, 0.532, 0.874, 18:24:50.757, 1551482690757
117, 0.00, 0.00, 0.00, 0.00, 0.00, 0.00, 12554.37, 0.00, 0.000, 0.000, 0.000, 18:24:50.758, 1551482690758
118, 0.00, 0.00, 0.00, 0.00, 0.00, 0.00, 12546.79, 0.00, 0.000, 0.000, 0.000, 18:24:50.765, 1551482690765
119, 0.00, 0.00, 0.00, 0.00, 0.00, 0.00, 12540.33, 0.00, 0.000, 0.000, 0.000, 18:24:50.766, 1551482690766
120, 0.00, 0.00, 0.00, 0.00, 0.00, 0.00, 12538.64, 0.00, 0.000, 0.000, 0.000, 18:24:50.774, 1551482690774
121, 0.00, 0.00, 0.00, 0.00, 0.00, 0.00, 12552.43, 0.00, 0.000, 0.000, 0.000, 18:24:50.774, 1551482690774
122, 0.00, 0.00, 0.00, 0.00, 0.00, 0.00, 12554.21, 0.00, 0.000, 0.000, 0.000, 18:24:50.780, 1551482690780
123, 0.00, 0.00, 0.00, 0.00, 0.00, 0.00, 12541.07, 0.00, 0.000, 0.000, 0.000, 18:24:50.780, 1551482690780
124, 0.00, 0.00, 0.00, 0.00, 0.00, 0.00, 12520.58, 0.00, 0.000, 0.000, 0.000, 18:24:50.787, 1551482690787
125, 0.00, 0.00, 0.00, 0.00, 0.00, 0.00, 12534.41, 0.00, 0.000, 0.000, 0.000, 18:24:50.795, 1551482690795
126, 0.00, 0.00, 0.00, 0.00, 0.00, 0.00, 12548.34, 0.00, 0.058, 0.528, 0.870, 18:24:50.796, 1551482690796
127, 0.00, 0.00, 0.00, 0.00, 0.00, 0.00, 12545.72, 0.00, 0.000, 0.000, 0.000, 18:24:50.803, 1551482690803
128, 0.00, 0.00, 0.00, 0.00, 0.00, 0.00, 12533.47, 0.00, 0.000, 0.000, 0.000, 18:24:50.803, 1551482690803
129, 0.00, 0.00, 0.00, 0.00, 0.00, 0.00, 12539.06, 0.00, 0.000, 0.000, 0.000, 18:24:50.810, 1551482690810
130, 0.00, 0.00, 0.00, 0.00, 0.00, 0.00, 12546.08, 0.00, 0.000, 0.000, 0.000, 18:24:50.811, 1551482690811
131, 0.00, 0.00, 0.00, 0.00, 0.00, 0.00, 12539.75, 0.00, 0.000, 0.000, 0.000, 18:24:50.818, 1551482690818
132, 0.00, 0.00, 0.00, 0.00, 0.00, 0.00, 12525.38, 0.00, 0.000, 0.000, 0.000, 18:24:50.818, 1551482690818
133, 0.00, 0.00, 0.00, 0.00, 0.00, 0.00, 12543.75, 0.00, 0.000, 0.000, 0.000, 18:24:50.826, 1551482690826
134, 0.00, 0.00, 0.00, 0.00, 0.00, 0.00, 12561.30, 0.00, 0.000, 0.000, 0.000, 18:24:50.826, 1551482690826
135, 0.00, 0.00, 0.00, 0.00, 0.00, 0.00, 12566.80, 0.00, 0.056, 0.530, 0.870, 18:24:50.833, 1551482690833
136, 0.00, 0.00, 0.00, 0.00, 0.00, 0.00, 12565.70, 0.00, 0.000, 0.000, 0.000, 18:24:50.833, 1551482690833
137, 0.00, 0.00, 0.00, 0.00, 0.00, 0.00, 12557.90, 0.00, 0.000, 0.000, 0.000, 18:24:50.840, 1551482690840
138, 0.00, 0.00, 0.00, 0.00, 0.00, 0.00, 12543.82, 0.00, 0.000, 0.000, 0.000, 18:24:50.840, 1551482690840
139, 0.00, 0.00, 0.00, 0.00, 0.00, 0.00, 12536.04, 0.00, 0.000, 0.000, 0.000, 18:24:50.847, 1551482690847
140, 0.00, 0.00, 0.00, 0.00, 0.00, 0.00, 12534.48, 0.00, 0.000, 0.000, 0.000, 18:24:50.856, 1551482690856
141, 0.00, 0.00, 0.00, 0.00, 0.00, 0.00, 12540.13, 0.00, 0.000, 0.000, 0.000, 18:24:50.856, 1551482690856
142, 0.00, 0.00, 0.00, 0.00, 0.00, 0.00, 12551.04, 0.00, 0.000, 0.000, 0.000, 18:24:50.863, 1551482690863
143, 0.00, 0.00, 0.00, 0.00, 0.00, 0.00, 12537.07, 0.00, 0.000, 0.000, 0.000, 18:24:50.863, 1551482690863
144, 0.00, 0.00, 0.00, 0.00, 0.00, 0.00, 12518.97, 0.00, 0.000, 0.000, 0.000, 18:24:50.870, 1551482690870
145, 0.00, 0.00, 0.00, 0.00, 0.00, 0.00, 12524.22, 0.00, 0.058, 0.532, 0.872, 18:24:50.870, 1551482690870
146, 0.00, 0.00, 0.00, 0.00, 0.00, 0.00, 12540.02, 0.00, 0.000, 0.000, 0.000, 18:24:50.879, 1551482690879
147, 0.00, 0.00, 0.00, 0.00, 0.00, 0.00, 12545.01, 0.00, 0.000, 0.000, 0.000, 18:24:50.879, 1551482690879
148, 0.00, 0.00, 0.00, 0.00, 0.00, 0.00, 12541.54, 0.00, 0.000, 0.000, 0.000, 18:24:50.885, 1551482690885
149, 0.00, 0.00, 0.00, 0.00, 0.00, 0.00, 12541.29, 0.00, 0.000, 0.000, 0.000, 18:24:50.886, 1551482690886
150, 0.00, 0.00, 0.00, 0.00, 0.00, 0.00, 12533.25, 0.00, 0.000, 0.000, 0.000, 18:24:50.893, 1551482690893
151, 0.00, 0.00, 0.00, 0.00, 0.00, 0.00, 12538.93, 0.00, 0.000, 0.000, 0.000, 18:24:50.893, 1551482690893
152, 0.00, 0.00, 0.00, 0.00, 0.00, 0.00, 12543.26, 0.00, 0.000, 0.000, 0.000, 18:24:50.902, 1551482690902
153, 0.00, 0.00, 0.00, 0.00, 0.00, 0.00, 12537.72, 0.00, 0.000, 0.000, 0.000, 18:24:50.902, 1551482690902
154, 0.00, 0.00, 0.00, 0.00, 0.00, 0.00, 12541.52, 0.00, 0.000, 0.000, 0.000, 18:24:50.908, 1551482690908
155, 0.00, 0.00, 0.00, 0.00, 0.00, 0.00, 12545.12, 0.00, 0.058, 0.530, 0.866, 18:24:50.915, 1551482690915
156, 0.00, 0.00, 0.00, 0.00, 0.00, 0.00, 12542.99, 0.00, 0.000, 0.000, 0.000, 18:24:50.915, 1551482690915
157, 0.00, 0.00, 0.00, 0.00, 0.00, 0.00, 12525.72, 0.00, 0.000, 0.000, 0.000, 18:24:50.922, 1551482690922
158, 0.00, 0.00, 0.00, 0.00, 0.00, 0.00, 12512.37, 0.00, 0.000, 0.000, 0.000, 18:24:50.923, 1551482690923
159, 0.00, 0.00, 0.00, 0.00, 0.00, 0.00, 12527.97, 0.00, 0.000, 0.000, 0.000, 18:24:50.930, 1551482690930
160, 0.00, 0.00, 0.00, 0.00, 0.00, 0.00, 12524.82, 0.00, 0.000, 0.000, 0.000, 18:24:50.931, 1551482690931
161, 0.00, 0.00, 0.00, 0.00, 0.00, 0.00, 12519.86, 0.00, 0.000, 0.000, 0.000, 18:24:50.938, 1551482690938
162, 0.00, 0.00, 0.00, 0.00, 0.00, 0.00, 12530.25, 0.00, 0.000, 0.000, 0.000, 18:24:50.939, 1551482690939
163, 0.00, 0.00, 0.00, 0.00, 0.00, 0.00, 12558.35, 0.00, 0.000, 0.000, 0.000, 18:24:50.945, 1551482690945
164, 0.00, 0.00, 0.00, 0.00, 0.00, 0.00, 12565.17, 0.00, 0.000, 0.000, 0.000, 18:24:50.946, 1551482690946
165, 0.00, 0.00, 0.00, 0.00, 0.00, 0.00, 12536.11, 0.00, 0.054, 0.530, 0.870, 18:24:50.953, 1551482690953
166, 0.00, 0.00, 0.00, 0.00, 0.00, 0.00, 12530.32, 0.00, 0.000, 0.000, 0.000, 18:24:50.953, 1551482690953
167, 0.00, 0.00, 0.00, 0.00, 0.00, 0.00, 12541.34, 0.00, 0.000, 0.000, 0.000, 18:24:50.961, 1551482690961
168, 0.00, 0.00, 0.00, 0.00, 0.00, 0.00, 12555.40, 0.00, 0.000, 0.000, 0.000, 18:24:50.961, 1551482690961
169, 0.00, 0.00, 0.00, 0.00, 0.00, 0.00, 12569.08, 0.00, 0.000, 0.000, 0.000, 18:24:50.981, 1551482690981
170, 0.00, 0.00, 0.00, 0.00, 0.00, 0.00, 12561.86, 0.00, 0.000, 0.000, 0.000, 18:24:50.981, 1551482690981
171, 0.00, 0.00, 0.00, 0.00, 0.00, 0.00, 12557.63, 0.00, 0.000, 0.000, 0.000, 18:24:50.981, 1551482690981
172, 0.00, 0.00, 0.00, 0.00, 0.00, 0.00, 12538.30, 0.00, 0.000, 0.000, 0.000, 18:24:50.983, 1551482690983
173, 0.00, 0.00, 0.00, 0.00, 0.00, 0.00, 12516.35, 0.00, 0.000, 0.000, 0.000, 18:24:50.983, 1551482690983
174, 0.00, 0.00, 0.00, 0.00, 0.00, 0.00, 12514.03, 0.00, 0.000, 0.000, 0.000, 18:24:50.991, 1551482690991
175, 0.00, 0.00, 0.00, 0.00, 0.00, 0.00, 12513.27, 0.00, 0.054, 0.526, 0.874, 18:24:50.991, 1551482690991
176, 0.00, 0.00, 0.00, 0.00, 0.00, 0.00, 12501.46, 0.00, 0.000, 0.000, 0.000, 18:24:50.997, 1551482690997
177, 0.00, 0.00, 0.00, 0.00, 0.00, 0.00, 12492.08, 0.00, 0.000, 0.000, 0.000, 18:24:50.998, 1551482690998
178, 0.00, 0.00, 0.00, 0.00, 0.00, 0.00, 12500.86, 0.00, 0.000, 0.000, 0.000, 18:24:51.005, 1551482691005
179, 0.00, 0.00, 0.00, 0.00, 0.00, 0.00, 12520.08, 0.00, 0.000, 0.000, 0.000, 18:24:51.006, 1551482691006
180, 0.00, 0.00, 0.00, 0.00, 0.00, 0.00, 12528.24, 0.00, 0.000, 0.000, 0.000, 18:24:51.014, 1551482691014
181, 0.00, 0.00, 0.00, 0.00, 0.00, 0.00, 12522.43, 0.00, 0.000, 0.000, 0.000, 18:24:51.014, 1551482691014
182, 0.00, 0.00, 0.00, 0.00, 0.00, 0.00, 12520.87, 0.00, 0.000, 0.000, 0.000, 18:24:51.021, 1551482691021
183, 0.00, 0.00, 0.00, 0.00, 0.00, 0.00, 12532.22, 0.00, 0.000, 0.000, 0.000, 18:24:51.021, 1551482691021
184, 0.00, 0.00, 0.00, 0.00, 0.00, 0.00, 12546.91, 0.00, 0.000, 0.000, 0.000, 18:24:51.028, 1551482691028
185, 0.00, 0.00, 0.00, 0.00, 0.00, 0.00, 12547.84, 0.00, 0.056, 0.528, 0.872, 18:24:51.028, 1551482691028
186, 0.00, 0.00, 0.00, 0.00, 0.00, 0.00, 12544.96, 0.00, 0.000, 0.000, 0.000, 18:24:51.035, 1551482691035
187, 0.00, 0.00, 0.00, 0.00, 0.00, 0.00, 12541.59, 0.00, 0.000, 0.000, 0.000, 18:24:51.043, 1551482691043
188, 0.00, 0.00, 0.00, 0.00, 0.00, 0.00, 12541.59, 0.00, 0.000, 0.000, 0.000, 18:24:51.043, 1551482691043
189, 0.00, 0.00, 0.00, 0.00, 0.00, 0.00, 12536.06, 0.00, 0.000, 0.000, 0.000, 18:24:51.053, 1551482691053
190, 0.00, 0.00, 0.00, 0.00, 0.00, 0.00, 12555.15, 0.00, 0.000, 0.000, 0.000, 18:24:51.054, 1551482691054
191, 0.00, 0.00, 0.00, 0.00, 0.00, 0.00, 12558.08, 0.00, 0.000, 0.000, 0.000, 18:24:51.058, 1551482691058
192, 0.00, 0.00, 0.00, 0.00, 0.00, 0.00, 12558.24, 0.00, 0.000, 0.000, 0.000, 18:24:51.058, 1551482691058
193, 0.00, 0.00, 0.00, 0.00, 0.00, 0.00, 12532.58, 0.00, 0.000, 0.000, 0.000, 18:24:51.065, 1551482691065
194, 0.00, 0.00, 0.00, 0.00, 0.00, 0.00, 12513.27, 0.00, 0.000, 0.000, 0.000, 18:24:51.066, 1551482691066
195, 0.00, 0.00, 0.00, 0.00, 0.00, 0.00, 12514.05, 0.00, 0.060, 0.526, 0.872, 18:24:51.082, 1551482691082
196, 0.00, 0.00, 0.00, 0.00, 0.00, 0.00, 12513.94, 0.00, 0.000, 0.000, 0.000, 18:24:51.083, 1551482691083
197, 0.00, 0.00, 0.00, 0.00, 0.00, 0.00, 12505.08, 0.00, 0.000, 0.000, 0.000, 18:24:51.083, 1551482691083
198, 0.00, 0.00, 0.00, 0.00, 0.00, 0.00, 12476.99, 0.00, 0.000, 0.000, 0.000, 18:24:51.083, 1551482691083
199, 0.00, 0.00, 0.00, 0.00, 0.00, 0.00, 12475.36, 0.00, 0.000, 0.000, 0.000, 18:24:51.089, 1551482691089
200, 0.00, 0.00, 0.00, 0.00, 0.00, 0.00, 12502.54, 0.00, 0.000, 0.000, 0.000, 18:24:51.089, 1551482691089
201, 0.00, 0.00, 0.00, 0.00, 0.00, 0.00, 12518.34, 0.00, 0.000, 0.000, 0.000, 18:24:51.097, 1551482691097
202, 0.00, 0.00, 0.00, 0.00, 0.00, 0.00, 12515.57, 0.00, 0.000, 0.000, 0.000, 18:24:51.103, 1551482691103
203, 0.00, 0.00, 0.00, 0.00, 0.00, 0.00, 12515.21, 0.00, 0.000, 0.000, 0.000, 18:24:51.103, 1551482691103
204, 0.00, 0.00, 0.00, 0.00, 0.00, 0.00, 12522.03, 0.00, 0.054, 0.530, 0.874, 18:24:51.110, 1551482691110
205, 0.00, 0.00, 0.00, 0.00, 0.00, 0.00, 12525.13, 0.00, 0.000, 0.000, 0.000, 18:24:51.110, 1551482691110
206, 0.00, 0.00, 0.00, 0.00, 0.00, 0.00, 12521.76, 0.00, 0.000, 0.000, 0.000, 18:24:51.118, 1551482691118
207, 0.00, 0.00, 0.00, 0.00, 0.00, 0.00, 12522.59, 0.00, 0.000, 0.000, 0.000, 18:24:51.118, 1551482691118
208, 0.00, 0.00, 0.00, 0.00, 0.00, 0.00, 12526.19, 0.00, 0.000, 0.000, 0.000, 18:24:51.126, 1551482691126
209, 0.00, 0.00, 0.00, 0.00, 0.00, 0.00, 12524.64, 0.00, 0.000, 0.000, 0.000, 18:24:51.126, 1551482691126
210, 0.00, 0.00, 0.00, 0.00, 0.00, 0.00, 12531.24, 0.00, 0.000, 0.000, 0.000, 18:24:51.133, 1551482691133
211, 0.00, 0.00, 0.00, 0.00, 0.00, 0.00, 12545.39, 0.00, 0.000, 0.000, 0.000, 18:24:51.133, 1551482691133
212, 0.00, 0.00, 0.00, 0.00, 0.00, 0.00, 12555.20, 0.00, 0.000, 0.000, 0.000, 18:24:51.140, 1551482691140
213, 0.00, 0.00, 0.00, 0.00, 0.00, 0.00, 12562.51, 0.00, 0.000, 0.000, 0.000, 18:24:51.141, 1551482691141
214, 0.00, 0.00, 0.00, 0.00, 0.00, 0.00, 12556.45, 0.00, 0.058, 0.534, 0.872, 18:24:51.149, 1551482691149
215, 0.00, 0.00, 0.00, 0.00, 0.00, 0.00, 12536.47, 0.00, 0.000, 0.000, 0.000, 18:24:51.149, 1551482691149
216, 0.00, 0.00, 0.00, 0.00, 0.00, 0.00, 12515.66, 0.00, 0.000, 0.000, 0.000, 18:24:51.155, 1551482691155
217, 0.00, 0.00, 0.00, 0.00, 0.00, 0.00, 12504.66, 0.00, 0.000, 0.000, 0.000, 18:24:51.162, 1551482691162
218, 0.00, 0.00, 0.00, 0.00, 0.00, 0.00, 12476.05, 0.00, 0.000, 0.000, 0.000, 18:24:51.162, 1551482691162
219, 0.00, 0.00, 0.00, 0.00, 0.00, 0.00, 12472.03, 0.00, 0.000, 0.000, 0.000, 18:24:51.171, 1551482691171
220, 0.00, 0.00, 0.00, 0.00, 0.00, 0.00, 12477.57, 0.00, 0.000, 0.000, 0.000, 18:24:51.171, 1551482691171
221, 0.00, 0.00, 0.00, 0.00, 0.00, 0.00, 12503.43, 0.00, 0.000, 0.000, 0.000, 18:24:51.178, 1551482691178
222, 0.00, 0.00, 0.00, 0.00, 0.00, 0.00, 12503.32, 0.00, 0.000, 0.000, 0.000, 18:24:51.178, 1551482691178
223, 0.00, 0.00, 0.00, 0.00, 0.00, 0.00, 12492.37, 0.00, 0.000, 0.000, 0.000, 18:24:51.185, 1551482691185
224, 0.00, 0.00, 0.00, 0.00, 0.00, 0.00, 12499.30, 0.00, 0.064, 0.528, 0.868, 18:24:51.185, 1551482691185
225, 0.00, 0.00, 0.00, 0.00, 0.00, 0.00, 12521.98, 0.00, 0.000, 0.000, 0.000, 18:24:51.194, 1551482691194
226, 0.00, 0.00, 0.00, 0.00, 0.00, 0.00, 12517.94, 0.00, 0.000, 0.000, 0.000, 18:24:51.195, 1551482691195
227, 0.00, 0.00, 0.00, 0.00, 0.00, 0.00, 12504.17, 0.00, 0.000, 0.000, 0.000, 18:24:51.201, 1551482691201
228, 0.00, 0.00, 0.00, 0.00, 0.00, 0.00, 12502.76, 0.00, 0.000, 0.000, 0.000, 18:24:51.201, 1551482691201
229, 0.00, 0.00, 0.00, 0.00, 0.00, 0.00, 12513.53, 0.00, 0.000, 0.000, 0.000, 18:24:51.209, 1551482691209
230, 0.00, 0.00, 0.00, 0.00, 0.00, 0.00, 12521.51, 0.00, 0.000, 0.000, 0.000, 18:24:51.209, 1551482691209
231, 0.00, 0.00, 0.00, 0.00, 0.00, 0.00, 12514.67, 0.00, 0.000, 0.000, 0.000, 18:24:51.215, 1551482691215
232, 0.00, 0.00, 0.00, 0.00, 0.00, 0.00, 12516.02, 0.00, 0.000, 0.000, 0.000, 18:24:51.216, 1551482691216
233, 0.00, 0.00, 0.00, 0.00, 0.00, 0.00, 12525.67, 0.00, 0.000, 0.000, 0.000, 18:24:51.222, 1551482691222
234, 0.00, 0.00, 0.00, 0.00, 0.00, 0.00, 12543.98, 0.00, 0.060, 0.528, 0.872, 18:24:51.231, 1551482691231
235, 0.00, 0.00, 0.00, 0.00, 0.00, 0.00, 12542.59, 0.00, 0.000, 0.000, 0.000, 18:24:51.231, 1551482691231
236, 0.00, 0.00, 0.00, 0.00, 0.00, 0.00, 12534.48, 0.00, 0.000, 0.000, 0.000, 18:24:51.237, 1551482691237
237, 0.00, 0.00, 0.00, 0.00, 0.00, 0.00, 12526.77, 0.00, 0.000, 0.000, 0.000, 18:24:51.237, 1551482691237
238, 0.00, 0.00, 0.00, 0.00, 0.00, 0.00, 12540.13, 0.00, 0.000, 0.000, 0.000, 18:24:51.247, 1551482691247
239, 0.00, 0.00, 0.00, 0.00, 0.00, 0.00, 12533.14, 0.00, 0.000, 0.000, 0.000, 18:24:51.248, 1551482691248
240, 0.00, 0.00, 0.00, 0.00, 0.00, 0.00, 12504.44, 0.00, 0.000, 0.000, 0.000, 18:24:51.253, 1551482691253
241, 0.00, 0.00, 0.00, 0.00, 0.00, 0.00, 12502.89, 0.00, 0.000, 0.000, 0.000, 18:24:51.253, 1551482691253
242, 0.00, 0.00, 0.00, 0.00, 0.00, 0.00, 12503.92, 0.00, 0.000, 0.000, 0.000, 18:24:51.261, 1551482691261
243, 0.00, 0.00, 0.00, 0.00, 0.00, 0.00, 12466.01, 0.00, 0.000, 0.000, 0.000, 18:24:51.261, 1551482691261
244, 0.00, 0.00, 0.00, 0.00, 0.00, 0.00, 12452.16, 0.00, 0.062, 0.526, 0.872, 18:24:51.268, 1551482691268
245, 0.00, 0.00, 0.00, 0.00, 0.00, 0.00, 12462.28, 0.00, 0.000, 0.000, 0.000, 18:24:51.268, 1551482691268
246, 0.00, 0.00, 0.00, 0.00, 0.00, 0.00, 12491.92, 0.00, 0.000, 0.000, 0.000, 18:24:51.276, 1551482691276
247, 0.00, 0.00, 0.00, 0.00, 0.00, 0.00, 12504.46, 0.00, 0.000, 0.000, 0.000, 18:24:51.277, 1551482691277
248, 0.00, 0.00, 0.00, 0.00, 0.00, 0.00, 12504.66, 0.00, 0.000, 0.000, 0.000, 18:24:51.283, 1551482691283
249, 0.00, 0.00, 0.00, 0.00, 0.00, 0.00, 12502.43, 0.00, 0.000, 0.000, 0.000, 18:24:51.291, 1551482691291
250, 0.00, 0.00, 0.00, 0.00, 0.00, 0.00, 12508.59, 0.00, 0.000, 0.000, 0.000, 18:24:51.291, 1551482691291
251, 0.00, 0.00, 0.00, 0.00, 0.00, 0.00, 12512.13, 0.00, 0.000, 0.000, 0.000, 18:24:51.297, 1551482691297
252, 0.00, 0.00, 0.00, 0.00, 0.00, 0.00, 12505.91, 0.00, 0.000, 0.000, 0.000, 18:24:51.297, 1551482691297
253, 0.00, 0.00, 0.00, 0.00, 0.00, 0.00, 12498.29, 0.00, 0.000, 0.000, 0.000, 18:24:51.305, 1551482691305
254, 0.00, 0.00, 0.00, 0.00, 0.00, 0.00, 12509.56, 0.00, 0.058, 0.526, 0.868, 18:24:51.306, 1551482691306
255, 0.00, 0.00, 0.00, 0.00, 0.00, 0.00, 12523.08, 0.00, 0.000, 0.000, 0.000, 18:24:51.313, 1551482691313
0, 0.00, 0.00, 0.00, 0.00, 0.00, 0.00, 12521.94, 0.00, 0.000, 0.000, 0.000, 18:24:51.313, 1551482691313
1, 0.00, 0.00, 0.00, 0.00, 0.00, 0.00, 12514.09, 0.00, 0.000, 0.000, 0.000, 18:24:51.320, 1551482691320
2, 0.00, 0.00, 0.00, 0.00, 0.00, 0.00, 12522.97, 0.00, 0.000, 0.000, 0.000, 18:24:51.321, 1551482691321
3, 0.00, 0.00, 0.00, 0.00, 0.00, 0.00, 12535.98, 0.00, 0.000, 0.000, 0.000, 18:24:51.328, 1551482691328
4, 0.00, 0.00, 0.00, 0.00, 0.00, 0.00, 12529.78, 0.00, 0.000, 0.000, 0.000, 18:24:51.328, 1551482691328
5, 0.00, 0.00, 0.00, 0.00, 0.00, 0.00, 12514.05, 0.00, 0.000, 0.000, 0.000, 18:24:51.336, 1551482691336
6, 0.00, 0.00, 0.00, 0.00, 0.00, 0.00, 12496.17, 0.00, 0.000, 0.000, 0.000, 18:24:51.336, 1551482691336
7, 0.00, 0.00, 0.00, 0.00, 0.00, 0.00, 12513.24, 0.00, 0.054, 0.530, 0.872, 18:24:51.343, 1551482691343
8, 0.00, 0.00, 0.00, 0.00, 0.00, 0.00, 12524.60, 0.00, 0.000, 0.000, 0.000, 18:24:51.350, 1551482691350
9, 0.00, 0.00, 0.00, 0.00, 0.00, 0.00, 12515.77, 0.00, 0.000, 0.000, 0.000, 18:24:51.350, 1551482691350
10, 0.00, 0.00, 0.00, 0.00, 0.00, 0.00, 12499.39, 0.00, 0.000, 0.000, 0.000, 18:24:51.358, 1551482691358
11, 0.00, 0.00, 0.00, 0.00, 0.00, 0.00, 12498.74, 0.00, 0.000, 0.000, 0.000, 18:24:51.358, 1551482691358
12, 0.00, 0.00, 0.00, 0.00, 0.00, 0.00, 12473.73, 0.00, 0.000, 0.000, 0.000, 18:24:51.366, 1551482691366
13, 0.00, 0.00, 0.00, 0.00, 0.00, 0.00, 12473.97, 0.00, 0.000, 0.000, 0.000, 18:24:51.367, 1551482691367
14, 0.00, 0.00, 0.00, 0.00, 0.00, 0.00, 12480.52, 0.00, 0.000, 0.000, 0.000, 18:24:51.374, 1551482691374
15, 0.00, 0.00, 0.00, 0.00, 0.00, 0.00, 12492.97, 0.00, 0.000, 0.000, 0.000, 18:24:51.374, 1551482691374
16, 0.00, 0.00, 0.00, 0.00, 0.00, 0.00, 12515.19, 0.00, 0.000, 0.000, 0.000, 18:24:51.380, 1551482691380
17, 0.00, 0.00, 0.00, 0.00, 0.00, 0.00, 12518.90, 0.00, 0.054, 0.526, 0.874, 18:24:51.380, 1551482691380
18, 0.00, 0.00, 0.00, 0.00, 0.00, 0.00, 12507.88, 0.00, 0.000, 0.000, 0.000, 18:24:51.388, 1551482691388
19, 0.00, 0.00, 0.00, 0.00, 0.00, 0.00, 12503.72, 0.00, 0.000, 0.000, 0.000, 18:24:51.388, 1551482691388
20, 0.00, 0.00, 0.00, 0.00, 0.00, 0.00, 12496.55, 0.00, 0.000, 0.000, 0.000, 18:24:51.396, 1551482691396
21, 0.00, 0.00, 0.00, 0.00, 0.00, 0.00, 12487.87, 0.00, 0.000, 0.000, 0.000, 18:24:51.396, 1551482691396
22, 0.00, 0.00, 0.00, 0.00, 0.00, 0.00, 12480.92, 0.00, 0.000, 0.000, 0.000, 18:24:51.402, 1551482691402
23, 0.00, 0.00, 0.00, 0.00, 0.00, 0.00, 12491.67, 0.00, 0.000, 0.000, 0.000, 18:24:51.410, 1551482691410
24, 0.00, 0.00, 0.00, 0.00, 0.00, 0.00, 12508.01, 0.00, 0.000, 0.000, 0.000, 18:24:51.410, 1551482691410
25, 0.00, 0.00, 0.00, 0.00, 0.00, 0.00, 12510.03, 0.00, 0.000, 0.000, 0.000, 18:24:51.418, 1551482691418
26, 0.00, 0.00, 0.00, 0.00, 0.00, 0.00, 12505.89, 0.00, 0.000, 0.000, 0.000, 18:24:51.419, 1551482691419
27, 0.00, 0.00, 0.00, 0.00, 0.00, 0.00, 12508.42, 0.00, 0.060, 0.526, 0.876, 18:24:51.426, 1551482691426
28, 0.00, 0.00, 0.00, 0.00, 0.00, 0.00, 12519.21, 0.00, 0.000, 0.000, 0.000, 18:24:51.427, 1551482691427
29, 0.00, 0.00, 0.00, 0.00, 0.00, 0.00, 12504.79, 0.00, 0.000, 0.000, 0.000, 18:24:51.433, 1551482691433
30, 0.00, 0.00, 0.00, 0.00, 0.00, 0.00, 12496.70, 0.00, 0.000, 0.000, 0.000, 18:24:51.433, 1551482691433
31, 0.00, 0.00, 0.00, 0.00, 0.00, 0.00, 12499.63, 0.00, 0.000, 0.000, 0.000, 18:24:51.441, 1551482691441
32, 0.00, 0.00, 0.00, 0.00, 0.00, 0.00, 12500.06, 0.00, 0.000, 0.000, 0.000, 18:24:51.441, 1551482691441
33, 0.00, 0.00, 0.00, 0.00, 0.00, 0.00, 12494.92, 0.00, 0.000, 0.000, 0.000, 18:24:51.448, 1551482691448
34, 0.00, 0.00, 0.00, 0.00, 0.00, 0.00, 12495.81, 0.00, 0.000, 0.000, 0.000, 18:24:51.449, 1551482691449
35, 0.00, 0.00, 0.00, 0.00, 0.00, 0.00, 12493.53, 0.00, 0.000, 0.000, 0.000, 18:24:51.456, 1551482691456
36, 0.00, 0.00, 0.00, 0.00, 0.00, 0.00, 12499.83, 0.00, 0.000, 0.000, 0.000, 18:24:51.456, 1551482691456
37, 0.00, 0.00, 0.00, 0.00, 0.00, 0.00, 12494.20, 0.00, 0.058, 0.526, 0.876, 18:24:51.463, 1551482691463
38, 0.00, 0.00, 0.00, 0.00, 0.00, 0.00, 12483.25, 0.00, 0.000, 0.000, 0.000, 18:24:51.464, 1551482691464
39, 0.00, 0.00, 0.00, 0.00, 0.00, 0.00, 12490.80, 0.00, 0.000, 0.000, 0.000, 18:24:51.470, 1551482691470
40, 0.00, 0.00, 0.00, 0.00, 0.00, 0.00, 12503.97, 0.00, 0.000, 0.000, 0.000, 18:24:51.478, 1551482691478
41, 0.00, 0.00, 0.00, 0.00, 0.00, 0.00, 12511.61, 0.00, 0.000, 0.000, 0.000, 18:24:51.479, 1551482691479
42, 0.00, 0.00, 0.00, 0.00, 0.00, 0.00, 12502.40, 0.00, 0.000, 0.000, 0.000, 18:24:51.485, 1551482691485
43, 0.00, 0.00, 0.00, 0.00, 0.00, 0.00, 12497.15, 0.00, 0.000, 0.000, 0.000, 18:24:51.485, 1551482691485
44, 0.00, 0.00, 0.00, 0.00, 0.00, 0.00, 12503.83, 0.00, 0.000, 0.000, 0.000, 18:24:51.493, 1551482691493
45, 0.00, 0.00, 0.00, 0.00, 0.00, 0.00, 12510.81, 0.00, 0.000, 0.000, 0.000, 18:24:51.493, 1551482691493
46, 0.00, 0.00, 0.00, 0.00, 0.00, 0.00, 12505.93, 0.00, 0.000, 0.000, 0.000, 18:24:51.501, 1551482691501
47, 0.00, 0.00, 0.00, 0.00, 0.00, 0.00, 12518.76, 0.00, 0.058, 0.524, 0.878, 18:24:51.501, 1551482691501
48, 0.00, 0.00, 0.00, 0.00, 0.00, 0.00, 12524.22, 0.00, 0.000, 0.000, 0.000, 18:24:51.508, 1551482691508
49, 0.00, 0.00, 0.00, 0.00, 0.00, 0.00, 12526.72, 0.00, 0.000, 0.000, 0.000, 18:24:51.508, 1551482691508
50, 0.00, 0.00, 0.00, 0.00, 0.00, 0.00, 12495.88, 0.00, 0.000, 0.000, 0.000, 18:24:51.515, 1551482691515
51, 0.00, 0.00, 0.00, 0.00, 0.00, 0.00, 12485.71, 0.00, 0.000, 0.000, 0.000, 18:24:51.515, 1551482691515
52, 0.00, 0.00, 0.00, 0.00, 0.00, 0.00, 12499.97, 0.00, 0.000, 0.000, 0.000, 18:24:51.523, 1551482691523
53, 0.00, 0.00, 0.00, 0.00, 0.00, 0.00, 12506.47, 0.00, 0.000, 0.000, 0.000, 18:24:51.524, 1551482691524
54, 0.00, 0.00, 0.00, 0.00, 0.00, 0.00, 12500.50, 0.00, 0.000, 0.000, 0.000, 18:24:51.530, 1551482691530
55, 0.00, 0.00, 0.00, 0.00, 0.00, 0.00, 12482.55, 0.00, 0.000, 0.000, 0.000, 18:24:51.537, 1551482691537
56, 0.00, 0.00, 0.00, 0.00, 0.00, 0.00, 12477.48, 0.00, 0.000, 0.000, 0.000, 18:24:51.538, 1551482691538
57, 0.00, 0.00, 0.00, 0.00, 0.00, 0.00, 12486.82, 0.00, 0.056, 0.528, 0.876, 18:24:51.545, 1551482691545
58, 0.00, 0.00, 0.00, 0.00, 0.00, 0.00, 12485.73, 0.00, 0.000, 0.000, 0.000, 18:24:51.545, 1551482691545
59, 0.00, 0.00, 0.00, 0.00, 0.00, 0.00, 12478.98, 0.00, 0.000, 0.000, 0.000, 18:24:51.553, 1551482691553
60, 0.00, 0.00, 0.00, 0.00, 0.00, 0.00, 12490.11, 0.00, 0.000, 0.000, 0.000, 18:24:51.553, 1551482691553
61, 0.00, 0.00, 0.00, 0.00, 0.00, 0.00, 12509.49, 0.00, 0.000, 0.000, 0.000, 18:24:51.561, 1551482691561
62, 0.00, 0.00, 0.00, 0.00, 0.00, 0.00, 12515.66, 0.00, 0.000, 0.000, 0.000, 18:24:51.561, 1551482691561
63, 0.00, 0.00, 0.00, 0.00, 0.00, 0.00, 12502.31, 0.00, 0.000, 0.000, 0.000, 18:24:51.568, 1551482691568
64, 0.00, 0.00, 0.00, 0.00, 0.00, 0.00, 12488.61, 0.00, 0.000, 0.000, 0.000, 18:24:51.568, 1551482691568
65, 0.00, 0.00, 0.00, 0.00, 0.00, 0.00, 12491.58, 0.00, 0.000, 0.000, 0.000, 18:24:51.576, 1551482691576
66, 0.00, 0.00, 0.00, 0.00, 0.00, 0.00, 12488.01, 0.00, 0.000, 0.000, 0.000, 18:24:51.576, 1551482691576
67, 0.00, 0.00, 0.00, 0.00, 0.00, 0.00, 12493.64, 0.00, 0.056, 0.526, 0.874, 18:24:51.584, 1551482691584
68, 0.00, 0.00, 0.00, 0.00, 0.00, 0.00, 12494.22, 0.00, 0.000, 0.000, 0.000, 18:24:51.584, 1551482691584
69, 0.00, 0.00, 0.00, 0.00, 0.00, 0.00, 12511.81, 0.00, 0.000, 0.000, 0.000, 18:24:51.590, 1551482691590
70, 0.00, 0.00, 0.00, 0.00, 0.00, 0.00, 12500.97, 0.00, 0.000, 0.000, 0.000, 18:24:51.597, 1551482691597
71, 0.00, 0.00, 0.00, 0.00, 0.00, 0.00, 12464.14, 0.00, 0.000, 0.000, 0.000, 18:24:51.597, 1551482691597
72, 0.00, 0.00, 0.00, 0.00, 0.00, 0.00, 12452.83, 0.00, 0.000, 0.000, 0.000, 18:24:51.605, 1551482691605
73, 0.00, 0.00, 0.00, 0.00, 0.00, 0.00, 12472.27, 0.00, 0.000, 0.000, 0.000, 18:24:51.606, 1551482691606
74, 0.00, 0.00, 0.00, 0.00, 0.00, 0.00, 12494.04, 0.00, 0.000, 0.000, 0.000, 18:24:51.613, 1551482691613
75, 0.00, 0.00, 0.00, 0.00, 0.00, 0.00, 12494.96, 0.00, 0.000, 0.000, 0.000, 18:24:51.613, 1551482691613
76, 0.00, 0.00, 0.00, 0.00, 0.00, 0.00, 12491.63, 0.00, 0.054, 0.520, 0.878, 18:24:51.621, 1551482691621
77, 0.00, 0.00, 0.00, 0.00, 0.00, 0.00, 12493.46, 0.00, 0.000, 0.000, 0.000, 18:24:51.621, 1551482691621
78, 0.00, 0.00, 0.00, 0.00, 0.00, 0.00, 12498.89, 0.00, 0.000, 0.000, 0.000, 18:24:51.628, 1551482691628
79, 0.00, 0.00, 0.00, 0.00, 0.00, 0.00, 12492.57, 0.00, 0.000, 0.000, 0.000, 18:24:51.628, 1551482691628
80, 0.00, 0.00, 0.00, 0.00, 0.00, 0.00, 12492.41, 0.00, 0.000, 0.000, 0.000, 18:24:51.636, 1551482691636
81, 0.00, 0.00, 0.00, 0.00, 0.00, 0.00, 12503.43, 0.00, 0.000, 0.000, 0.000, 18:24:51.636, 1551482691636
82, 0.00, 0.00, 0.00, 0.00, 0.00, 0.00, 12532.67, 0.00, 0.000, 0.000, 0.000, 18:24:51.643, 1551482691643
83, 0.00, 0.00, 0.00, 0.00, 0.00, 0.00, 12556.94, 0.00, 0.000, 0.000, 0.000, 18:24:51.643, 1551482691643
84, 0.00, 0.00, 0.00, 0.00, 0.00, 0.00, 12542.95, 0.00, 0.000, 0.000, 0.000, 18:24:51.650, 1551482691650
85, 0.00, 0.00, 0.00, 0.00, 0.00, 0.00, 12523.12, 0.00, 0.000, 0.000, 0.000, 18:24:51.658, 1551482691658
86, 0.00, 0.00, 0.00, 0.00, 0.00, 0.00, 12503.48, 0.00, 0.058, 0.524, 0.876, 18:24:51.659, 1551482691659
87, 0.00, 0.00, 0.00, 0.00, 0.00, 0.00, 12487.38, 0.00, 0.000, 0.000, 0.000, 18:24:51.666, 1551482691666
88, 0.00, 0.00, 0.00, 0.00, 0.00, 0.00, 12453.45, 0.00, 0.000, 0.000, 0.000, 18:24:51.666, 1551482691666
89, 0.00, 0.00, 0.00, 0.00, 0.00, 0.00, 12424.95, 0.00, 0.000, 0.000, 0.000, 18:24:51.673, 1551482691673
90, 0.00, 0.00, 0.00, 0.00, 0.00, 0.00, 12419.66, 0.00, 0.000, 0.000, 0.000, 18:24:51.673, 1551482691673
91, 0.00, 0.00, 0.00, 0.00, 0.00, 0.00, 12443.30, 0.00, 0.000, 0.000, 0.000, 18:24:51.680, 1551482691680
92, 0.00, 0.00, 0.00, 0.00, 0.00, 0.00, 12458.26, 0.00, 0.000, 0.000, 0.000, 18:24:51.680, 1551482691680
93, 0.00, 0.00, 0.00, 0.00, 0.00, 0.00, 12458.93, 0.00, 0.000, 0.000, 0.000, 18:24:51.688, 1551482691688
94, 0.00, 0.00, 0.00, 0.00, 0.00, 0.00, 12477.55, 0.00, 0.000, 0.000, 0.000, 18:24:51.689, 1551482691689
95, 0.00, 0.00, 0.00, 0.00, 0.00, 0.00, 12489.53, 0.00, 0.000, 0.000, 0.000, 18:24:51.696, 1551482691696
96, 0.00, 0.00, 0.00, 0.00, 0.00, 0.00, 12485.71, 0.00, 0.062, 0.526, 0.876, 18:24:51.696, 1551482691696
97, 0.00, 0.00, 0.00, 0.00, 0.00, 0.00, 12476.94, 0.00, 0.000, 0.000, 0.000, 18:24:51.703, 1551482691703
98, 0.00, 0.00, 0.00, 0.00, 0.00, 0.00, 12480.61, 0.00, 0.000, 0.000, 0.000, 18:24:51.703, 1551482691703
99, 0.00, 0.00, 0.00, 0.00, 0.00, 0.00, 12489.75, 0.00, 0.000, 0.000, 0.000, 18:24:51.711, 1551482691711
100, 0.00, 0.00, 0.00, 0.00, 0.00, 0.00, 12501.69, 0.00, 0.000, 0.000, 0.000, 18:24:51.711, 1551482691711
101, 0.00, 0.00, 0.00, 0.00, 0.00, 0.00, 12520.60, 0.00, 0.000, 0.000, 0.000, 18:24:51.718, 1551482691718
102, 0.00, 0.00, 0.00, 0.00, 0.00, 0.00, 12526.61, 0.00, 0.000, 0.000, 0.000, 18:24:51.726, 1551482691726
103, 0.00, 0.00, 0.00, 0.00, 0.00, 0.00, 12515.86, 0.00, 0.000, 0.000, 0.000, 18:24:51.726, 1551482691726
104, 0.00, 0.00, 0.00, 0.00, 0.00, 0.00, 12483.92, 0.00, 0.000, 0.000, 0.000, 18:24:51.732, 1551482691732
105, 0.00, 0.00, 0.00, 0.00, 0.00, 0.00, 12456.11, 0.00, 0.000, 0.000, 0.000, 18:24:51.733, 1551482691733
106, 0.00, 0.00, 0.00, 0.00, 0.00, 0.00, 12454.91, 0.00, 0.064, 0.530, 0.872, 18:24:51.741, 1551482691741
107, 0.00, 0.00, 0.00, 0.00, 0.00, 0.00, 12479.05, 0.00, 0.000, 0.000, 0.000, 18:24:51.741, 1551482691741
108, 0.00, 0.00, 0.00, 0.00, 0.00, 0.00, 12496.50, 0.00, 0.000, 0.000, 0.000, 18:24:51.748, 1551482691748
109, 0.00, 0.00, 0.00, 0.00, 0.00, 0.00, 12492.34, 0.00, 0.000, 0.000, 0.000, 18:24:51.749, 1551482691749
110, 0.00, 0.00, 0.00, 0.00, 0.00, 0.00, 12477.66, 0.00, 0.000, 0.000, 0.000, 18:24:51.756, 1551482691756
111, 0.00, 0.00, 0.00, 0.00, 0.00, 0.00, 12476.14, 0.00, 0.000, 0.000, 0.000, 18:24:51.756, 1551482691756
112, 0.00, 0.00, 0.00, 0.00, 0.00, 0.00, 12481.86, 0.00, 0.000, 0.000, 0.000, 18:24:51.763, 1551482691763
113, 0.00, 0.00, 0.00, 0.00, 0.00, 0.00, 12455.08, 0.00, 0.000, 0.000, 0.000, 18:24:51.763, 1551482691763
114, 0.00, 0.00, 0.00, 0.00, 0.00, 0.00, 12448.11, 0.00, 0.000, 0.000, 0.000, 18:24:51.771, 1551482691771
115, 0.00, 0.00, 0.00, 0.00, 0.00, 0.00, 12469.50, 0.00, 0.000, 0.000, 0.000, 18:24:51.771, 1551482691771
116, 0.00, 0.00, 0.00, 0.00, 0.00, 0.00, 12482.06, 0.00, 0.064, 0.532, 0.870, 18:24:51.779, 1551482691779
117, 0.00, 0.00, 0.00, 0.00, 0.00, 0.00, 12483.74, 0.00, 0.000, 0.000, 0.000, 18:24:51.785, 1551482691785
118, 0.00, 0.00, 0.00, 0.00, 0.00, 0.00, 12481.06, 0.00, 0.000, 0.000, 0.000, 18:24:51.785, 1551482691785
119, 0.00, 0.00, 0.00, 0.00, 0.00, 0.00, 12483.96, 0.00, 0.000, 0.000, 0.000, 18:24:51.793, 1551482691793
120, 0.00, 0.00, 0.00, 0.00, 0.00, 0.00, 12490.91, 0.00, 0.000, 0.000, 0.000, 18:24:51.793, 1551482691793
121, 0.00, 0.00, 0.00, 0.00, 0.00, 0.00, 12498.96, 0.00, 0.000, 0.000, 0.000, 18:24:51.801, 1551482691801
122, 0.00, 0.00, 0.00, 0.00, 0.00, 0.00, 12499.77, 0.00, 0.000, 0.000, 0.000, 18:24:51.801, 1551482691801
123, 0.00, 0.00, 0.00, 0.00, 0.00, 0.00, 12504.86, 0.00, 0.000, 0.000, 0.000, 18:24:51.808, 1551482691808
124, 0.00, 0.00, 0.00, 0.00, 0.00, 0.00, 12510.34, 0.00, 0.000, 0.000, 0.000, 18:24:51.808, 1551482691808
125, 0.00, 0.00, 0.00, 0.00, 0.00, 0.00, 12508.28, 0.00, 0.000, 0.000, 0.000, 18:24:51.815, 1551482691815
126, 0.00, 0.00, 0.00, 0.00, 0.00, 0.00, 12504.37, 0.00, 0.058, 0.528, 0.872, 18:24:51.816, 1551482691816
127, 0.00, 0.00, 0.00, 0.00, 0.00, 0.00, 12511.48, 0.00, 0.000, 0.000, 0.000, 18:24:51.823, 1551482691823
128, 0.00, 0.00, 0.00, 0.00, 0.00, 0.00, 12483.43, 0.00, 0.000, 0.000, 0.000, 18:24:51.824, 1551482691824
129, 0.00, 0.00, 0.00, 0.00, 0.00, 0.00, 12439.89, 0.00, 0.000, 0.000, 0.000, 18:24:51.832, 1551482691832
130, 0.00, 0.00, 0.00, 0.00, 0.00, 0.00, 12426.76, 0.00, 0.000, 0.000, 0.000, 18:24:51.832, 1551482691832
131, 0.00, 0.00, 0.00, 0.00, 0.00, 0.00, 12454.24, 0.00, 0.000, 0.000, 0.000, 18:24:51.837, 1551482691837
132, 0.00, 0.00, 0.00, 0.00, 0.00, 0.00, 12486.89, 0.00, 0.000, 0.000, 0.000, 18:24:51.845, 1551482691845
133, 0.00, 0.00, 0.00, 0.00, 0.00, 0.00, 12482.47, 0.00, 0.000, 0.000, 0.000, 18:24:51.846, 1551482691846
134, 0.00, 0.00, 0.00, 0.00, 0.00, 0.00, 12458.95, 0.00, 0.000, 0.000, 0.000, 18:24:51.853, 1551482691853
135, 0.00, 0.00, 0.00, 0.00, 0.00, 0.00, 12456.05, 0.00, 0.054, 0.528, 0.876, 18:24:51.853, 1551482691853
136, 0.00, 0.00, 0.00, 0.00, 0.00, 0.00, 12461.30, 0.00, 0.000, 0.000, 0.000, 18:24:51.861, 1551482691861
137, 0.00, 0.00, 0.00, 0.00, 0.00, 0.00, 12469.55, 0.00, 0.000, 0.000, 0.000, 18:24:51.861, 1551482691861
138, 0.00, 0.00, 0.00, 0.00, 0.00, 0.00, 12476.36, 0.00, 0.000, 0.000, 0.000, 18:24:51.868, 1551482691868
139, 0.00, 0.00, 0.00, 0.00, 0.00, 0.00, 12472.27, 0.00, 0.000, 0.000, 0.000, 18:24:51.868, 1551482691868
140, 0.00, 0.00, 0.00, 0.00, 0.00, 0.00, 12481.53, 0.00, 0.000, 0.000, 0.000, 18:24:51.876, 1551482691876
141, 0.00, 0.00, 0.00, 0.00, 0.00, 0.00, 12485.80, 0.00, 0.000, 0.000, 0.000, 18:24:51.876, 1551482691876
142, 0.00, 0.00, 0.00, 0.00, 0.00, 0.00, 12489.33, 0.00, 0.000, 0.000, 0.000, 18:24:51.884, 1551482691884
143, 0.00, 0.00, 0.00, 0.00, 0.00, 0.00, 12494.69, 0.00, 0.000, 0.000, 0.000, 18:24:51.884, 1551482691884
144, 0.00, 0.00, 0.00, 0.00, 0.00, 0.00, 12500.62, 0.00, 0.000, 0.000, 0.000, 18:24:51.891, 1551482691891
145, 0.00, 0.00, 0.00, 0.00, 0.00, 0.00, 12496.08, 0.00, 0.054, 0.530, 0.870, 18:24:51.892, 1551482691892
146, 0.00, 0.00, 0.00, 0.00, 0.00, 0.00, 12470.26, 0.00, 0.000, 0.000, 0.000, 18:24:51.897, 1551482691897
147, 0.00, 0.00, 0.00, 0.00, 0.00, 0.00, 12465.84, 0.00, 0.000, 0.000, 0.000, 18:24:51.905, 1551482691905
148, 0.00, 0.00, 0.00, 0.00, 0.00, 0.00, 12493.02, 0.00, 0.000, 0.000, 0.000, 18:24:51.906, 1551482691906
149, 0.00, 0.00, 0.00, 0.00, 0.00, 0.00, 12501.20, 0.00, 0.000, 0.000, 0.000, 18:24:51.913, 1551482691913
150, 0.00, 0.00, 0.00, 0.00, 0.00, 0.00, 12460.74, 0.00, 0.000, 0.000, 0.000, 18:24:51.913, 1551482691913
151, 0.00, 0.00, 0.00, 0.00, 0.00, 0.00, 12429.27, 0.00, 0.000, 0.000, 0.000, 18:24:51.920, 1551482691920
152, 0.00, 0.00, 0.00, 0.00, 0.00, 0.00, 12433.56, 0.00, 0.000, 0.000, 0.000, 18:24:51.920, 1551482691920
153, 0.00, 0.00, 0.00, 0.00, 0.00, 0.00, 12463.47, 0.00, 0.000, 0.000, 0.000, 18:24:51.929, 1551482691929
154, 0.00, 0.00, 0.00, 0.00, 0.00, 0.00, 12467.04, 0.00, 0.000, 0.000, 0.000, 18:24:51.929, 1551482691929
155, 0.00, 0.00, 0.00, 0.00, 0.00, 0.00, 12452.58, 0.00, 0.060, 0.526, 0.868, 18:24:51.936, 1551482691936
156, 0.00, 0.00, 0.00, 0.00, 0.00, 0.00, 12456.09, 0.00, 0.000, 0.000, 0.000, 18:24:51.936, 1551482691936
157, 0.00, 0.00, 0.00, 0.00, 0.00, 0.00, 12478.78, 0.00, 0.000, 0.000, 0.000, 18:24:51.943, 1551482691943
158, 0.00, 0.00, 0.00, 0.00, 0.00, 0.00, 12481.30, 0.00, 0.000, 0.000, 0.000, 18:24:51.943, 1551482691943
159, 0.00, 0.00, 0.00, 0.00, 0.00, 0.00, 12473.17, 0.00, 0.000, 0.000, 0.000, 18:24:51.951, 1551482691951
160, 0.00, 0.00, 0.00, 0.00, 0.00, 0.00, 12465.54, 0.00, 0.000, 0.000, 0.000, 18:24:51.951, 1551482691951
161, 0.00, 0.00, 0.00, 0.00, 0.00, 0.00, 12480.36, 0.00, 0.000, 0.000, 0.000, 18:24:51.958, 1551482691958
162, 0.00, 0.00, 0.00, 0.00, 0.00, 0.00, 12508.73, 0.00, 0.000, 0.000, 0.000, 18:24:51.958, 1551482691958
163, 0.00, 0.00, 0.00, 0.00, 0.00, 0.00, 12529.99, 0.00, 0.000, 0.000, 0.000, 18:24:51.966, 1551482691966
164, 0.00, 0.00, 0.00, 0.00, 0.00, 0.00, 12503.36, 0.00, 0.000, 0.000, 0.000, 18:24:51.973, 1551482691973
165, 0.00, 0.00, 0.00, 0.00, 0.00, 0.00, 12475.47, 0.00, 0.062, 0.526, 0.866, 18:24:51.973, 1551482691973
166, 0.00, 0.00, 0.00, 0.00, 0.00, 0.00, 12461.46, 0.00, 0.000, 0.000, 0.000, 18:24:51.980, 1551482691980
167, 0.00, 0.00, 0.00, 0.00, 0.00, 0.00, 12469.39, 0.00, 0.000, 0.000, 0.000, 18:24:51.980, 1551482691980
168, 0.00, 0.00, 0.00, 0.00, 0.00, 0.00, 12444.47, 0.00, 0.000, 0.000, 0.000, 18:24:51.988, 1551482691988
169, 0.00, 0.00, 0.00, 0.00, 0.00, 0.00, 12424.06, 0.00, 0.000, 0.000, 0.000, 18:24:51.988, 1551482691988
170, 0.00, 0.00, 0.00, 0.00, 0.00, 0.00, 12423.79, 0.00, 0.000, 0.000, 0.000, 18:24:51.996, 1551482691996
171, 0.00, 0.00, 0.00, 0.00, 0.00, 0.00, 12408.53, 0.00, 0.000, 0.000, 0.000, 18:24:51.996, 1551482691996
172, 0.00, 0.00, 0.00, 0.00, 0.00, 0.00, 12411.95, 0.00, 0.000, 0.000, 0.000, 18:24:52.003, 1551482692003
173, 0.00, 0.00, 0.00, 0.00, 0.00, 0.00, 12420.80, 0.00, 0.000, 0.000, 0.000, 18:24:52.003, 1551482692003
174, 0.00, 0.00, 0.00, 0.00, 0.00, 0.00, 12445.70, 0.00, 0.000, 0.000, 0.000, 18:24:52.011, 1551482692011
175, 0.00, 0.00, 0.00, 0.00, 0.00, 0.00, 12448.60, 0.00, 0.058, 0.528, 0.864, 18:24:52.011, 1551482692011
176, 0.00, 0.00, 0.00, 0.00, 0.00, 0.00, 12441.34, 0.00, 0.000, 0.000, 0.000, 18:24:52.019, 1551482692019
177, 0.00, 0.00, 0.00, 0.00, 0.00, 0.00, 12448.63, 0.00, 0.000, 0.000, 0.000, 18:24:52.019, 1551482692019
178, 0.00, 0.00, 0.00, 0.00, 0.00, 0.00, 12467.20, 0.00, 0.000, 0.000, 0.000, 18:24:52.026, 1551482692026
179, 0.00, 0.00, 0.00, 0.00, 0.00, 0.00, 12474.87, 0.00, 0.000, 0.000, 0.000, 18:24:52.033, 1551482692033
180, 0.00, 0.00, 0.00, 0.00, 0.00, 0.00, 12497.22, 0.00, 0.000, 0.000, 0.000, 18:24:52.033, 1551482692033
181, 0.00, 0.00, 0.00, 0.00, 0.00, 0.00, 12540.58, 0.00, 0.000, 0.000, 0.000, 18:24:52.040, 1551482692040
182, 0.00, 0.00, 0.00, 0.00, 0.00, 0.00, 12558.64, 0.00, 0.000, 0.000, 0.000, 18:24:52.041, 1551482692041
183, 0.00, 0.00, 0.00, 0.00, 0.00, 0.00, 12533.52, 0.00, 0.000, 0.000, 0.000, 18:24:52.048, 1551482692048
184, 0.00, 0.00, 0.00, 0.00, 0.00, 0.00, 12480.92, 0.00, 0.000, 0.000, 0.000, 18:24:52.049, 1551482692049
185, 0.00, 0.00, 0.00, 0.00, 0.00, 0.00, 12423.03, 0.00, 0.054, 0.526, 0.868, 18:24:52.055, 1551482692055
186, 0.00, 0.00, 0.00, 0.00, 0.00, 0.00, 12361.01, 0.00, 0.000, 0.000, 0.000, 18:24:52.055, 1551482692055
187, 0.00, 0.00, 0.00, 0.00, 0.00, 0.00, 12389.24, 0.00, 0.000, 0.000, 0.000, 18:24:52.063, 1551482692063
188, 0.00, 0.00, 0.00, 0.00, 0.00, 0.00, 12415.90, 0.00, 0.000, 0.000, 0.000, 18:24:52.063, 1551482692063
189, 0.00, 0.00, 0.00, 0.00, 0.00, 0.00, 12411.90, 0.00, 0.000, 0.000, 0.000, 18:24:52.071, 1551482692071
190, 0.00, 0.00, 0.00, 0.00, 0.00, 0.00, 12428.87, 0.00, 0.000, 0.000, 0.000, 18:24:52.071, 1551482692071
191, 0.00, 0.00, 0.00, 0.00, 0.00, 0.00, 12440.33, 0.00, 0.000, 0.000, 0.000, 18:24:52.079, 1551482692079
192, 0.00, 0.00, 0.00, 0.00, 0.00, 0.00, 12440.40, 0.00, 0.000, 0.000, 0.000, 18:24:52.079, 1551482692079
193, 0.00, 0.00, 0.00, 0.00, 0.00, 0.00, 12440.60, 0.00, 0.000, 0.000, 0.000, 18:24:52.085, 1551482692085
194, 0.00, 0.00, 0.00, 0.00, 0.00, 0.00, 12448.67, 0.00, 0.000, 0.000, 0.000, 18:24:52.093, 1551482692093
195, 0.00, 0.00, 0.00, 0.00, 0.00, 0.00, 12459.22, 0.00, 0.062, 0.528, 0.866, 18:24:52.093, 1551482692093
196, 0.00, 0.00, 0.00, 0.00, 0.00, 0.00, 12458.28, 0.00, 0.000, 0.000, 0.000, 18:24:52.101, 1551482692101
197, 0.00, 0.00, 0.00, 0.00, 0.00, 0.00, 12459.38, 0.00, 0.000, 0.000, 0.000, 18:24:52.101, 1551482692101
198, 0.00, 0.00, 0.00, 0.00, 0.00, 0.00, 12462.35, 0.00, 0.000, 0.000, 0.000, 18:24:52.108, 1551482692108
199, 0.00, 0.00, 0.00, 0.00, 0.00, 0.00, 12480.86, 0.00, 0.000, 0.000, 0.000, 18:24:52.108, 1551482692108
200, 0.00, 0.00, 0.00, 0.00, 0.00, 0.00, 12490.60, 0.00, 0.000, 0.000, 0.000, 18:24:52.115, 1551482692115
201, 0.00, 0.00, 0.00, 0.00, 0.00, 0.00, 12486.42, 0.00, 0.000, 0.000, 0.000, 18:24:52.116, 1551482692116
202, 0.00, 0.00, 0.00, 0.00, 0.00, 0.00, 12478.89, 0.00, 0.000, 0.000, 0.000, 18:24:52.123, 1551482692123
203, 0.00, 0.00, 0.00, 0.00, 0.00, 0.00, 12502.49, 0.00, 0.000, 0.000, 0.000, 18:24:52.123, 1551482692123
204, 0.00, 0.00, 0.00, 0.00, 0.00, 0.00, 12520.17, 0.00, 0.058, 0.530, 0.874, 18:24:52.132, 1551482692132
205, 0.00, 0.00, 0.00, 0.00, 0.00, 0.00, 12529.25, 0.00, 0.000, 0.000, 0.000, 18:24:52.132, 1551482692132
206, 0.00, 0.00, 0.00, 0.00, 0.00, 0.00, 12495.74, 0.00, 0.000, 0.000, 0.000, 18:24:52.138, 1551482692138
207, 0.00, 0.00, 0.00, 0.00, 0.00, 0.00, 12456.25, 0.00, 0.000, 0.000, 0.000, 18:24:52.138, 1551482692138
208, 0.00, 0.00, 0.00, 0.00, 0.00, 0.00, 12392.37, 0.00, 0.000, 0.000, 0.000, 18:24:52.145, 1551482692145
209, 0.00, 0.00, 0.00, 0.00, 0.00, 0.00, 12357.70, 0.00, 0.000, 0.000, 0.000, 18:24:52.153, 1551482692153
210, 0.00, 0.00, 0.00, 0.00, 0.00, 0.00, 12376.85, 0.00, 0.000, 0.000, 0.000, 18:24:52.153, 1551482692153
211, 0.00, 0.00, 0.00, 0.00, 0.00, 0.00, 12407.16, 0.00, 0.000, 0.000, 0.000, 18:24:52.161, 1551482692161
212, 0.00, 0.00, 0.00, 0.00, 0.00, 0.00, 12425.22, 0.00, 0.000, 0.000, 0.000, 18:24:52.161, 1551482692161
213, 0.00, 0.00, 0.00, 0.00, 0.00, 0.00, 12430.61, 0.00, 0.000, 0.000, 0.000, 18:24:52.168, 1551482692168
214, 0.00, 0.00, 0.00, 0.00, 0.00, 0.00, 12431.95, 0.00, 0.060, 0.530, 0.874, 18:24:52.168, 1551482692168
215, 0.00, 0.00, 0.00, 0.00, 0.00, 0.00, 12446.32, 0.00, 0.000, 0.000, 0.000, 18:24:52.176, 1551482692176
216, 0.00, 0.00, 0.00, 0.00, 0.00, 0.00, 12456.49, 0.00, 0.000, 0.000, 0.000, 18:24:52.176, 1551482692176
217, 0.00, 0.00, 0.00, 0.00, 0.00, 0.00, 12450.48, 0.00, 0.000, 0.000, 0.000, 18:24:52.184, 1551482692184
218, 0.00, 0.00, 0.00, 0.00, 0.00, 0.00, 12441.54, 0.00, 0.000, 0.000, 0.000, 18:24:52.184, 1551482692184
219, 0.00, 0.00, 0.00, 0.00, 0.00, 0.00, 12451.46, 0.00, 0.000, 0.000, 0.000, 18:24:52.190, 1551482692190
220, 0.00, 0.00, 0.00, 0.00, 0.00, 0.00, 12475.45, 0.00, 0.000, 0.000, 0.000, 18:24:52.190, 1551482692190
221, 0.00, 0.00, 0.00, 0.00, 0.00, 0.00, 12467.83, 0.00, 0.000, 0.000, 0.000, 18:24:52.198, 1551482692198
222, 0.00, 0.00, 0.00, 0.00, 0.00, 0.00, 12444.15, 0.00, 0.000, 0.000, 0.000, 18:24:52.198, 1551482692198
223, 0.00, 0.00, 0.00, 0.00, 0.00, 0.00, 12442.30, 0.00, 0.000, 0.000, 0.000, 18:24:52.205, 1551482692205
224, 0.00, 0.00, 0.00, 0.00, 0.00, 0.00, 12458.37, 0.00, 0.056, 0.528, 0.872, 18:24:52.206, 1551482692206
225, 0.00, 0.00, 0.00, 0.00, 0.00, 0.00, 12463.73, 0.00, 0.000, 0.000, 0.000, 18:24:52.214, 1551482692214
226, 0.00, 0.00, 0.00, 0.00, 0.00, 0.00, 12475.20, 0.00, 0.000, 0.000, 0.000, 18:24:52.220, 1551482692220
227, 0.00, 0.00, 0.00, 0.00, 0.00, 0.00, 12495.97, 0.00, 0.000, 0.000, 0.000, 18:24:52.220, 1551482692220
228, 0.00, 0.00, 0.00, 0.00, 0.00, 0.00, 12503.66, 0.00, 0.000, 0.000, 0.000, 18:24:52.228, 1551482692228
229, 0.00, 0.00, 0.00, 0.00, 0.00, 0.00, 12484.03, 0.00, 0.000, 0.000, 0.000, 18:24:52.228, 1551482692228
230, 0.00, 0.00, 0.00, 0.00, 0.00, 0.00, 12425.42, 0.00, 0.000, 0.000, 0.000, 18:24:52.236, 1551482692236
231, 0.00, 0.00, 0.00, 0.00, 0.00, 0.00, 12386.49, 0.00, 0.000, 0.000, 0.000, 18:24:52.236, 1551482692236
232, 0.00, 0.00, 0.00, 0.00, 0.00, 0.00, 12437.47, 0.00, 0.000, 0.000, 0.000, 18:24:52.243, 1551482692243
233, 0.00, 0.00, 0.00, 0.00, 0.00, 0.00, 12479.81, 0.00, 0.000, 0.000, 0.000, 18:24:52.243, 1551482692243
234, 0.00, 0.00, 0.00, 0.00, 0.00, 0.00, 12478.84, 0.00, 0.060, 0.524, 0.874, 18:24:52.250, 1551482692250
235, 0.00, 0.00, 0.00, 0.00, 0.00, 0.00, 12447.75, 0.00, 0.000, 0.000, 0.000, 18:24:52.251, 1551482692251
236, 0.00, 0.00, 0.00, 0.00, 0.00, 0.00, 12399.61, 0.00, 0.000, 0.000, 0.000, 18:24:52.258, 1551482692258
237, 0.00, 0.00, 0.00, 0.00, 0.00, 0.00, 12405.46, 0.00, 0.000, 0.000, 0.000, 18:24:52.259, 1551482692259
238, 0.00, 0.00, 0.00, 0.00, 0.00, 0.00, 12422.12, 0.00, 0.000, 0.000, 0.000, 18:24:52.267, 1551482692267
239, 0.00, 0.00, 0.00, 0.00, 0.00, 0.00, 12425.16, 0.00, 0.000, 0.000, 0.000, 18:24:52.267, 1551482692267
240, 0.00, 0.00, 0.00, 0.00, 0.00, 0.00, 12444.51, 0.00, 0.000, 0.000, 0.000, 18:24:52.273, 1551482692273
241, 0.00, 0.00, 0.00, 0.00, 0.00, 0.00, 12455.82, 0.00, 0.000, 0.000, 0.000, 18:24:52.280, 1551482692280
242, 0.00, 0.00, 0.00, 0.00, 0.00, 0.00, 12434.43, 0.00, 0.000, 0.000, 0.000, 18:24:52.280, 1551482692280
243, 0.00, 0.00, 0.00, 0.00, 0.00, 0.00, 12433.85, 0.00, 0.000, 0.000, 0.000, 18:24:52.288, 1551482692288
244, 0.00, 0.00, 0.00, 0.00, 0.00, 0.00, 12449.21, 0.00, 0.060, 0.522, 0.874, 18:24:52.288, 1551482692288
245, 0.00, 0.00, 0.00, 0.00, 0.00, 0.00, 12461.08, 0.00, 0.000, 0.000, 0.000, 18:24:52.296, 1551482692296
246, 0.00, 0.00, 0.00, 0.00, 0.00, 0.00, 12453.99, 0.00, 0.000, 0.000, 0.000, 18:24:52.296, 1551482692296
247, 0.00, 0.00, 0.00, 0.00, 0.00, 0.00, 12442.28, 0.00, 0.000, 0.000, 0.000, 18:24:52.303, 1551482692303
248, 0.00, 0.00, 0.00, 0.00, 0.00, 0.00, 12434.19, 0.00, 0.000, 0.000, 0.000, 18:24:52.303, 1551482692303
249, 0.00, 0.00, 0.00, 0.00, 0.00, 0.00, 12436.31, 0.00, 0.000, 0.000, 0.000, 18:24:52.311, 1551482692311
250, 0.00, 0.00, 0.00, 0.00, 0.00, 0.00, 12431.79, 0.00, 0.000, 0.000, 0.000, 18:24:52.311, 1551482692311
251, 0.00, 0.00, 0.00, 0.00, 0.00, 0.00, 12424.87, 0.00, 0.000, 0.000, 0.000, 18:24:52.319, 1551482692319
252, 0.00, 0.00, 0.00, 0.00, 0.00, 0.00, 12424.82, 0.00, 0.000, 0.000, 0.000, 18:24:52.319, 1551482692319
253, 0.00, 0.00, 0.00, 0.00, 0.00, 0.00, 12441.16, 0.00, 0.000, 0.000, 0.000, 18:24:52.326, 1551482692326
254, 0.00, 0.00, 0.00, 0.00, 0.00, 0.00, 12459.08, 0.00, 0.058, 0.520, 0.876, 18:24:52.326, 1551482692326
255, 0.00, 0.00, 0.00, 0.00, 0.00, 0.00, 12467.58, 0.00, 0.000, 0.000, 0.000, 18:24:52.332, 1551482692332
0, 0.00, 0.00, 0.00, 0.00, 0.00, 0.00, 12485.17, 0.00, 0.000, 0.000, 0.000, 18:24:52.340, 1551482692340
1, 0.00, 0.00, 0.00, 0.00, 0.00, 0.00, 12491.07, 0.00, 0.000, 0.000, 0.000, 18:24:52.341, 1551482692341
2, 0.00, 0.00, 0.00, 0.00, 0.00, 0.00, 12463.53, 0.00, 0.000, 0.000, 0.000, 18:24:52.348, 1551482692348
3, 0.00, 0.00, 0.00, 0.00, 0.00, 0.00, 12432.00, 0.00, 0.000, 0.000, 0.000, 18:24:52.349, 1551482692349
4, 0.00, 0.00, 0.00, 0.00, 0.00, 0.00, 12436.87, 0.00, 0.000, 0.000, 0.000, 18:24:52.355, 1551482692355
5, 0.00, 0.00, 0.00, 0.00, 0.00, 0.00, 12463.94, 0.00, 0.000, 0.000, 0.000, 18:24:52.355, 1551482692355
6, 0.00, 0.00, 0.00, 0.00, 0.00, 0.00, 12447.55, 0.00, 0.000, 0.000, 0.000, 18:24:52.363, 1551482692363
7, 0.00, 0.00, 0.00, 0.00, 0.00, 0.00, 12394.73, 0.00, 0.056, 0.518, 0.876, 18:24:52.363, 1551482692363
8, 0.00, 0.00, 0.00, 0.00, 0.00, 0.00, 12377.12, 0.00, 0.000, 0.000, 0.000, 18:24:52.371, 1551482692371
9, 0.00, 0.00, 0.00, 0.00, 0.00, 0.00, 12406.18, 0.00, 0.000, 0.000, 0.000, 18:24:52.371, 1551482692371
10, 0.00, 0.00, 0.00, 0.00, 0.00, 0.00, 12431.57, 0.00, 0.000, 0.000, 0.000, 18:24:52.379, 1551482692379
11, 0.00, 0.00, 0.00, 0.00, 0.00, 0.00, 12429.65, 0.00, 0.000, 0.000, 0.000, 18:24:52.379, 1551482692379
12, 0.00, 0.00, 0.00, 0.00, 0.00, 0.00, 12424.46, 0.00, 0.000, 0.000, 0.000, 18:24:52.387, 1551482692387
13, 0.00, 0.00, 0.00, 0.00, 0.00, 0.00, 12423.52, 0.00, 0.000, 0.000, 0.000, 18:24:52.388, 1551482692388
14, 0.00, 0.00, 0.00, 0.00, 0.00, 0.00, 12434.81, 0.00, 0.000, 0.000, 0.000, 18:24:52.393, 1551482692393
15, 0.00, 0.00, 0.00, 0.00, 0.00, 0.00, 12432.40, 0.00, 0.000, 0.000, 0.000, 18:24:52.401, 1551482692401
16, 0.00, 0.00, 0.00, 0.00, 0.00, 0.00, 12426.54, 0.00, 0.000, 0.000, 0.000, 18:24:52.401, 1551482692401
17, 0.00, 0.00, 0.00, 0.00, 0.00, 0.00, 12447.35, 0.00, 0.050, 0.524, 0.876, 18:24:52.408, 1551482692408
18, 0.00, 0.00, 0.00, 0.00, 0.00, 0.00, 12461.48, 0.00, 0.000, 0.000, 0.000, 18:24:52.409, 1551482692409
19, 0.00, 0.00, 0.00, 0.00, 0.00, 0.00, 12447.10, 0.00, 0.000, 0.000, 0.000, 18:24:52.415, 1551482692415
20, 0.00, 0.00, 0.00, 0.00, 0.00, 0.00, 12428.89, 0.00, 0.000, 0.000, 0.000, 18:24:52.416, 1551482692416
21, 0.00, 0.00, 0.00, 0.00, 0.00, 0.00, 12418.32, 0.00, 0.000, 0.000, 0.000, 18:24:52.423, 1551482692423
22, 0.00, 0.00, 0.00, 0.00, 0.00, 0.00, 12432.29, 0.00, 0.000, 0.000, 0.000, 18:24:52.424, 1551482692424
23, 0.00, 0.00, 0.00, 0.00, 0.00, 0.00, 12449.94, 0.00, 0.000, 0.000, 0.000, 18:24:52.431, 1551482692431
24, 0.00, 0.00, 0.00, 0.00, 0.00, 0.00, 12453.16, 0.00, 0.000, 0.000, 0.000, 18:24:52.432, 1551482692432
25, 0.00, 0.00, 0.00, 0.00, 0.00, 0.00, 12442.86, 0.00, 0.000, 0.000, 0.000, 18:24:52.438, 1551482692438
26, 0.00, 0.00, 0.00, 0.00, 0.00, 0.00, 12440.13, 0.00, 0.000, 0.000, 0.000, 18:24:52.439, 1551482692439
27, 0.00, 0.00, 0.00, 0.00, 0.00, 0.00, 12431.64, 0.00, 0.052, 0.526, 0.870, 18:24:52.446, 1551482692446
28, 0.00, 0.00, 0.00, 0.00, 0.00, 0.00, 12428.53, 0.00, 0.000, 0.000, 0.000, 18:24:52.446, 1551482692446
29, 0.00, 0.00, 0.00, 0.00, 0.00, 0.00, 12419.39, 0.00, 0.000, 0.000, 0.000, 18:24:52.453, 1551482692453
30, 0.00, 0.00, 0.00, 0.00, 0.00, 0.00, 12425.13, 0.00, 0.000, 0.000, 0.000, 18:24:52.453, 1551482692453
31, 0.00, 0.00, 0.00, 0.00, 0.00, 0.00, 12429.04, 0.00, 0.000, 0.000, 0.000, 18:24:52.460, 1551482692460
32, 0.00, 0.00, 0.00, 0.00, 0.00, 0.00, 12426.68, 0.00, 0.000, 0.000, 0.000, 18:24:52.468, 1551482692468
33, 0.00, 0.00, 0.00, 0.00, 0.00, 0.00, 12425.76, 0.00, 0.000, 0.000, 0.000, 18:24:52.468, 1551482692468
34, 0.00, 0.00, 0.00, 0.00, 0.00, 0.00, 12449.47, 0.00, 0.000, 0.000, 0.000, 18:24:52.476, 1551482692476
35, 0.00, 0.00, 0.00, 0.00, 0.00, 0.00, 12462.28, 0.00, 0.000, 0.000, 0.000, 18:24:52.476, 1551482692476
36, 0.00, 0.00, 0.00, 0.00, 0.00, 0.00, 12469.10, 0.00, 0.000, 0.000, 0.000, 18:24:52.484, 1551482692484
37, 0.00, 0.00, 0.00, 0.00, 0.00, 0.00, 12454.55, 0.00, 0.054, 0.526, 0.872, 18:24:52.484, 1551482692484
38, 0.00, 0.00, 0.00, 0.00, 0.00, 0.00, 12440.73, 0.00, 0.000, 0.000, 0.000, 18:24:52.490, 1551482692490
39, 0.00, 0.00, 0.00, 0.00, 0.00, 0.00, 12438.81, 0.00, 0.000, 0.000, 0.000, 18:24:52.491, 1551482692491
40, 0.00, 0.00, 0.00, 0.00, 0.00, 0.00, 12416.17, 0.00, 0.000, 0.000, 0.000, 18:24:52.498, 1551482692498
41, 0.00, 0.00, 0.00, 0.00, 0.00, 0.00, 12406.20, 0.00, 0.000, 0.000, 0.000, 18:24:52.498, 1551482692498
42, 0.00, 0.00, 0.00, 0.00, 0.00, 0.00, 12398.15, 0.00, 0.000, 0.000, 0.000, 18:24:52.506, 1551482692506
43, 0.00, 0.00, 0.00, 0.00, 0.00, 0.00, 12405.69, 0.00, 0.000, 0.000, 0.000, 18:24:52.506, 1551482692506
44, 0.00, 0.00, 0.00, 0.00, 0.00, 0.00, 12412.28, 0.00, 0.000, 0.000, 0.000, 18:24:52.514, 1551482692514
45, 0.00, 0.00, 0.00, 0.00, 0.00, 0.00, 12415.32, 0.00, 0.000, 0.000, 0.000, 18:24:52.514, 1551482692514
46, 0.00, 0.00, 0.00, 0.00, 0.00, 0.00, 12419.14, 0.00, 0.000, 0.000, 0.000, 18:24:52.520, 1551482692520
47, 0.00, 0.00, 0.00, 0.00, 0.00, 0.00, 12419.61, 0.00, 0.060, 0.534, 0.876, 18:24:52.528, 1551482692528
48, 0.00, 0.00, 0.00, 0.00, 0.00, 0.00, 12426.54, 0.00, 0.000, 0.000, 0.000, 18:24:52.528, 1551482692528
49, 0.00, 0.00, 0.00, 0.00, 0.00, 0.00, 12436.58, 0.00, 0.000, 0.000, 0.000, 18:24:52.536, 1551482692536
50, 0.00, 0.00, 0.00, 0.00, 0.00, 0.00, 12437.85, 0.00, 0.000, 0.000, 0.000, 18:24:52.536, 1551482692536
51, 0.00, 0.00, 0.00, 0.00, 0.00, 0.00, 12438.54, 0.00, 0.000, 0.000, 0.000, 18:24:52.543, 1551482692543
52, 0.00, 0.00, 0.00, 0.00, 0.00, 0.00, 12433.02, 0.00, 0.000, 0.000, 0.000, 18:24:52.543, 1551482692543
53, 0.00, 0.00, 0.00, 0.00, 0.00, 0.00, 12412.79, 0.00, 0.000, 0.000, 0.000, 18:24:52.551, 1551482692551
54, 0.00, 0.00, 0.00, 0.00, 0.00, 0.00, 12409.73, 0.00, 0.000, 0.000, 0.000, 18:24:52.551, 1551482692551
55, 0.00, 0.00, 0.00, 0.00, 0.00, 0.00, 12426.54, 0.00, 0.000, 0.000, 0.000, 18:24:52.558, 1551482692558
56, 0.00, 0.00, 0.00, 0.00, 0.00, 0.00, 12436.60, 0.00, 0.000, 0.000, 0.000, 18:24:52.559, 1551482692559
57, 0.00, 0.00, 0.00, 0.00, 0.00, 0.00, 12443.84, 0.00, 0.058, 0.528, 0.878, 18:24:52.567, 1551482692567
58, 0.00, 0.00, 0.00, 0.00, 0.00, 0.00, 12439.97, 0.00, 0.000, 0.000, 0.000, 18:24:52.567, 1551482692567
59, 0.00, 0.00, 0.00, 0.00, 0.00, 0.00, 12425.29, 0.00, 0.000, 0.000, 0.000, 18:24:52.573, 1551482692573
60, 0.00, 0.00, 0.00, 0.00, 0.00, 0.00, 12434.12, 0.00, 0.000, 0.000, 0.000, 18:24:52.573, 1551482692573
61, 0.00, 0.00, 0.00, 0.00, 0.00, 0.00, 12456.49, 0.00, 0.000, 0.000, 0.000, 18:24:52.580, 1551482692580
62, 0.00, 0.00, 0.00, 0.00, 0.00, 0.00, 12429.54, 0.00, 0.000, 0.000, 0.000, 18:24:52.589, 1551482692589
63, 0.00, 0.00, 0.00, 0.00, 0.00, 0.00, 12403.03, 0.00, 0.000, 0.000, 0.000, 18:24:52.589, 1551482692589
64, 0.00, 0.00, 0.00, 0.00, 0.00, 0.00, 12405.87, 0.00, 0.000, 0.000, 0.000, 18:24:52.595, 1551482692595
65, 0.00, 0.00, 0.00, 0.00, 0.00, 0.00, 12409.67, 0.00, 0.000, 0.000, 0.000, 18:24:52.596, 1551482692596
66, 0.00, 0.00, 0.00, 0.00, 0.00, 0.00, 12403.50, 0.00, 0.000, 0.000, 0.000, 18:24:52.603, 1551482692603
67, 0.00, 0.00, 0.00, 0.00, 0.00, 0.00, 12417.65, 0.00, 0.060, 0.528, 0.876, 18:24:52.603, 1551482692603
68, 0.00, 0.00, 0.00, 0.00, 0.00, 0.00, 12432.67, 0.00, 0.000, 0.000, 0.000, 18:24:52.611, 1551482692611
69, 0.00, 0.00, 0.00, 0.00, 0.00, 0.00, 12430.05, 0.00, 0.000, 0.000, 0.000, 18:24:52.611, 1551482692611
70, 0.00, 0.00, 0.00, 0.00, 0.00, 0.00, 12436.24, 0.00, 0.000, 0.000, 0.000, 18:24:52.619, 1551482692619
71, 0.00, 0.00, 0.00, 0.00, 0.00, 0.00, 12435.01, 0.00, 0.000, 0.000, 0.000, 18:24:52.619, 1551482692619
72, 0.00, 0.00, 0.00, 0.00, 0.00, 0.00, 12443.53, 0.00, 0.000, 0.000, 0.000, 18:24:52.626, 1551482692626
73, 0.00, 0.00, 0.00, 0.00, 0.00, 0.00, 12444.87, 0.00, 0.000, 0.000, 0.000, 18:24:52.626, 1551482692626
74, 0.00, 0.00, 0.00, 0.00, 0.00, 0.00, 12441.38, 0.00, 0.000, 0.000, 0.000, 18:24:52.633, 1551482692633
75, 0.00, 0.00, 0.00, 0.00, 0.00, 0.00, 12424.71, 0.00, 0.000, 0.000, 0.000, 18:24:52.634, 1551482692634
76, 0.00, 0.00, 0.00, 0.00, 0.00, 0.00, 12423.66, 0.00, 0.054, 0.530, 0.870, 18:24:52.640, 1551482692640
77, 0.00, 0.00, 0.00, 0.00, 0.00, 0.00, 12443.60, 0.00, 0.000, 0.000, 0.000, 18:24:52.649, 1551482692649
78, 0.00, 0.00, 0.00, 0.00, 0.00, 0.00, 12447.06, 0.00, 0.000, 0.000, 0.000, 18:24:52.649, 1551482692649
79, 0.00, 0.00, 0.00, 0.00, 0.00, 0.00, 12443.30, 0.00, 0.000, 0.000, 0.000, 18:24:52.656, 1551482692656
80, 0.00, 0.00, 0.00, 0.00, 0.00, 0.00, 12397.75, 0.00, 0.000, 0.000, 0.000, 18:24:52.656, 1551482692656
81, 0.00, 0.00, 0.00, 0.00, 0.00, 0.00, 12380.07, 0.00, 0.000, 0.000, 0.000, 18:24:52.663, 1551482692663
82, 0.00, 0.00, 0.00, 0.00, 0.00, 0.00, 12387.63, 0.00, 0.000, 0.000, 0.000, 18:24:52.663, 1551482692663
83, 0.00, 0.00, 0.00, 0.00, 0.00, 0.00, 12396.01, 0.00, 0.000, 0.000, 0.000, 18:24:52.671, 1551482692671
84, 0.00, 0.00, 0.00, 0.00, 0.00, 0.00, 12403.05, 0.00, 0.000, 0.000, 0.000, 18:24:52.672, 1551482692672
85, 0.00, 0.00, 0.00, 0.00, 0.00, 0.00, 12413.98, 0.00, 0.000, 0.000, 0.000, 18:24:52.679, 1551482692679
86, 0.00, 0.00, 0.00, 0.00, 0.00, 0.00, 12413.53, 0.00, 0.060, 0.530, 0.874, 18:24:52.679, 1551482692679
87, 0.00, 0.00, 0.00, 0.00, 0.00, 0.00, 12392.34, 0.00, 0.000, 0.000, 0.000, 18:24:52.686, 1551482692686
88, 0.00, 0.00, 0.00, 0.00, 0.00, 0.00, 12392.50, 0.00, 0.000, 0.000, 0.000, 18:24:52.686, 1551482692686
89, 0.00, 0.00, 0.00, 0.00, 0.00, 0.00, 12409.73, 0.00, 0.000, 0.000, 0.000, 18:24:52.695, 1551482692695
90, 0.00, 0.00, 0.00, 0.00, 0.00, 0.00, 12418.65, 0.00, 0.000, 0.000, 0.000, 18:24:52.695, 1551482692695
91, 0.00, 0.00, 0.00, 0.00, 0.00, 0.00, 12415.46, 0.00, 0.000, 0.000, 0.000, 18:24:52.701, 1551482692701
92, 0.00, 0.00, 0.00, 0.00, 0.00, 0.00, 12414.34, 0.00, 0.000, 0.000, 0.000, 18:24:52.701, 1551482692701
93, 0.00, 0.00, 0.00, 0.00, 0.00, 0.00, 12430.45, 0.00, 0.000, 0.000, 0.000, 18:24:52.707, 1551482692707
94, 0.00, 0.00, 0.00, 0.00, 0.00, 0.00, 12442.17, 0.00, 0.000, 0.000, 0.000, 18:24:52.716, 1551482692716
95, 0.00, 0.00, 0.00, 0.00, 0.00, 0.00, 12436.93, 0.00, 0.000, 0.000, 0.000, 18:24:52.716, 1551482692716
96, 0.00, 0.00, 0.00, 0.00, 0.00, 0.00, 12427.66, 0.00, 0.060, 0.530, 0.872, 18:24:52.724, 1551482692724
97, 0.00, 0.00, 0.00, 0.00, 0.00, 0.00, 12423.17, 0.00, 0.000, 0.000, 0.000, 18:24:52.724, 1551482692724
98, 0.00, 0.00, 0.00, 0.00, 0.00, 0.00, 12435.26, 0.00, 0.000, 0.000, 0.000, 18:24:52.730, 1551482692730
99, 0.00, 0.00, 0.00, 0.00, 0.00, 0.00, 12418.43, 0.00, 0.000, 0.000, 0.000, 18:24:52.731, 1551482692731
100, 0.00, 0.00, 0.00, 0.00, 0.00, 0.00, 12404.37, 0.00, 0.000, 0.000, 0.000, 18:24:52.738, 1551482692738
101, 0.00, 0.00, 0.00, 0.00, 0.00, 0.00, 12396.10, 0.00, 0.000, 0.000, 0.000, 18:24:52.738, 1551482692738
102, 0.00, 0.00, 0.00, 0.00, 0.00, 0.00, 12384.77, 0.00, 0.000, 0.000, 0.000, 18:24:52.746, 1551482692746
103, 0.00, 0.00, 0.00, 0.00, 0.00, 0.00, 12387.78, 0.00, 0.000, 0.000, 0.000, 18:24:52.747, 1551482692747
104, 0.00, 0.00, 0.00, 0.00, 0.00, 0.00, 12383.54, 0.00, 0.000, 0.000, 0.000, 18:24:52.754, 1551482692754
105, 0.00, 0.00, 0.00, 0.00, 0.00, 0.00, 12395.32, 0.00, 0.000, 0.000, 0.000, 18:24:52.754, 1551482692754
106, 0.00, 0.00, 0.00, 0.00, 0.00, 0.00, 12413.73, 0.00, 0.060, 0.524, 0.876, 18:24:52.761, 1551482692761
107, 0.00, 0.00, 0.00, 0.00, 0.00, 0.00, 12409.53, 0.00, 0.000, 0.000, 0.000, 18:24:52.761, 1551482692761
108, 0.00, 0.00, 0.00, 0.00, 0.00, 0.00, 12401.51, 0.00, 0.000, 0.000, 0.000, 18:24:52.768, 1551482692768
109, 0.00, 0.00, 0.00, 0.00, 0.00, 0.00, 12403.85, 0.00, 0.000, 0.000, 0.000, 18:24:52.776, 1551482692776
110, 0.00, 0.00, 0.00, 0.00, 0.00, 0.00, 12416.93, 0.00, 0.000, 0.000, 0.000, 18:24:52.776, 1551482692776
