%OpenBCI Raw EEG Data
%
%Sample Rate = 250.0 Hz
%First Column = SampleIndex
%Last Column = Timestamp 
%Other Columns = EEG data in microvolts followed by Accel Data (in G) interleaved with Aux Data
0, 0.00, 0.00, 0.00, 0.00, 0.00, 0.00, 0.00, 0.00, 0.000, 0.000, 0.000, 17:32:14.583
1, 35163.27, -88817.80, -187500.02, -187500.02, -187500.02, -97916.98, -187500.02, -187500.02, 0.154, 0.020, 1.014, 17:32:15.065
2, 35161.26, -88697.77, -187500.02, -187500.02, -187500.02, -97778.22, -187500.02, -187500.02, 0.000, 0.000, 0.000, 17:32:15.066
3, 35168.19, -88752.83, -187500.02, -187500.02, -187500.02, -97842.88, -187500.02, -187500.02, 0.000, 0.000, 0.000, 17:32:15.066
4, 35176.14, -88837.88, -187500.02, -187500.02, -187500.02, -97969.21, -187500.02, -187500.02, 0.000, 0.000, 0.000, 17:32:15.066
5, 35176.01, -88849.77, -187500.02, -187500.02, -187500.02, -97996.66, -187500.02, -187500.02, 0.000, 0.000, 0.000, 17:32:15.066
6, 35152.88, -88709.27, -187500.02, -187500.02, -187500.02, -97836.24, -187500.02, -187500.02, 0.000, 0.000, 0.000, 17:32:15.067
7, 35136.29, -88746.30, -187500.02, -187500.02, -187500.02, -97869.97, -187500.02, -187500.02, 0.000, 0.000, 0.000, 17:32:15.067
8, 35152.61, -88842.64, -187500.02, -187500.02, -187500.02, -98006.18, -187500.02, -187500.02, 0.150, 0.030, 1.004, 17:32:15.067
9, 35157.24, -88879.45, -187500.02, -187500.02, -187500.02, -98066.53, -187500.02, -187500.02, 0.000, 0.000, 0.000, 17:32:15.067
10, 35159.02, -88692.28, -187500.02, -187500.02, -187500.02, -97862.62, -187500.02, -187500.02, 0.000, 0.000, 0.000, 17:32:15.067
11, 35167.54, -88665.12, -187500.02, -187500.02, -187500.02, -97821.02, -187500.02, -187500.02, 0.000, 0.000, 0.000, 17:32:15.068
12, 35163.11, -88785.51, -187500.02, -187500.02, -187500.02, -97981.48, -187500.02, -187500.02, 0.000, 0.000, 0.000, 17:32:15.068
13, 35157.91, -88897.27, -187500.02, -187500.02, -187500.02, -98125.07, -187500.02, -187500.02, 0.000, 0.000, 0.000, 17:32:15.068
14, 35153.37, -88820.51, -187500.02, -187500.02, -187500.02, -98040.52, -187500.02, -187500.02, 0.000, 0.000, 0.000, 17:32:15.068
15, 35143.71, -88742.50, -187500.02, -187500.02, -187500.02, -97942.01, -187500.02, -187500.02, 0.000, 0.000, 0.000, 17:32:15.068
16, 35142.64, -88863.20, -187500.02, -187500.02, -187500.02, -98092.93, -187500.02, -187500.02, 0.000, 0.000, 0.000, 17:32:15.069
17, 35156.63, -88952.34, -187500.02, -187500.02, -187500.02, -98216.38, -187500.02, -187500.02, 0.000, 0.000, 0.000, 17:32:15.069
18, 35181.76, -88838.95, -187500.02, -187500.02, -187500.02, -98100.10, -187500.02, -187500.02, 0.150, 0.028, 1.006, 17:32:15.069
19, 35181.38, -88720.09, -187500.02, -187500.02, -187500.02, -97955.58, -187500.02, -187500.02, 0.000, 0.000, 0.000, 17:32:15.069
20, 35173.35, -88830.41, -187500.02, -187500.02, -187500.02, -98090.90, -187500.02, -187500.02, 0.000, 0.000, 0.000, 17:32:15.070
21, 35160.01, -88923.95, -187500.02, -187500.02, -187500.02, -98227.53, -187500.02, -187500.02, 0.000, 0.000, 0.000, 17:32:15.070
22, 35153.28, -88829.45, -187500.02, -187500.02, -187500.02, -98137.03, -187500.02, -187500.02, 0.000, 0.000, 0.000, 17:32:15.070
23, 35139.38, -88677.73, -187500.02, -187500.02, -187500.02, -97957.73, -187500.02, -187500.02, 0.000, 0.000, 0.000, 17:32:15.070
24, 35162.89, -88757.05, -187500.02, -187500.02, -187500.02, -98052.09, -187500.02, -187500.02, 0.000, 0.000, 0.000, 17:32:15.070
25, 35193.67, -88924.22, -187500.02, -187500.02, -187500.02, -98265.55, -187500.02, -187500.02, 0.000, 0.000, 0.000, 17:32:15.071
26, 35171.74, -88961.03, -187500.02, -187500.02, -187500.02, -98314.52, -187500.02, -187500.02, 0.000, 0.000, 0.000, 17:32:15.071
27, 35159.92, -88822.70, -187500.02, -187500.02, -187500.02, -98149.30, -187500.02, -187500.02, 0.150, 0.026, 1.014, 17:32:15.071
28, 35142.48, -88891.14, -187500.02, -187500.02, -187500.02, -98218.70, -187500.02, -187500.02, 0.000, 0.000, 0.000, 17:32:15.071
29, 35147.31, -88970.53, -187500.02, -187500.02, -187500.02, -98342.02, -187500.02, -187500.02, 0.000, 0.000, 0.000, 17:32:15.071
30, 35174.00, -88956.25, -187500.02, -187500.02, -187500.02, -98348.23, -187500.02, -187500.02, 0.000, 0.000, 0.000, 17:32:15.072
31, 35177.51, -88800.41, -187500.02, -187500.02, -187500.02, -98169.22, -187500.02, -187500.02, 0.000, 0.000, 0.000, 17:32:15.072
32, 35169.39, -88812.84, -187500.02, -187500.02, -187500.02, -98171.18, -187500.02, -187500.02, 0.000, 0.000, 0.000, 17:32:15.072
33, 35171.74, -88959.67, -187500.02, -187500.02, -187500.02, -98360.79, -187500.02, -187500.02, 0.000, 0.000, 0.000, 17:32:15.072
34, 35159.02, -88970.52, -187500.02, -187500.02, -187500.02, -98397.90, -187500.02, -187500.02, 0.000, 0.000, 0.000, 17:32:15.072
35, 35160.84, -88801.82, -187500.02, -187500.02, -187500.02, -98212.04, -187500.02, -187500.02, 0.000, 0.000, 0.000, 17:32:15.072
36, 35162.49, -88777.33, -187500.02, -187500.02, -187500.02, -98168.08, -187500.02, -187500.02, 0.000, 0.000, 0.000, 17:32:15.073
37, 35137.81, -88955.52, -187500.02, -187500.02, -187500.02, -98384.06, -187500.02, -187500.02, 0.146, 0.018, 0.994, 17:32:15.073
38, 35162.38, -89077.15, -187500.02, -187500.02, -187500.02, -98536.97, -187500.02, -187500.02, 0.000, 0.000, 0.000, 17:32:15.073
39, 35175.81, -88955.20, -187500.02, -187500.02, -187500.02, -98406.30, -187500.02, -187500.02, 0.000, 0.000, 0.000, 17:32:15.073
40, 35160.50, -88863.27, -187500.02, -187500.02, -187500.02, -98290.66, -187500.02, -187500.02, 0.000, 0.000, 0.000, 17:32:15.073
41, 35138.64, -88994.14, -187500.02, -187500.02, -187500.02, -98453.95, -187500.02, -187500.02, 0.000, 0.000, 0.000, 17:32:15.074
42, 35161.62, -89075.88, -187500.02, -187500.02, -187500.02, -98573.40, -187500.02, -187500.02, 0.000, 0.000, 0.000, 17:32:15.074
43, 35168.55, -88999.77, -187500.02, -187500.02, -187500.02, -98492.60, -187500.02, -187500.02, 0.000, 0.000, 0.000, 17:32:15.074
44, 35171.34, -88870.29, -187500.02, -187500.02, -187500.02, -98332.30, -187500.02, -187500.02, 0.000, 0.000, 0.000, 17:32:15.074
45, 35167.43, -88978.38, -187500.02, -187500.02, -187500.02, -98462.25, -187500.02, -187500.02, 0.000, 0.000, 0.000, 17:32:15.074
46, 35160.79, -89073.51, -187500.02, -187500.02, -187500.02, -98602.55, -187500.02, -187500.02, 0.000, 0.000, 0.000, 17:32:15.074
47, 35144.92, -89023.13, -187500.02, -187500.02, -187500.02, -98559.41, -187500.02, -187500.02, 0.152, 0.018, 0.990, 17:32:15.074
48, 35139.00, -88844.96, -187500.02, -187500.02, -187500.02, -98352.39, -187500.02, -187500.02, 0.000, 0.000, 0.000, 17:32:15.075
49, 35153.70, -88933.38, -187500.02, -187500.02, -187500.02, -98452.10, -187500.02, -187500.02, 0.000, 0.000, 0.000, 17:32:15.075
50, 35185.40, -89132.48, -187500.02, -187500.02, -187500.02, -98698.08, -187500.02, -187500.02, 0.000, 0.000, 0.000, 17:32:15.075
51, 35175.61, -89123.04, -187500.02, -187500.02, -187500.02, -98700.90, -187500.02, -187500.02, 0.000, 0.000, 0.000, 17:32:15.075
52, 35180.35, -88949.13, -187500.02, -187500.02, -187500.02, -98498.95, -187500.02, -187500.02, 0.000, 0.000, 0.000, 17:32:15.075
53, 35158.78, -89014.50, -187500.02, -187500.02, -187500.02, -98564.22, -187500.02, -187500.02, 0.000, 0.000, 0.000, 17:32:15.075
54, 35145.23, -89127.33, -187500.02, -187500.02, -187500.02, -98724.55, -187500.02, -187500.02, 0.000, 0.000, 0.000, 17:32:15.076
55, 35159.20, -89126.84, -187500.02, -187500.02, -187500.02, -98745.38, -187500.02, -187500.02, 0.000, 0.000, 0.000, 17:32:15.076
56, 35175.63, -88935.66, -187500.02, -187500.02, -187500.02, -98528.54, -187500.02, -187500.02, 0.000, 0.000, 0.000, 17:32:15.076
57, 35150.51, -88940.88, -187500.02, -187500.02, -187500.02, -98518.73, -187500.02, -187500.02, 0.158, 0.016, 1.000, 17:32:15.076
58, 35137.93, -89121.25, -187500.02, -187500.02, -187500.02, -98742.83, -187500.02, -187500.02, 0.000, 0.000, 0.000, 17:32:15.076
59, 35165.80, -89158.24, -187500.02, -187500.02, -187500.02, -98808.37, -187500.02, -187500.02, 0.000, 0.000, 0.000, 17:32:15.076
60, 35180.73, -88910.72, -187500.02, -187500.02, -187500.02, -98543.83, -187500.02, -187500.02, 0.000, 0.000, 0.000, 17:32:15.077
61, 35156.25, -88914.39, -187500.02, -187500.02, -187500.02, -98526.24, -187500.02, -187500.02, 0.000, 0.000, 0.000, 17:32:15.077
62, 35136.16, -89100.58, -187500.02, -187500.02, -187500.02, -98752.51, -187500.02, -187500.02, 0.000, 0.000, 0.000, 17:32:15.077
63, 35159.20, -89226.71, -187500.02, -187500.02, -187500.02, -98913.28, -187500.02, -187500.02, 0.000, 0.000, 0.000, 17:32:15.078
64, 35197.36, -89076.39, -187500.02, -187500.02, -187500.02, -98753.78, -187500.02, -187500.02, 0.000, 0.000, 0.000, 17:32:15.078
65, 35183.23, -88987.50, -187500.02, -187500.02, -187500.02, -98636.59, -187500.02, -187500.02, 0.000, 0.000, 0.000, 17:32:15.078
66, 35123.11, -89134.35, -187500.02, -187500.02, -187500.02, -98814.58, -187500.02, -187500.02, 0.000, 0.000, 0.000, 17:32:15.078
67, 35111.77, -89251.85, -187500.02, -187500.02, -187500.02, -98972.20, -187500.02, -187500.02, 0.160, 0.016, 0.996, 17:32:15.078
68, 35147.00, -89131.63, -187500.02, -187500.02, -187500.02, -98849.96, -187500.02, -187500.02, 0.000, 0.000, 0.000, 17:32:15.079
69, 35181.40, -89000.82, -187500.02, -187500.02, -187500.02, -98687.06, -187500.02, -187500.02, 0.000, 0.000, 0.000, 17:32:15.079
70, 35155.70, -89104.69, -187500.02, -187500.02, -187500.02, -98811.56, -187500.02, -187500.02, 0.000, 0.000, 0.000, 17:32:15.079
71, 35152.79, -89224.65, -187500.02, -187500.02, -187500.02, -98975.76, -187500.02, -187500.02, 0.000, 0.000, 0.000, 17:32:15.079
72, 35165.91, -89142.48, -187500.02, -187500.02, -187500.02, -98898.11, -187500.02, -187500.02, 0.000, 0.000, 0.000, 17:32:15.079
73, 35174.34, -88932.80, -187500.02, -187500.02, -187500.02, -98653.35, -187500.02, -187500.02, 0.000, 0.000, 0.000, 17:32:15.079
74, 35159.38, -89045.68, -187500.02, -187500.02, -187500.02, -98771.23, -187500.02, -187500.02, 0.000, 0.000, 0.000, 17:32:15.079
75, 35165.33, -89222.88, -187500.02, -187500.02, -187500.02, -98996.19, -187500.02, -187500.02, 0.000, 0.000, 0.000, 17:32:15.080
76, 35180.15, -89265.20, -187500.02, -187500.02, -187500.02, -99056.22, -187500.02, -187500.02, 0.000, 0.000, 0.000, 17:32:15.080
77, 35182.98, -89073.20, -187500.02, -187500.02, -187500.02, -98840.64, -187500.02, -187500.02, 0.156, 0.006, 0.998, 17:32:15.080
78, 35165.77, -89073.42, -187500.02, -187500.02, -187500.02, -98838.49, -187500.02, -187500.02, 0.000, 0.000, 0.000, 17:32:15.080
79, 35177.51, -89244.37, -187500.02, -187500.02, -187500.02, -99056.80, -187500.02, -187500.02, 0.000, 0.000, 0.000, 17:32:15.080
80, 35197.98, -89285.43, -187500.02, -187500.02, -187500.02, -99121.94, -187500.02, -187500.02, 0.000, 0.000, 0.000, 17:32:15.080
81, 35188.37, -89083.26, -187500.02, -187500.02, -187500.02, -98898.22, -187500.02, -187500.02, 0.000, 0.000, 0.000, 17:32:15.081
82, 35146.22, -89074.58, -187500.02, -187500.02, -187500.02, -98874.10, -187500.02, -187500.02, 0.000, 0.000, 0.000, 17:32:15.081
83, 35132.79, -89228.85, -187500.02, -187500.02, -187500.02, -99071.55, -187500.02, -187500.02, 0.000, 0.000, 0.000, 17:32:15.081
84, 35160.50, -89260.62, -187500.02, -187500.02, -187500.02, -99135.05, -187500.02, -187500.02, 0.000, 0.000, 0.000, 17:32:15.081
85, 35168.86, -89062.96, -187500.02, -187500.02, -187500.02, -98922.85, -187500.02, -187500.02, 0.000, 0.000, 0.000, 17:32:15.081
86, 35139.20, -89026.68, -187500.02, -187500.02, -187500.02, -98860.47, -187500.02, -187500.02, 0.154, 0.006, 1.010, 17:32:15.081
87, 35141.81, -89180.59, -187500.02, -187500.02, -187500.02, -99050.95, -187500.02, -187500.02, 0.000, 0.000, 0.000, 17:32:15.081
88, 35199.28, -89313.74, -187500.02, -187500.02, -187500.02, -99221.83, -187500.02, -187500.02, 0.000, 0.000, 0.000, 17:32:15.082
89, 35218.88, -89231.94, -187500.02, -187500.02, -187500.02, -99134.54, -187500.02, -187500.02, 0.000, 0.000, 0.000, 17:32:15.082
90, 35197.43, -89159.34, -187500.02, -187500.02, -187500.02, -99034.79, -187500.02, -187500.02, 0.000, 0.000, 0.000, 17:32:15.082
91, 35162.49, -89282.70, -187500.02, -187500.02, -187500.02, -99185.35, -187500.02, -187500.02, 0.000, 0.000, 0.000, 17:32:15.082
92, 35188.98, -89362.38, -187500.02, -187500.02, -187500.02, -99307.26, -187500.02, -187500.02, 0.000, 0.000, 0.000, 17:32:15.082
93, 35221.74, -89246.47, -187500.02, -187500.02, -187500.02, -99192.32, -187500.02, -187500.02, 0.000, 0.000, 0.000, 17:32:15.083
94, 35197.56, -89103.23, -187500.02, -187500.02, -187500.02, -99017.38, -187500.02, -187500.02, 0.000, 0.000, 0.000, 17:32:15.083
95, 35153.66, -89198.39, -187500.02, -187500.02, -187500.02, -99129.11, -187500.02, -187500.02, 0.000, 0.000, 0.000, 17:32:15.083
96, 35177.71, -89332.07, -187500.02, -187500.02, -187500.02, -99307.37, -187500.02, -187500.02, 0.164, 0.000, 1.016, 17:32:15.083
97, 35193.96, -89268.22, -187500.02, -187500.02, -187500.02, -99250.15, -187500.02, -187500.02, 0.000, 0.000, 0.000, 17:32:15.083
98, 35193.18, -89019.33, -187500.02, -187500.02, -187500.02, -98966.46, -187500.02, -187500.02, 0.000, 0.000, 0.000, 17:32:15.083
99, 35162.29, -89119.64, -187500.02, -187500.02, -187500.02, -99068.34, -187500.02, -187500.02, 0.000, 0.000, 0.000, 17:32:15.084
100, 35180.26, -89286.90, -187500.02, -187500.02, -187500.02, -99286.20, -187500.02, -187500.02, 0.000, 0.000, 0.000, 17:32:15.084
101, 35188.93, -89328.19, -187500.02, -187500.02, -187500.02, -99345.32, -187500.02, -187500.02, 0.000, 0.000, 0.000, 17:32:15.084
102, 35197.92, -89184.77, -187500.02, -187500.02, -187500.02, -99174.84, -187500.02, -187500.02, 0.000, 0.000, 0.000, 17:32:15.084
103, 35167.72, -89199.06, -187500.02, -187500.02, -187500.02, -99184.09, -187500.02, -187500.02, 0.000, 0.000, 0.000, 17:32:15.084
104, 35157.68, -89350.83, -187500.02, -187500.02, -187500.02, -99382.24, -187500.02, -187500.02, 0.000, 0.000, 0.000, 17:32:15.084
105, 35162.71, -89419.24, -187500.02, -187500.02, -187500.02, -99473.55, -187500.02, -187500.02, 0.000, 0.000, 0.000, 17:32:15.084
106, 35182.81, -89219.58, -187500.02, -187500.02, -187500.02, -99252.16, -187500.02, -187500.02, 0.166, -0.002, 1.014, 17:32:15.085
107, 35174.67, -89218.59, -187500.02, -187500.02, -187500.02, -99232.94, -187500.02, -187500.02, 0.000, 0.000, 0.000, 17:32:15.085
108, 35160.45, -89383.53, -187500.02, -187500.02, -187500.02, -99441.99, -187500.02, -187500.02, 0.000, 0.000, 0.000, 17:32:15.085
109, 35181.62, -89422.27, -187500.02, -187500.02, -187500.02, -99513.31, -187500.02, -187500.02, 0.000, 0.000, 0.000, 17:32:15.085
110, 35203.84, -89220.94, -187500.02, -187500.02, -187500.02, -99296.93, -187500.02, -187500.02, 0.000, 0.000, 0.000, 17:32:15.085
111, 35193.56, -89076.48, -187500.02, -187500.02, -187500.02, -99121.69, -187500.02, -187500.02, 0.000, 0.000, 0.000, 17:32:15.085
112, 35168.61, -89209.74, -187500.02, -187500.02, -187500.02, -99288.03, -187500.02, -187500.02, 0.000, 0.000, 0.000, 17:32:15.086
113, 35191.37, -89354.18, -187500.02, -187500.02, -187500.02, -99469.71, -187500.02, -187500.02, 0.000, 0.000, 0.000, 17:32:15.086
114, 35199.05, -89305.23, -187500.02, -187500.02, -187500.02, -99413.80, -187500.02, -187500.02, 0.000, 0.000, 0.000, 17:32:15.086
115, 35184.19, -89137.86, -187500.02, -187500.02, -187500.02, -99213.91, -187500.02, -187500.02, 0.000, 0.000, 0.000, 17:32:15.086
116, 35176.21, -89238.02, -187500.02, -187500.02, -187500.02, -99336.38, -187500.02, -187500.02, 0.166, -0.006, 1.014, 17:32:15.086
117, 35192.39, -89367.05, -187500.02, -187500.02, -187500.02, -99507.82, -187500.02, -187500.02, 0.000, 0.000, 0.000, 17:32:15.086
118, 35218.48, -89271.84, -187500.02, -187500.02, -187500.02, -99413.05, -187500.02, -187500.02, 0.000, 0.000, 0.000, 17:32:15.087
119, 35214.05, -89107.39, -187500.02, -187500.02, -187500.02, -99213.47, -187500.02, -187500.02, 0.000, 0.000, 0.000, 17:32:15.087
120, 35166.78, -89207.35, -187500.02, -187500.02, -187500.02, -99322.45, -187500.02, -187500.02, 0.000, 0.000, 0.000, 17:32:15.087
121, 35171.07, -89354.63, -187500.02, -187500.02, -187500.02, -99513.63, -187500.02, -187500.02, 0.000, 0.000, 0.000, 17:32:15.540
122, 35196.22, -89278.61, -187500.02, -187500.02, -187500.02, -99447.73, -187500.02, -187500.02, 0.000, 0.000, 0.000, 17:32:15.540
123, 35211.77, -89041.73, -187500.02, -187500.02, -187500.02, -99175.60, -187500.02, -187500.02, 0.000, 0.000, 0.000, 17:32:15.541
124, 35172.35, -89150.27, -187500.02, -187500.02, -187500.02, -99281.62, -187500.02, -187500.02, 0.000, 0.000, 0.000, 17:32:15.541
125, 35170.91, -89335.02, -187500.02, -187500.02, -187500.02, -99514.05, -187500.02, -187500.02, 0.000, 0.000, 0.000, 17:32:15.541
126, 35194.99, -89384.38, -187500.02, -187500.02, -187500.02, -99584.26, -187500.02, -187500.02, 0.164, -0.006, 1.016, 17:32:15.541
127, 35216.42, -89194.27, -187500.02, -187500.02, -187500.02, -99371.05, -187500.02, -187500.02, 0.000, 0.000, 0.000, 17:32:15.541
128, 35198.39, -89185.71, -187500.02, -187500.02, -187500.02, -99353.03, -187500.02, -187500.02, 0.000, 0.000, 0.000, 17:32:15.541
129, 35169.46, -89329.99, -187500.02, -187500.02, -187500.02, -99541.61, -187500.02, -187500.02, 0.000, 0.000, 0.000, 17:32:15.541
130, 35175.32, -89366.12, -187500.02, -187500.02, -187500.02, -99601.80, -187500.02, -187500.02, 0.000, 0.000, 0.000, 17:32:15.541
131, 35208.04, -89174.70, -187500.02, -187500.02, -187500.02, -99389.17, -187500.02, -187500.02, 0.000, 0.000, 0.000, 17:32:15.541
132, 35205.88, -89106.73, -187500.02, -187500.02, -187500.02, -99298.98, -187500.02, -187500.02, 0.000, 0.000, 0.000, 17:32:15.541
133, 35175.70, -89246.09, -187500.02, -187500.02, -187500.02, -99475.56, -187500.02, -187500.02, 0.000, 0.000, 0.000, 17:32:15.541
134, 35190.94, -89383.44, -187500.02, -187500.02, -187500.02, -99644.23, -187500.02, -187500.02, 0.000, 0.000, 0.000, 17:32:15.542
135, 35191.64, -89290.43, -187500.02, -187500.02, -187500.02, -99538.71, -187500.02, -187500.02, 0.000, 0.000, 0.000, 17:32:15.542
136, 35185.04, -89160.62, -187500.02, -187500.02, -187500.02, -99379.72, -187500.02, -187500.02, 0.164, -0.004, 1.014, 17:32:15.542
137, 35180.41, -89287.46, -187500.02, -187500.02, -187500.02, -99535.84, -187500.02, -187500.02, 0.000, 0.000, 0.000, 17:32:15.542
138, 35191.95, -89411.24, -187500.02, -187500.02, -187500.02, -99698.19, -187500.02, -187500.02, 0.000, 0.000, 0.000, 17:32:15.542
139, 35193.56, -89332.70, -187500.02, -187500.02, -187500.02, -99614.81, -187500.02, -187500.02, 0.000, 0.000, 0.000, 17:32:15.542
140, 35189.51, -89187.19, -187500.02, -187500.02, -187500.02, -99437.07, -187500.02, -187500.02, 0.000, 0.000, 0.000, 17:32:15.542
141, 35170.13, -89298.39, -187500.02, -187500.02, -187500.02, -99568.91, -187500.02, -187500.02, 0.000, 0.000, 0.000, 17:32:15.542
142, 35173.73, -89449.09, -187500.02, -187500.02, -187500.02, -99763.41, -187500.02, -187500.02, 0.000, 0.000, 0.000, 17:32:15.542
143, 35186.25, -89355.61, -187500.02, -187500.02, -187500.02, -99672.55, -187500.02, -187500.02, 0.000, 0.000, 0.000, 17:32:15.542
144, 35171.52, -89117.16, -187500.02, -187500.02, -187500.02, -99397.45, -187500.02, -187500.02, 0.000, 0.000, 0.000, 17:32:15.542
145, 35181.67, -89190.03, -187500.02, -187500.02, -187500.02, -99477.27, -187500.02, -187500.02, 0.162, -0.004, 1.012, 17:32:15.542
146, 35189.96, -89413.16, -187500.02, -187500.02, -187500.02, -99748.52, -187500.02, -187500.02, 0.000, 0.000, 0.000, 17:32:15.543
147, 35190.09, -89479.55, -187500.02, -187500.02, -187500.02, -99826.59, -187500.02, -187500.02, 0.000, 0.000, 0.000, 17:32:15.543
148, 35196.69, -89285.90, -187500.02, -187500.02, -187500.02, -99605.52, -187500.02, -187500.02, 0.000, 0.000, 0.000, 17:32:15.543
149, 35155.20, -89302.08, -187500.02, -187500.02, -187500.02, -99624.23, -187500.02, -187500.02, 0.000, 0.000, 0.000, 17:32:15.543
150, 35135.06, -89428.81, -187500.02, -187500.02, -187500.02, -99797.74, -187500.02, -187500.02, 0.000, 0.000, 0.000, 17:32:15.543
151, 35158.64, -89411.42, -187500.02, -187500.02, -187500.02, -99800.22, -187500.02, -187500.02, 0.000, 0.000, 0.000, 17:32:15.543
152, 35198.09, -89233.64, -187500.02, -187500.02, -187500.02, -99596.33, -187500.02, -187500.02, 0.000, 0.000, 0.000, 17:32:15.543
153, 35157.15, -89261.20, -187500.02, -187500.02, -187500.02, -99608.58, -187500.02, -187500.02, 0.000, 0.000, 0.000, 17:32:15.543
154, 35137.66, -89376.89, -187500.02, -187500.02, -187500.02, -99766.36, -187500.02, -187500.02, 0.000, 0.000, 0.000, 17:32:15.543
155, 35174.07, -89383.33, -187500.02, -187500.02, -187500.02, -99800.40, -187500.02, -187500.02, 0.160, 0.000, 1.010, 17:32:15.543
156, 35202.63, -89232.59, -187500.02, -187500.02, -187500.02, -99631.42, -187500.02, -187500.02, 0.000, 0.000, 0.000, 17:32:15.543
157, 35186.56, -89212.38, -187500.02, -187500.02, -187500.02, -99589.36, -187500.02, -187500.02, 0.000, 0.000, 0.000, 17:32:15.543
158, 35162.82, -89455.63, -187500.02, -187500.02, -187500.02, -99872.82, -187500.02, -187500.02, 0.000, 0.000, 0.000, 17:32:15.544
159, 35173.15, -89531.79, -187500.02, -187500.02, -187500.02, -99984.58, -187500.02, -187500.02, 0.000, 0.000, 0.000, 17:32:15.544
160, 35209.32, -89376.04, -187500.02, -187500.02, -187500.02, -99818.69, -187500.02, -187500.02, 0.000, 0.000, 0.000, 17:32:15.544
161, 35198.95, -89283.66, -187500.02, -187500.02, -187500.02, -99698.77, -187500.02, -187500.02, 0.000, 0.000, 0.000, 17:32:15.544
162, 35148.95, -89433.51, -187500.02, -187500.02, -187500.02, -99878.34, -187500.02, -187500.02, 0.000, 0.000, 0.000, 17:32:15.544
163, 35158.45, -89535.97, -187500.02, -187500.02, -187500.02, -100018.51, -187500.02, -187500.02, 0.000, 0.000, 0.000, 17:32:15.544
164, 35209.50, -89405.68, -187500.02, -187500.02, -187500.02, -99886.57, -187500.02, -187500.02, 0.000, 0.000, 0.000, 17:32:15.544
165, 35206.66, -89275.45, -187500.02, -187500.02, -187500.02, -99723.80, -187500.02, -187500.02, 0.158, 0.004, 1.014, 17:32:15.544
166, 35177.06, -89393.92, -187500.02, -187500.02, -187500.02, -99858.18, -187500.02, -187500.02, 0.000, 0.000, 0.000, 17:32:15.544
167, 35191.68, -89500.00, -187500.02, -187500.02, -187500.02, -100006.75, -187500.02, -187500.02, 0.000, 0.000, 0.000, 17:32:15.544
168, 35205.36, -89399.30, -187500.02, -187500.02, -187500.02, -99913.95, -187500.02, -187500.02, 0.000, 0.000, 0.000, 17:32:15.544
169, 35204.93, -89189.60, -187500.02, -187500.02, -187500.02, -99670.74, -187500.02, -187500.02, 0.000, 0.000, 0.000, 17:32:15.545
170, 35162.11, -89280.22, -187500.02, -187500.02, -187500.02, -99764.86, -187500.02, -187500.02, 0.000, 0.000, 0.000, 17:32:15.545
171, 35177.51, -89491.40, -187500.02, -187500.02, -187500.02, -100022.69, -187500.02, -187500.02, 0.000, 0.000, 0.000, 17:32:15.545
172, 35196.11, -89535.07, -187500.02, -187500.02, -187500.02, -100082.34, -187500.02, -187500.02, 0.000, 0.000, 0.000, 17:32:15.545
173, 35189.76, -89333.23, -187500.02, -187500.02, -187500.02, -99853.60, -187500.02, -187500.02, 0.000, 0.000, 0.000, 17:32:15.545
174, 35172.17, -89368.58, -187500.02, -187500.02, -187500.02, -99886.34, -187500.02, -187500.02, 0.000, 0.000, 0.000, 17:32:15.545
175, 35195.08, -89527.07, -187500.02, -187500.02, -187500.02, -100093.79, -187500.02, -187500.02, 0.154, 0.004, 1.006, 17:32:15.545
176, 35215.64, -89545.04, -187500.02, -187500.02, -187500.02, -100136.93, -187500.02, -187500.02, 0.000, 0.000, 0.000, 17:32:15.545
177, 35226.75, -89330.24, -187500.02, -187500.02, -187500.02, -99898.41, -187500.02, -187500.02, 0.000, 0.000, 0.000, 17:32:15.545
178, 35201.34, -89268.17, -187500.02, -187500.02, -187500.02, -99818.87, -187500.02, -187500.02, 0.000, 0.000, 0.000, 17:32:15.545
179, 35182.92, -89473.45, -187500.02, -187500.02, -187500.02, -100065.38, -187500.02, -187500.02, 0.000, 0.000, 0.000, 17:32:15.545
180, 35217.83, -89615.05, -187500.02, -187500.02, -187500.02, -100236.87, -187500.02, -187500.02, 0.000, 0.000, 0.000, 17:32:15.545
181, 35228.25, -89432.81, -187500.02, -187500.02, -187500.02, -100041.02, -187500.02, -187500.02, 0.000, 0.000, 0.000, 17:32:15.545
182, 35199.35, -89362.72, -187500.02, -187500.02, -187500.02, -99948.08, -187500.02, -187500.02, 0.000, 0.000, 0.000, 17:32:15.545
183, 35173.04, -89484.00, -187500.02, -187500.02, -187500.02, -100106.69, -187500.02, -187500.02, 0.000, 0.000, 0.000, 17:32:15.546
184, 35194.50, -89535.68, -187500.02, -187500.02, -187500.02, -100194.62, -187500.02, -187500.02, 0.000, 0.000, 0.000, 17:32:15.546
185, 35229.57, -89390.05, -187500.02, -187500.02, -187500.02, -100038.83, -187500.02, -187500.02, 0.156, 0.012, 1.008, 17:32:15.546
186, 35226.59, -89271.63, -187500.02, -187500.02, -187500.02, -99888.06, -187500.02, -187500.02, 0.000, 0.000, 0.000, 17:32:15.546
187, 35167.29, -89448.37, -187500.02, -187500.02, -187500.02, -100088.49, -187500.02, -187500.02, 0.000, 0.000, 0.000, 17:32:15.546
188, 35168.84, -89596.77, -187500.02, -187500.02, -187500.02, -100274.68, -187500.02, -187500.02, 0.000, 0.000, 0.000, 17:32:15.546
189, 35228.02, -89485.01, -187500.02, -187500.02, -187500.02, -100161.45, -187500.02, -187500.02, 0.000, 0.000, 0.000, 17:32:15.546
190, 35225.41, -89341.33, -187500.02, -187500.02, -187500.02, -99986.66, -187500.02, -187500.02, 0.000, 0.000, 0.000, 17:32:15.546
191, 35200.46, -89442.16, -187500.02, -187500.02, -187500.02, -100107.23, -187500.02, -187500.02, 0.000, 0.000, 0.000, 17:32:15.546
192, 35224.92, -89592.63, -187500.02, -187500.02, -187500.02, -100304.91, -187500.02, -187500.02, 0.000, 0.000, 0.000, 17:32:15.546
193, 35237.08, -89530.40, -187500.02, -187500.02, -187500.02, -100251.15, -187500.02, -187500.02, 0.000, 0.000, 0.000, 17:32:15.546
194, 35227.98, -89358.18, -187500.02, -187500.02, -187500.02, -100046.56, -187500.02, -187500.02, 0.000, 0.000, 0.000, 17:32:15.546
195, 35169.75, -89434.94, -187500.02, -187500.02, -187500.02, -100125.40, -187500.02, -187500.02, 0.156, 0.006, 1.008, 17:32:15.546
196, 35181.98, -89568.96, -187500.02, -187500.02, -187500.02, -100303.27, -187500.02, -187500.02, 0.000, 0.000, 0.000, 17:32:15.547
197, 35213.29, -89523.67, -187500.02, -187500.02, -187500.02, -100269.77, -187500.02, -187500.02, 0.000, 0.000, 0.000, 17:32:15.547
198, 35212.73, -89271.66, -187500.02, -187500.02, -187500.02, -99986.32, -187500.02, -187500.02, 0.000, 0.000, 0.000, 17:32:15.547
199, 35175.18, -89325.34, -187500.02, -187500.02, -187500.02, -100027.27, -187500.02, -187500.02, 0.000, 0.000, 0.000, 17:32:15.547
200, 35166.82, -89593.37, -187500.02, -187500.02, -187500.02, -100336.55, -187500.02, -187500.02, 0.000, 0.000, 0.000, 17:32:15.547
201, 35195.88, -89681.32, -187500.02, -187500.02, -187500.02, -100445.77, -187500.02, -187500.02, 0.000, 0.000, 0.000, 17:32:15.547
202, 35222.50, -89505.03, -187500.02, -187500.02, -187500.02, -100248.45, -187500.02, -187500.02, 0.000, 0.000, 0.000, 17:32:15.547
203, 35181.29, -89447.92, -187500.02, -187500.02, -187500.02, -100176.72, -187500.02, -187500.02, 0.000, 0.000, 0.000, 17:32:15.547
204, 35165.62, -89577.95, -187500.02, -187500.02, -187500.02, -100348.96, -187500.02, -187500.02, 0.000, 0.000, 0.000, 17:32:15.547
205, 35195.14, -89634.74, -187500.02, -187500.02, -187500.02, -100435.23, -187500.02, -187500.02, 0.158, 0.014, 1.014, 17:32:15.547
206, 35210.46, -89458.54, -187500.02, -187500.02, -187500.02, -100244.13, -187500.02, -187500.02, 0.000, 0.000, 0.000, 17:32:15.547
207, 35187.59, -89319.42, -187500.02, -187500.02, -187500.02, -100078.13, -187500.02, -187500.02, 0.000, 0.000, 0.000, 17:32:15.547
208, 35167.65, -89489.59, -187500.02, -187500.02, -187500.02, -100282.75, -187500.02, -187500.02, 0.000, 0.000, 0.000, 17:32:15.547
209, 35189.31, -89650.85, -187500.02, -187500.02, -187500.02, -100484.48, -187500.02, -187500.02, 0.000, 0.000, 0.000, 17:32:15.548
210, 35195.64, -89539.07, -187500.02, -187500.02, -187500.02, -100367.55, -187500.02, -187500.02, 0.000, 0.000, 0.000, 17:32:15.548
211, 35193.74, -89393.92, -187500.02, -187500.02, -187500.02, -100192.12, -187500.02, -187500.02, 0.000, 0.000, 0.000, 17:32:15.548
212, 35156.77, -89519.90, -187500.02, -187500.02, -187500.02, -100341.05, -187500.02, -187500.02, 0.000, 0.000, 0.000, 17:32:15.548
213, 35158.64, -89663.28, -187500.02, -187500.02, -187500.02, -100524.42, -187500.02, -187500.02, 0.000, 0.000, 0.000, 17:32:15.548
214, 35185.36, -89559.77, -187500.02, -187500.02, -187500.02, -100420.64, -187500.02, -187500.02, 0.160, 0.012, 1.012, 17:32:15.548
215, 35186.27, -89395.76, -187500.02, -187500.02, -187500.02, -100221.09, -187500.02, -187500.02, 0.000, 0.000, 0.000, 17:32:15.548
216, 35141.10, -89482.23, -187500.02, -187500.02, -187500.02, -100315.99, -187500.02, -187500.02, 0.000, 0.000, 0.000, 17:32:15.548
217, 35162.22, -89663.82, -187500.02, -187500.02, -187500.02, -100541.32, -187500.02, -187500.02, 0.000, 0.000, 0.000, 17:32:15.548
218, 35172.75, -89676.60, -187500.02, -187500.02, -187500.02, -100564.41, -187500.02, -187500.02, 0.000, 0.000, 0.000, 17:32:15.549
219, 35184.86, -89509.03, -187500.02, -187500.02, -187500.02, -100367.40, -187500.02, -187500.02, 0.000, 0.000, 0.000, 17:32:15.549
220, 35140.00, -89562.66, -187500.02, -187500.02, -187500.02, -100423.01, -187500.02, -187500.02, 0.000, 0.000, 0.000, 17:32:15.549
221, 35156.10, -89674.21, -187500.02, -187500.02, -187500.02, -100578.76, -187500.02, -187500.02, 0.000, 0.000, 0.000, 17:32:15.549
222, 35183.86, -89669.25, -187500.02, -187500.02, -187500.02, -100588.81, -187500.02, -187500.02, 0.000, 0.000, 0.000, 17:32:15.549
223, 35180.53, -89482.68, -187500.02, -187500.02, -187500.02, -100374.93, -187500.02, -187500.02, 0.000, 0.000, 0.000, 17:32:15.549
224, 35146.29, -89456.80, -187500.02, -187500.02, -187500.02, -100334.95, -187500.02, -187500.02, 0.162, 0.016, 1.010, 17:32:15.549
225, 35143.07, -89593.52, -187500.02, -187500.02, -187500.02, -100511.79, -187500.02, -187500.02, 0.000, 0.000, 0.000, 17:32:15.549
226, 35174.40, -89709.59, -187500.02, -187500.02, -187500.02, -100653.57, -187500.02, -187500.02, 0.000, 0.000, 0.000, 17:32:15.549
227, 35191.90, -89552.98, -187500.02, -187500.02, -187500.02, -100478.62, -187500.02, -187500.02, 0.000, 0.000, 0.000, 17:32:15.549
228, 35171.65, -89523.34, -187500.02, -187500.02, -187500.02, -100429.54, -187500.02, -187500.02, 0.000, 0.000, 0.000, 17:32:15.549
229, 35153.84, -89711.92, -187500.02, -187500.02, -187500.02, -100657.59, -187500.02, -187500.02, 0.000, 0.000, 0.000, 17:32:15.550
230, 35176.75, -89801.23, -187500.02, -187500.02, -187500.02, -100778.02, -187500.02, -187500.02, 0.000, 0.000, 0.000, 17:32:15.550
231, 35199.68, -89593.74, -187500.02, -187500.02, -187500.02, -100557.59, -187500.02, -187500.02, 0.000, 0.000, 0.000, 17:32:15.550
232, 35167.63, -89494.91, -187500.02, -187500.02, -187500.02, -100429.76, -187500.02, -187500.02, 0.000, 0.000, 0.000, 17:32:15.550
233, 35118.75, -89665.72, -187500.02, -187500.02, -187500.02, -100630.63, -187500.02, -187500.02, 0.000, 0.000, 0.000, 17:32:15.550
234, 35150.33, -89761.74, -187500.02, -187500.02, -187500.02, -100763.27, -187500.02, -187500.02, 0.156, 0.010, 1.014, 17:32:15.550
235, 35204.87, -89604.23, -187500.02, -187500.02, -187500.02, -100597.73, -187500.02, -187500.02, 0.000, 0.000, 0.000, 17:32:15.550
236, 35220.47, -89457.16, -187500.02, -187500.02, -187500.02, -100414.47, -187500.02, -187500.02, 0.000, 0.000, 0.000, 17:32:15.550
237, 35164.30, -89602.04, -187500.02, -187500.02, -187500.02, -100579.98, -187500.02, -187500.02, 0.000, 0.000, 0.000, 17:32:15.550
238, 35167.12, -89780.72, -187500.02, -187500.02, -187500.02, -100800.93, -187500.02, -187500.02, 0.000, 0.000, 0.000, 17:32:15.550
239, 35196.00, -89768.11, -187500.02, -187500.02, -187500.02, -100791.26, -187500.02, -187500.02, 0.000, 0.000, 0.000, 17:32:15.550
240, 35207.89, -89572.58, -187500.02, -187500.02, -187500.02, -100562.75, -187500.02, -187500.02, 0.000, 0.000, 0.000, 17:32:15.550
241, 35175.18, -89655.05, -187500.02, -187500.02, -187500.02, -100654.75, -187500.02, -187500.02, 0.000, 0.000, 0.000, 17:32:16.022
242, 35171.72, -89776.09, -187500.02, -187500.02, -187500.02, -100817.43, -187500.02, -187500.02, 0.000, 0.000, 0.000, 17:32:16.022
243, 35183.10, -89755.80, -187500.02, -187500.02, -187500.02, -100804.77, -187500.02, -187500.02, 0.000, 0.000, 0.000, 17:32:16.022
244, 35199.32, -89600.98, -187500.02, -187500.02, -187500.02, -100617.78, -187500.02, -187500.02, 0.154, 0.014, 1.018, 17:32:16.023
245, 35165.37, -89627.30, -187500.02, -187500.02, -187500.02, -100640.56, -187500.02, -187500.02, 0.000, 0.000, 0.000, 17:32:16.023
246, 35150.75, -89779.51, -187500.02, -187500.02, -187500.02, -100835.60, -187500.02, -187500.02, 0.000, 0.000, 0.000, 17:32:16.023
247, 35167.21, -89771.13, -187500.02, -187500.02, -187500.02, -100843.83, -187500.02, -187500.02, 0.000, 0.000, 0.000, 17:32:16.024
248, 35173.22, -89558.50, -187500.02, -187500.02, -187500.02, -100604.21, -187500.02, -187500.02, 0.000, 0.000, 0.000, 17:32:16.024
249, 35138.42, -89555.91, -187500.02, -187500.02, -187500.02, -100586.24, -187500.02, -187500.02, 0.000, 0.000, 0.000, 17:32:16.025
250, 35154.29, -89786.30, -187500.02, -187500.02, -187500.02, -100858.04, -187500.02, -187500.02, 0.000, 0.000, 0.000, 17:32:16.025
251, 35191.90, -89874.93, -187500.02, -187500.02, -187500.02, -100972.80, -187500.02, -187500.02, 0.000, 0.000, 0.000, 17:32:16.025
252, 35200.18, -89701.82, -187500.02, -187500.02, -187500.02, -100780.16, -187500.02, -187500.02, 0.000, 0.000, 0.000, 17:32:16.026
253, 35159.47, -89665.05, -187500.02, -187500.02, -187500.02, -100720.16, -187500.02, -187500.02, 0.000, 0.000, 0.000, 17:32:16.026
254, 35134.57, -89803.49, -187500.02, -187500.02, -187500.02, -100894.77, -187500.02, -187500.02, 0.156, 0.010, 1.018, 17:32:16.026
255, 35156.12, -89846.16, -187500.02, -187500.02, -187500.02, -100968.05, -187500.02, -187500.02, 0.000, 0.000, 0.000, 17:32:16.027
0, 35194.23, -89713.84, -187500.02, -187500.02, -187500.02, -100823.44, -187500.02, -187500.02, 0.000, 0.000, 0.000, 17:32:16.027
1, 35206.75, -89546.54, -187500.02, -187500.02, -187500.02, -100624.24, -187500.02, -187500.02, 0.000, 0.000, 0.000, 17:32:16.027
2, 35155.40, -89693.88, -187500.02, -187500.02, -187500.02, -100799.79, -187500.02, -187500.02, 0.000, 0.000, 0.000, 17:32:16.028
3, 35161.28, -89876.41, -187500.02, -187500.02, -187500.02, -101021.77, -187500.02, -187500.02, 0.000, 0.000, 0.000, 17:32:16.028
4, 35185.58, -89811.74, -187500.02, -187500.02, -187500.02, -100952.95, -187500.02, -187500.02, 0.000, 0.000, 0.000, 17:32:16.028
5, 35194.45, -89659.57, -187500.02, -187500.02, -187500.02, -100769.77, -187500.02, -187500.02, 0.000, 0.000, 0.000, 17:32:16.029
6, 35157.46, -89751.41, -187500.02, -187500.02, -187500.02, -100878.72, -187500.02, -187500.02, 0.000, 0.000, 0.000, 17:32:16.029
7, 35171.18, -89881.19, -187500.02, -187500.02, -187500.02, -101047.96, -187500.02, -187500.02, 0.000, 0.000, 0.000, 17:32:16.030
8, 35194.05, -89796.92, -187500.02, -187500.02, -187500.02, -100965.17, -187500.02, -187500.02, 0.156, 0.012, 1.012, 17:32:16.030
9, 35190.56, -89610.76, -187500.02, -187500.02, -187500.02, -100744.96, -187500.02, -187500.02, 0.000, 0.000, 0.000, 17:32:16.030
10, 35160.66, -89686.86, -187500.02, -187500.02, -187500.02, -100827.62, -187500.02, -187500.02, 0.000, 0.000, 0.000, 17:32:16.031
11, 35155.70, -89822.96, -187500.02, -187500.02, -187500.02, -101006.37, -187500.02, -187500.02, 0.000, 0.000, 0.000, 17:32:16.031
12, 35186.99, -89818.60, -187500.02, -187500.02, -187500.02, -101011.82, -187500.02, -187500.02, 0.000, 0.000, 0.000, 17:32:16.031
13, 35203.80, -89583.64, -187500.02, -187500.02, -187500.02, -100744.77, -187500.02, -187500.02, 0.000, 0.000, 0.000, 17:32:16.032
14, 35161.57, -89615.27, -187500.02, -187500.02, -187500.02, -100768.01, -187500.02, -187500.02, 0.000, 0.000, 0.000, 17:32:16.032
15, 35146.17, -89830.43, -187500.02, -187500.02, -187500.02, -101027.69, -187500.02, -187500.02, 0.000, 0.000, 0.000, 17:32:16.032
16, 35182.23, -89909.64, -187500.02, -187500.02, -187500.02, -101126.28, -187500.02, -187500.02, 0.000, 0.000, 0.000, 17:32:16.033
17, 35189.60, -89734.92, -187500.02, -187500.02, -187500.02, -100927.31, -187500.02, -187500.02, 0.154, 0.018, 1.008, 17:32:16.033
18, 35156.52, -89731.43, -187500.02, -187500.02, -187500.02, -100908.76, -187500.02, -187500.02, 0.000, 0.000, 0.000, 17:32:16.034
19, 35148.88, -89841.80, -187500.02, -187500.02, -187500.02, -101058.83, -187500.02, -187500.02, 0.000, 0.000, 0.000, 17:32:16.034
20, 35187.10, -89893.33, -187500.02, -187500.02, -187500.02, -101136.14, -187500.02, -187500.02, 0.000, 0.000, 0.000, 17:32:16.035
21, 35207.37, -89723.88, -187500.02, -187500.02, -187500.02, -100948.16, -187500.02, -187500.02, 0.000, 0.000, 0.000, 17:32:16.035
22, 35168.93, -89622.20, -187500.02, -187500.02, -187500.02, -100820.94, -187500.02, -187500.02, 0.000, 0.000, 0.000, 17:32:16.035
23, 35142.64, -89773.25, -187500.02, -187500.02, -187500.02, -101004.53, -187500.02, -187500.02, 0.000, 0.000, 0.000, 17:32:16.036
24, 35187.46, -89913.58, -187500.02, -187500.02, -187500.02, -101179.70, -187500.02, -187500.02, 0.000, 0.000, 0.000, 17:32:16.036
25, 35199.28, -89801.20, -187500.02, -187500.02, -187500.02, -101060.28, -187500.02, -187500.02, 0.000, 0.000, 0.000, 17:32:16.037
26, 35182.29, -89668.29, -187500.02, -187500.02, -187500.02, -100898.48, -187500.02, -187500.02, 0.000, 0.000, 0.000, 17:32:16.037
27, 35142.89, -89815.14, -187500.02, -187500.02, -187500.02, -101072.39, -187500.02, -187500.02, 0.154, 0.020, 1.004, 17:32:16.038
28, 35158.38, -89939.05, -187500.02, -187500.02, -187500.02, -101236.16, -187500.02, -187500.02, 0.000, 0.000, 0.000, 17:32:16.038
29, 35204.96, -89819.14, -187500.02, -187500.02, -187500.02, -101115.11, -187500.02, -187500.02, 0.000, 0.000, 0.000, 17:32:16.038
30, 35202.90, -89662.84, -187500.02, -187500.02, -187500.02, -100925.48, -187500.02, -187500.02, 0.000, 0.000, 0.000, 17:32:16.039
31, 35154.15, -89794.04, -187500.02, -187500.02, -187500.02, -101072.04, -187500.02, -187500.02, 0.000, 0.000, 0.000, 17:32:16.039
32, 35162.24, -89912.93, -187500.02, -187500.02, -187500.02, -101235.09, -187500.02, -187500.02, 0.000, 0.000, 0.000, 17:32:16.039
33, 35185.11, -89817.64, -187500.02, -187500.02, -187500.02, -101147.25, -187500.02, -187500.02, 0.000, 0.000, 0.000, 17:32:16.040
34, 35188.64, -89590.13, -187500.02, -187500.02, -187500.02, -100885.22, -187500.02, -187500.02, 0.000, 0.000, 0.000, 17:32:16.040
35, 35142.33, -89717.33, -187500.02, -187500.02, -187500.02, -101015.17, -187500.02, -187500.02, 0.000, 0.000, 0.000, 17:32:16.040
36, 35133.79, -89911.79, -187500.02, -187500.02, -187500.02, -101255.27, -187500.02, -187500.02, 0.000, 0.000, 0.000, 17:32:16.041
37, 35178.65, -89946.99, -187500.02, -187500.02, -187500.02, -101304.14, -187500.02, -187500.02, 0.158, 0.018, 1.010, 17:32:16.041
38, 35209.81, -89745.31, -187500.02, -187500.02, -187500.02, -101073.49, -187500.02, -187500.02, 0.000, 0.000, 0.000, 17:32:16.042
39, 35171.50, -89764.67, -187500.02, -187500.02, -187500.02, -101085.47, -187500.02, -187500.02, 0.000, 0.000, 0.000, 17:32:16.042
40, 35143.49, -89912.21, -187500.02, -187500.02, -187500.02, -101276.06, -187500.02, -187500.02, 0.000, 0.000, 0.000, 17:32:16.042
41, 35146.38, -89940.16, -187500.02, -187500.02, -187500.02, -101323.98, -187500.02, -187500.02, 0.000, 0.000, 0.000, 17:32:16.043
42, 35195.37, -89733.47, -187500.02, -187500.02, -187500.02, -101093.56, -187500.02, -187500.02, 0.000, 0.000, 0.000, 17:32:16.043
43, 35188.71, -89709.64, -187500.02, -187500.02, -187500.02, -101052.01, -187500.02, -187500.02, 0.000, 0.000, 0.000, 17:32:16.043
44, 35163.45, -89916.51, -187500.02, -187500.02, -187500.02, -101298.80, -187500.02, -187500.02, 0.000, 0.000, 0.000, 17:32:16.044
45, 35183.41, -90025.78, -187500.02, -187500.02, -187500.02, -101436.48, -187500.02, -187500.02, 0.000, 0.000, 0.000, 17:32:16.044
46, 35199.73, -89850.59, -187500.02, -187500.02, -187500.02, -101245.20, -187500.02, -187500.02, 0.000, 0.000, 0.000, 17:32:16.044
47, 35166.29, -89753.38, -187500.02, -187500.02, -187500.02, -101121.32, -187500.02, -187500.02, 0.154, 0.026, 1.012, 17:32:16.045
48, 35142.20, -89903.67, -187500.02, -187500.02, -187500.02, -101305.48, -187500.02, -187500.02, 0.000, 0.000, 0.000, 17:32:16.045
49, 35178.94, -89976.68, -187500.02, -187500.02, -187500.02, -101412.77, -187500.02, -187500.02, 0.000, 0.000, 0.000, 17:32:16.045
50, 35211.93, -89817.55, -187500.02, -187500.02, -187500.02, -101245.17, -187500.02, -187500.02, 0.000, 0.000, 0.000, 17:32:16.046
51, 35204.62, -89709.48, -187500.02, -187500.02, -187500.02, -101104.40, -187500.02, -187500.02, 0.000, 0.000, 0.000, 17:32:16.046
52, 35166.73, -89863.53, -187500.02, -187500.02, -187500.02, -101280.69, -187500.02, -187500.02, 0.000, 0.000, 0.000, 17:32:16.046
53, 35176.44, -89984.39, -187500.02, -187500.02, -187500.02, -101439.34, -187500.02, -187500.02, 0.000, 0.000, 0.000, 17:32:16.047
54, 35213.18, -89892.92, -187500.02, -187500.02, -187500.02, -101346.59, -187500.02, -187500.02, 0.000, 0.000, 0.000, 17:32:16.047
55, 35219.31, -89701.03, -187500.02, -187500.02, -187500.02, -101122.17, -187500.02, -187500.02, 0.000, 0.000, 0.000, 17:32:16.047
56, 35178.58, -89806.96, -187500.02, -187500.02, -187500.02, -101241.55, -187500.02, -187500.02, 0.000, 0.000, 0.000, 17:32:16.048
57, 35170.71, -89989.70, -187500.02, -187500.02, -187500.02, -101466.66, -187500.02, -187500.02, 0.158, 0.030, 1.010, 17:32:16.048
58, 35185.36, -89966.13, -187500.02, -187500.02, -187500.02, -101449.83, -187500.02, -187500.02, 0.000, 0.000, 0.000, 17:32:16.049
59, 35208.82, -89772.56, -187500.02, -187500.02, -187500.02, -101225.57, -187500.02, -187500.02, 0.000, 0.000, 0.000, 17:32:16.049
60, 35194.70, -89849.72, -187500.02, -187500.02, -187500.02, -101301.88, -187500.02, -187500.02, 0.000, 0.000, 0.000, 17:32:16.049
61, 35192.13, -90003.19, -187500.02, -187500.02, -187500.02, -101499.52, -187500.02, -187500.02, 0.000, 0.000, 0.000, 17:32:16.050
62, 35203.17, -89984.43, -187500.02, -187500.02, -187500.02, -101496.30, -187500.02, -187500.02, 0.000, 0.000, 0.000, 17:32:16.050
63, 35205.43, -89765.54, -187500.02, -187500.02, -187500.02, -101247.92, -187500.02, -187500.02, 0.000, 0.000, 0.000, 17:32:16.050
64, 35163.11, -89749.18, -187500.02, -187500.02, -187500.02, -101218.69, -187500.02, -187500.02, 0.000, 0.000, 0.000, 17:32:16.050
65, 35150.00, -89894.35, -187500.02, -187500.02, -187500.02, -101405.70, -187500.02, -187500.02, 0.000, 0.000, 0.000, 17:32:16.050
66, 35186.85, -89972.34, -187500.02, -187500.02, -187500.02, -101507.67, -187500.02, -187500.02, 0.000, 0.000, 0.000, 17:32:16.051
67, 35206.66, -89851.77, -187500.02, -187500.02, -187500.02, -101365.74, -187500.02, -187500.02, 0.158, 0.030, 1.010, 17:32:16.051
68, 35182.96, -89833.63, -187500.02, -187500.02, -187500.02, -101326.73, -187500.02, -187500.02, 0.000, 0.000, 0.000, 17:32:16.051
69, 35156.45, -89991.59, -187500.02, -187500.02, -187500.02, -101520.05, -187500.02, -187500.02, 0.000, 0.000, 0.000, 17:32:16.051
70, 35194.88, -90073.03, -187500.02, -187500.02, -187500.02, -101630.02, -187500.02, -187500.02, 0.000, 0.000, 0.000, 17:32:16.051
71, 35205.00, -89940.13, -187500.02, -187500.02, -187500.02, -101483.40, -187500.02, -187500.02, 0.000, 0.000, 0.000, 17:32:16.051
72, 35183.57, -89819.41, -187500.02, -187500.02, -187500.02, -101333.46, -187500.02, -187500.02, 0.000, 0.000, 0.000, 17:32:16.051
73, 35167.41, -89915.12, -187500.02, -187500.02, -187500.02, -101456.29, -187500.02, -187500.02, 0.000, 0.000, 0.000, 17:32:16.052
74, 35173.53, -90031.91, -187500.02, -187500.02, -187500.02, -101608.55, -187500.02, -187500.02, 0.000, 0.000, 0.000, 17:32:16.052
75, 35197.43, -89894.13, -187500.02, -187500.02, -187500.02, -101464.00, -187500.02, -187500.02, 0.000, 0.000, 0.000, 17:32:16.052
76, 35191.95, -89729.53, -187500.02, -187500.02, -187500.02, -101264.46, -187500.02, -187500.02, 0.000, 0.000, 0.000, 17:32:16.052
77, 35147.80, -89899.67, -187500.02, -187500.02, -187500.02, -101454.25, -187500.02, -187500.02, 0.154, 0.030, 1.014, 17:32:16.052
78, 35168.37, -90041.02, -187500.02, -187500.02, -187500.02, -101634.72, -187500.02, -187500.02, 0.000, 0.000, 0.000, 17:32:16.052
79, 35189.31, -89962.17, -187500.02, -187500.02, -187500.02, -101556.47, -187500.02, -187500.02, 0.000, 0.000, 0.000, 17:32:16.052
80, 35208.06, -89785.19, -187500.02, -187500.02, -187500.02, -101346.70, -187500.02, -187500.02, 0.000, 0.000, 0.000, 17:32:16.053
81, 35165.64, -89885.46, -187500.02, -187500.02, -187500.02, -101456.45, -187500.02, -187500.02, 0.000, 0.000, 0.000, 17:32:16.053
82, 35166.25, -90002.85, -187500.02, -187500.02, -187500.02, -101616.01, -187500.02, -187500.02, 0.000, 0.000, 0.000, 17:32:16.053
83, 35185.49, -89974.73, -187500.02, -187500.02, -187500.02, -101597.19, -187500.02, -187500.02, 0.000, 0.000, 0.000, 17:32:16.053
84, 35199.73, -89799.88, -187500.02, -187500.02, -187500.02, -101392.07, -187500.02, -187500.02, 0.000, 0.000, 0.000, 17:32:16.053
85, 35181.67, -89819.50, -187500.02, -187500.02, -187500.02, -101407.56, -187500.02, -187500.02, 0.000, 0.000, 0.000, 17:32:16.053
86, 35166.60, -89964.90, -187500.02, -187500.02, -187500.02, -101596.16, -187500.02, -187500.02, 0.152, 0.032, 1.014, 17:32:16.053
87, 35173.69, -90021.07, -187500.02, -187500.02, -187500.02, -101671.17, -187500.02, -187500.02, 0.000, 0.000, 0.000, 17:32:16.054
88, 35203.53, -89870.08, -187500.02, -187500.02, -187500.02, -101495.47, -187500.02, -187500.02, 0.000, 0.000, 0.000, 17:32:16.054
89, 35185.51, -89875.45, -187500.02, -187500.02, -187500.02, -101487.55, -187500.02, -187500.02, 0.000, 0.000, 0.000, 17:32:16.054
90, 35174.40, -90032.80, -187500.02, -187500.02, -187500.02, -101684.05, -187500.02, -187500.02, 0.000, 0.000, 0.000, 17:32:16.054
91, 35203.62, -90065.62, -187500.02, -187500.02, -187500.02, -101740.38, -187500.02, -187500.02, 0.000, 0.000, 0.000, 17:32:16.054
92, 35226.75, -89860.98, -187500.02, -187500.02, -187500.02, -101514.89, -187500.02, -187500.02, 0.000, 0.000, 0.000, 17:32:16.054
93, 35196.69, -89834.05, -187500.02, -187500.02, -187500.02, -101462.45, -187500.02, -187500.02, 0.000, 0.000, 0.000, 17:32:16.054
94, 35162.09, -89991.09, -187500.02, -187500.02, -187500.02, -101652.98, -187500.02, -187500.02, 0.000, 0.000, 0.000, 17:32:16.055
95, 35179.50, -90071.45, -187500.02, -187500.02, -187500.02, -101761.59, -187500.02, -187500.02, 0.000, 0.000, 0.000, 17:32:16.055
96, 35200.53, -89924.66, -187500.02, -187500.02, -187500.02, -101600.39, -187500.02, -187500.02, 0.154, 0.028, 1.010, 17:32:16.055
97, 35200.96, -89765.67, -187500.02, -187500.02, -187500.02, -101411.25, -187500.02, -187500.02, 0.000, 0.000, 0.000, 17:32:16.055
98, 35152.77, -89889.13, -187500.02, -187500.02, -187500.02, -101563.06, -187500.02, -187500.02, 0.000, 0.000, 0.000, 17:32:16.055
99, 35151.20, -90020.24, -187500.02, -187500.02, -187500.02, -101730.56, -187500.02, -187500.02, 0.000, 0.000, 0.000, 17:32:16.055
100, 35190.74, -89985.64, -187500.02, -187500.02, -187500.02, -101691.70, -187500.02, -187500.02, 0.000, 0.000, 0.000, 17:32:16.055
101, 35199.50, -89866.02, -187500.02, -187500.02, -187500.02, -101541.36, -187500.02, -187500.02, 0.000, 0.000, 0.000, 17:32:16.056
102, 35168.82, -89983.67, -187500.02, -187500.02, -187500.02, -101676.70, -187500.02, -187500.02, 0.000, 0.000, 0.000, 17:32:16.056
103, 35170.49, -90060.18, -187500.02, -187500.02, -187500.02, -101792.75, -187500.02, -187500.02, 0.000, 0.000, 0.000, 17:32:16.056
104, 35193.02, -89972.52, -187500.02, -187500.02, -187500.02, -101705.77, -187500.02, -187500.02, 0.000, 0.000, 0.000, 17:32:16.056
105, 35213.36, -89816.80, -187500.02, -187500.02, -187500.02, -101515.88, -187500.02, -187500.02, 0.000, 0.000, 0.000, 17:32:16.502
106, 35165.42, -89902.22, -187500.02, -187500.02, -187500.02, -101606.18, -187500.02, -187500.02, 0.152, 0.030, 1.010, 17:32:16.502
107, 35154.02, -90054.48, -187500.02, -187500.02, -187500.02, -101798.94, -187500.02, -187500.02, 0.000, 0.000, 0.000, 17:32:16.502
108, 35171.09, -90047.77, -187500.02, -187500.02, -187500.02, -101800.99, -187500.02, -187500.02, 0.000, 0.000, 0.000, 17:32:16.502
109, 35199.44, -89753.12, -187500.02, -187500.02, -187500.02, -101471.44, -187500.02, -187500.02, 0.000, 0.000, 0.000, 17:32:16.503
110, 35194.81, -89810.29, -187500.02, -187500.02, -187500.02, -101520.26, -187500.02, -187500.02, 0.000, 0.000, 0.000, 17:32:16.503
111, 35177.40, -90009.17, -187500.02, -187500.02, -187500.02, -101761.05, -187500.02, -187500.02, 0.000, 0.000, 0.000, 17:32:16.503
112, 35199.26, -90070.98, -187500.02, -187500.02, -187500.02, -101841.88, -187500.02, -187500.02, 0.000, 0.000, 0.000, 17:32:16.503
113, 35211.66, -89920.75, -187500.02, -187500.02, -187500.02, -101669.41, -187500.02, -187500.02, 0.000, 0.000, 0.000, 17:32:16.503
114, 35174.92, -89932.29, -187500.02, -187500.02, -187500.02, -101669.01, -187500.02, -187500.02, 0.000, 0.000, 0.000, 17:32:16.503
115, 35169.20, -90090.89, -187500.02, -187500.02, -187500.02, -101869.59, -187500.02, -187500.02, 0.000, 0.000, 0.000, 17:32:16.503
116, 35205.52, -90142.64, -187500.02, -187500.02, -187500.02, -101948.18, -187500.02, -187500.02, 0.158, 0.028, 1.016, 17:32:16.504
117, 35222.14, -89951.33, -187500.02, -187500.02, -187500.02, -101739.41, -187500.02, -187500.02, 0.000, 0.000, 0.000, 17:32:16.504
118, 35196.82, -89874.51, -187500.02, -187500.02, -187500.02, -101640.64, -187500.02, -187500.02, 0.000, 0.000, 0.000, 17:32:16.504
119, 35170.80, -90013.40, -187500.02, -187500.02, -187500.02, -101813.80, -187500.02, -187500.02, 0.000, 0.000, 0.000, 17:32:16.504
120, 35156.95, -90115.23, -187500.02, -187500.02, -187500.02, -101947.22, -187500.02, -187500.02, 0.000, 0.000, 0.000, 17:32:16.504
121, 35187.21, -89933.73, -187500.02, -187500.02, -187500.02, -101753.38, -187500.02, -187500.02, 0.000, 0.000, 0.000, 17:32:16.504
122, 35234.24, -89763.77, -187500.02, -187500.02, -187500.02, -101549.11, -187500.02, -187500.02, 0.000, 0.000, 0.000, 17:32:16.505
123, 35210.79, -89900.93, -187500.02, -187500.02, -187500.02, -101709.09, -187500.02, -187500.02, 0.000, 0.000, 0.000, 17:32:16.505
124, 35201.98, -90066.02, -187500.02, -187500.02, -187500.02, -101912.38, -187500.02, -187500.02, 0.000, 0.000, 0.000, 17:32:16.505
125, 35202.19, -90011.59, -187500.02, -187500.02, -187500.02, -101854.35, -187500.02, -187500.02, 0.000, 0.000, 0.000, 17:32:16.505
126, 35203.28, -89885.55, -187500.02, -187500.02, -187500.02, -101693.88, -187500.02, -187500.02, 0.158, 0.028, 1.016, 17:32:16.505
127, 35181.13, -89969.48, -187500.02, -187500.02, -187500.02, -101792.52, -187500.02, -187500.02, 0.000, 0.000, 0.000, 17:32:16.505
128, 35192.42, -90118.45, -187500.02, -187500.02, -187500.02, -101982.16, -187500.02, -187500.02, 0.000, 0.000, 0.000, 17:32:16.505
129, 35201.71, -90034.74, -187500.02, -187500.02, -187500.02, -101902.80, -187500.02, -187500.02, 0.000, 0.000, 0.000, 17:32:16.506
130, 35196.60, -89798.84, -187500.02, -187500.02, -187500.02, -101634.14, -187500.02, -187500.02, 0.000, 0.000, 0.000, 17:32:16.506
131, 35164.46, -89834.79, -187500.02, -187500.02, -187500.02, -101669.56, -187500.02, -187500.02, 0.000, 0.000, 0.000, 17:32:16.506
132, 35167.14, -90064.25, -187500.02, -187500.02, -187500.02, -101938.41, -187500.02, -187500.02, 0.000, 0.000, 0.000, 17:32:16.506
133, 35201.14, -90111.10, -187500.02, -187500.02, -187500.02, -101997.35, -187500.02, -187500.02, 0.000, 0.000, 0.000, 17:32:16.506
134, 35225.81, -89932.77, -187500.02, -187500.02, -187500.02, -101791.02, -187500.02, -187500.02, 0.000, 0.000, 0.000, 17:32:16.506
135, 35200.00, -89958.64, -187500.02, -187500.02, -187500.02, -101809.55, -187500.02, -187500.02, 0.000, 0.000, 0.000, 17:32:16.506
136, 35179.16, -90110.32, -187500.02, -187500.02, -187500.02, -102000.88, -187500.02, -187500.02, 0.152, 0.028, 1.014, 17:32:16.507
137, 35186.90, -90133.14, -187500.02, -187500.02, -187500.02, -102040.00, -187500.02, -187500.02, 0.000, 0.000, 0.000, 17:32:16.507
138, 35202.05, -89936.31, -187500.02, -187500.02, -187500.02, -101815.79, -187500.02, -187500.02, 0.000, 0.000, 0.000, 17:32:16.507
139, 35175.97, -89921.69, -187500.02, -187500.02, -187500.02, -101781.66, -187500.02, -187500.02, 0.000, 0.000, 0.000, 17:32:16.507
140, 35156.32, -90109.04, -187500.02, -187500.02, -187500.02, -102007.48, -187500.02, -187500.02, 0.000, 0.000, 0.000, 17:32:16.507
141, 35188.28, -90173.05, -187500.02, -187500.02, -187500.02, -102097.29, -187500.02, -187500.02, 0.000, 0.000, 0.000, 17:32:16.507
142, 35201.67, -89946.79, -187500.02, -187500.02, -187500.02, -101850.80, -187500.02, -187500.02, 0.000, 0.000, 0.000, 17:32:16.507
143, 35188.89, -89837.91, -187500.02, -187500.02, -187500.02, -101712.03, -187500.02, -187500.02, 0.000, 0.000, 0.000, 17:32:16.508
144, 35162.94, -90010.63, -187500.02, -187500.02, -187500.02, -101915.75, -187500.02, -187500.02, 0.000, 0.000, 0.000, 17:32:16.508
145, 35180.59, -90173.95, -187500.02, -187500.02, -187500.02, -102112.89, -187500.02, -187500.02, 0.150, 0.028, 1.004, 17:32:16.508
146, 35198.34, -90063.98, -187500.02, -187500.02, -187500.02, -101994.85, -187500.02, -187500.02, 0.000, 0.000, 0.000, 17:32:16.508
147, 35195.59, -89948.24, -187500.02, -187500.02, -187500.02, -101851.64, -187500.02, -187500.02, 0.000, 0.000, 0.000, 17:32:16.508
148, 35178.29, -90064.02, -187500.02, -187500.02, -187500.02, -101993.20, -187500.02, -187500.02, 0.000, 0.000, 0.000, 17:32:16.508
149, 35176.64, -90173.33, -187500.02, -187500.02, -187500.02, -102140.45, -187500.02, -187500.02, 0.000, 0.000, 0.000, 17:32:16.508
150, 35192.48, -90050.73, -187500.02, -187500.02, -187500.02, -102015.86, -187500.02, -187500.02, 0.000, 0.000, 0.000, 17:32:16.509
151, 35204.24, -89864.00, -187500.02, -187500.02, -187500.02, -101793.98, -187500.02, -187500.02, 0.000, 0.000, 0.000, 17:32:16.509
152, 35169.04, -89980.30, -187500.02, -187500.02, -187500.02, -101921.80, -187500.02, -187500.02, 0.000, 0.000, 0.000, 17:32:16.509
153, 35174.56, -90106.79, -187500.02, -187500.02, -187500.02, -102087.59, -187500.02, -187500.02, 0.000, 0.000, 0.000, 17:32:16.509
154, 35212.56, -90064.74, -187500.02, -187500.02, -187500.02, -102050.93, -187500.02, -187500.02, 0.000, 0.000, 0.000, 17:32:16.509
155, 35218.21, -89825.49, -187500.02, -187500.02, -187500.02, -101779.94, -187500.02, -187500.02, 0.152, 0.034, 1.006, 17:32:16.509
156, 35169.55, -89898.09, -187500.02, -187500.02, -187500.02, -101851.30, -187500.02, -187500.02, 0.000, 0.000, 0.000, 17:32:16.509
157, 35172.55, -90087.88, -187500.02, -187500.02, -187500.02, -102082.83, -187500.02, -187500.02, 0.000, 0.000, 0.000, 17:32:16.510
158, 35202.43, -90139.71, -187500.02, -187500.02, -187500.02, -102150.06, -187500.02, -187500.02, 0.000, 0.000, 0.000, 17:32:16.510
159, 35218.93, -89975.85, -187500.02, -187500.02, -187500.02, -101960.32, -187500.02, -187500.02, 0.000, 0.000, 0.000, 17:32:16.510
160, 35177.91, -90010.72, -187500.02, -187500.02, -187500.02, -101984.37, -187500.02, -187500.02, 0.000, 0.000, 0.000, 17:32:16.510
161, 35151.56, -90175.79, -187500.02, -187500.02, -187500.02, -102189.65, -187500.02, -187500.02, 0.000, 0.000, 0.000, 17:32:16.510
162, 35173.89, -90201.11, -187500.02, -187500.02, -187500.02, -102234.62, -187500.02, -187500.02, 0.000, 0.000, 0.000, 17:32:16.510
163, 35208.85, -89991.80, -187500.02, -187500.02, -187500.02, -102002.54, -187500.02, -187500.02, 0.000, 0.000, 0.000, 17:32:16.511
164, 35189.76, -89934.66, -187500.02, -187500.02, -187500.02, -101926.43, -187500.02, -187500.02, 0.000, 0.000, 0.000, 17:32:16.511
165, 35159.36, -90088.91, -187500.02, -187500.02, -187500.02, -102117.67, -187500.02, -187500.02, 0.156, 0.036, 1.000, 17:32:16.511
166, 35181.89, -90141.61, -187500.02, -187500.02, -187500.02, -102195.15, -187500.02, -187500.02, 0.000, 0.000, 0.000, 17:32:16.511
167, 35197.13, -89949.02, -187500.02, -187500.02, -187500.02, -101985.10, -187500.02, -187500.02, 0.000, 0.000, 0.000, 17:32:16.511
168, 35181.55, -89855.17, -187500.02, -187500.02, -187500.02, -101862.10, -187500.02, -187500.02, 0.000, 0.000, 0.000, 17:32:16.511
169, 35168.75, -90040.00, -187500.02, -187500.02, -187500.02, -102077.38, -187500.02, -187500.02, 0.000, 0.000, 0.000, 17:32:16.511
170, 35190.72, -90170.42, -187500.02, -187500.02, -187500.02, -102243.42, -187500.02, -187500.02, 0.000, 0.000, 0.000, 17:32:16.512
171, 35201.94, -90081.23, -187500.02, -187500.02, -187500.02, -102145.99, -187500.02, -187500.02, 0.000, 0.000, 0.000, 17:32:16.512
172, 35196.48, -89974.20, -187500.02, -187500.02, -187500.02, -102007.03, -187500.02, -187500.02, 0.000, 0.000, 0.000, 17:32:16.512
173, 35144.21, -90102.07, -187500.02, -187500.02, -187500.02, -102156.07, -187500.02, -187500.02, 0.000, 0.000, 0.000, 17:32:16.512
174, 35172.30, -90209.02, -187500.02, -187500.02, -187500.02, -102299.69, -187500.02, -187500.02, 0.000, 0.000, 0.000, 17:32:16.512
175, 35199.08, -90107.21, -187500.02, -187500.02, -187500.02, -102195.16, -187500.02, -187500.02, 0.154, 0.032, 1.000, 17:32:16.512
176, 35189.16, -89929.20, -187500.02, -187500.02, -187500.02, -101981.02, -187500.02, -187500.02, 0.000, 0.000, 0.000, 17:32:16.512
177, 35165.75, -89990.13, -187500.02, -187500.02, -187500.02, -102047.87, -187500.02, -187500.02, 0.000, 0.000, 0.000, 17:32:16.513
178, 35206.50, -90122.43, -187500.02, -187500.02, -187500.02, -102217.30, -187500.02, -187500.02, 0.000, 0.000, 0.000, 17:32:16.513
179, 35228.76, -90142.28, -187500.02, -187500.02, -187500.02, -102242.89, -187500.02, -187500.02, 0.000, 0.000, 0.000, 17:32:16.530
180, 35220.94, -89976.88, -187500.02, -187500.02, -187500.02, -102043.48, -187500.02, -187500.02, 0.000, 0.000, 0.000, 17:32:16.530
181, 35171.32, -90037.34, -187500.02, -187500.02, -187500.02, -102099.34, -187500.02, -187500.02, 0.000, 0.000, 0.000, 17:32:16.530
182, 35188.57, -90226.77, -187500.02, -187500.02, -187500.02, -102328.70, -187500.02, -187500.02, 0.000, 0.000, 0.000, 17:32:16.531
183, 35206.32, -90231.02, -187500.02, -187500.02, -187500.02, -102347.13, -187500.02, -187500.02, 0.000, 0.000, 0.000, 17:32:16.531
184, 35228.63, -90015.26, -187500.02, -187500.02, -187500.02, -102105.05, -187500.02, -187500.02, 0.000, 0.000, 0.000, 17:32:16.531
185, 35201.83, -89986.38, -187500.02, -187500.02, -187500.02, -102062.11, -187500.02, -187500.02, 0.152, 0.038, 1.000, 17:32:16.531
186, 35183.39, -90151.69, -187500.02, -187500.02, -187500.02, -102263.02, -187500.02, -187500.02, 0.000, 0.000, 0.000, 17:32:16.531
187, 35203.91, -90163.45, -187500.02, -187500.02, -187500.02, -102294.03, -187500.02, -187500.02, 0.000, 0.000, 0.000, 17:32:16.531
188, 35214.03, -89968.88, -187500.02, -187500.02, -187500.02, -102076.26, -187500.02, -187500.02, 0.000, 0.000, 0.000, 17:32:16.532
189, 35189.76, -89939.88, -187500.02, -187500.02, -187500.02, -102023.48, -187500.02, -187500.02, 0.000, 0.000, 0.000, 17:32:16.532
190, 35177.24, -90136.27, -187500.02, -187500.02, -187500.02, -102253.33, -187500.02, -187500.02, 0.000, 0.000, 0.000, 17:32:16.532
191, 35190.68, -90279.05, -187500.02, -187500.02, -187500.02, -102423.42, -187500.02, -187500.02, 0.000, 0.000, 0.000, 17:32:16.532
192, 35223.69, -90141.30, -187500.02, -187500.02, -187500.02, -102271.74, -187500.02, -187500.02, 0.000, 0.000, 0.000, 17:32:16.532
193, 35218.82, -90047.22, -187500.02, -187500.02, -187500.02, -102149.68, -187500.02, -187500.02, 0.000, 0.000, 0.000, 17:32:16.533
194, 35175.74, -90214.88, -187500.02, -187500.02, -187500.02, -102343.88, -187500.02, -187500.02, 0.000, 0.000, 0.000, 17:32:16.533
195, 35178.70, -90321.41, -187500.02, -187500.02, -187500.02, -102483.37, -187500.02, -187500.02, 0.150, 0.034, 1.004, 17:32:16.533
196, 35192.42, -90190.65, -187500.02, -187500.02, -187500.02, -102346.58, -187500.02, -187500.02, 0.000, 0.000, 0.000, 17:32:16.533
197, 35199.17, -90040.71, -187500.02, -187500.02, -187500.02, -102166.09, -187500.02, -187500.02, 0.000, 0.000, 0.000, 17:32:16.533
198, 35150.55, -90119.98, -187500.02, -187500.02, -187500.02, -102261.59, -187500.02, -187500.02, 0.000, 0.000, 0.000, 17:32:16.533
199, 35181.49, -90238.03, -187500.02, -187500.02, -187500.02, -102416.18, -187500.02, -187500.02, 0.000, 0.000, 0.000, 17:32:16.534
200, 35225.52, -90173.64, -187500.02, -187500.02, -187500.02, -102353.26, -187500.02, -187500.02, 0.000, 0.000, 0.000, 17:32:16.534
201, 35219.91, -89959.02, -187500.02, -187500.02, -187500.02, -102102.81, -187500.02, -187500.02, 0.000, 0.000, 0.000, 17:32:16.534
202, 35170.87, -90042.70, -187500.02, -187500.02, -187500.02, -102189.96, -187500.02, -187500.02, 0.000, 0.000, 0.000, 17:32:16.534
203, 35170.20, -90230.32, -187500.02, -187500.02, -187500.02, -102417.45, -187500.02, -187500.02, 0.000, 0.000, 0.000, 17:32:16.534
204, 35210.01, -90250.91, -187500.02, -187500.02, -187500.02, -102446.00, -187500.02, -187500.02, 0.000, 0.000, 0.000, 17:32:16.534
205, 35212.31, -90075.43, -187500.02, -187500.02, -187500.02, -102238.82, -187500.02, -187500.02, 0.158, 0.036, 0.996, 17:32:16.534
206, 35182.16, -90119.52, -187500.02, -187500.02, -187500.02, -102278.18, -187500.02, -187500.02, 0.000, 0.000, 0.000, 17:32:16.535
207, 35198.63, -90283.59, -187500.02, -187500.02, -187500.02, -102484.24, -187500.02, -187500.02, 0.000, 0.000, 0.000, 17:32:16.535
208, 35209.76, -90304.27, -187500.02, -187500.02, -187500.02, -102520.81, -187500.02, -187500.02, 0.000, 0.000, 0.000, 17:32:16.535
209, 35209.16, -90107.73, -187500.02, -187500.02, -187500.02, -102296.98, -187500.02, -187500.02, 0.000, 0.000, 0.000, 17:32:16.535
210, 35190.25, -90087.30, -187500.02, -187500.02, -187500.02, -102260.03, -187500.02, -187500.02, 0.000, 0.000, 0.000, 17:32:16.535
211, 35206.12, -90226.45, -187500.02, -187500.02, -187500.02, -102435.90, -187500.02, -187500.02, 0.000, 0.000, 0.000, 17:32:16.535
212, 35208.60, -90272.16, -187500.02, -187500.02, -187500.02, -102504.13, -187500.02, -187500.02, 0.000, 0.000, 0.000, 17:32:16.535
213, 35209.67, -90032.00, -187500.02, -187500.02, -187500.02, -102243.38, -187500.02, -187500.02, 0.000, 0.000, 0.000, 17:32:16.536
214, 35196.82, -89953.56, -187500.02, -187500.02, -187500.02, -102135.78, -187500.02, -187500.02, 0.154, 0.034, 1.002, 17:32:16.536
215, 35188.44, -90154.75, -187500.02, -187500.02, -187500.02, -102369.55, -187500.02, -187500.02, 0.000, 0.000, 0.000, 17:32:16.536
216, 35200.89, -90301.36, -187500.02, -187500.02, -187500.02, -102548.02, -187500.02, -187500.02, 0.000, 0.000, 0.000, 17:32:16.536
217, 35206.07, -90203.59, -187500.02, -187500.02, -187500.02, -102440.05, -187500.02, -187500.02, 0.000, 0.000, 0.000, 17:32:16.536
218, 35191.57, -90087.63, -187500.02, -187500.02, -187500.02, -102295.48, -187500.02, -187500.02, 0.000, 0.000, 0.000, 17:32:16.536
219, 35159.27, -90208.87, -187500.02, -187500.02, -187500.02, -102443.00, -187500.02, -187500.02, 0.000, 0.000, 0.000, 17:32:16.536
220, 35166.54, -90298.41, -187500.02, -187500.02, -187500.02, -102566.56, -187500.02, -187500.02, 0.000, 0.000, 0.000, 17:32:16.537
221, 35182.45, -90204.82, -187500.02, -187500.02, -187500.02, -102466.09, -187500.02, -187500.02, 0.000, 0.000, 0.000, 17:32:16.537
222, 35207.91, -90075.16, -187500.02, -187500.02, -187500.02, -102301.78, -187500.02, -187500.02, 0.000, 0.000, 0.000, 17:32:16.537
223, 35167.72, -90229.52, -187500.02, -187500.02, -187500.02, -102469.16, -187500.02, -187500.02, 0.000, 0.000, 0.000, 17:32:16.537
224, 35159.96, -90338.75, -187500.02, -187500.02, -187500.02, -102617.26, -187500.02, -187500.02, 0.152, 0.038, 1.004, 17:32:16.537
225, 35179.79, -90241.34, -187500.02, -187500.02, -187500.02, -102520.90, -187500.02, -187500.02, 0.000, 0.000, 0.000, 17:32:16.983
226, 35200.55, -90019.50, -187500.02, -187500.02, -187500.02, -102261.71, -187500.02, -187500.02, 0.000, 0.000, 0.000, 17:32:16.983
227, 35173.33, -90112.42, -187500.02, -187500.02, -187500.02, -102356.10, -187500.02, -187500.02, 0.000, 0.000, 0.000, 17:32:16.983
228, 35162.02, -90304.69, -187500.02, -187500.02, -187500.02, -102589.05, -187500.02, -187500.02, 0.000, 0.000, 0.000, 17:32:16.983
229, 35204.31, -90380.88, -187500.02, -187500.02, -187500.02, -102677.52, -187500.02, -187500.02, 0.000, 0.000, 0.000, 17:32:16.983
230, 35219.69, -90204.33, -187500.02, -187500.02, -187500.02, -102473.34, -187500.02, -187500.02, 0.000, 0.000, 0.000, 17:32:16.984
231, 35173.44, -90211.59, -187500.02, -187500.02, -187500.02, -102473.83, -187500.02, -187500.02, 0.000, 0.000, 0.000, 17:32:16.984
232, 35164.28, -90319.57, -187500.02, -187500.02, -187500.02, -102621.52, -187500.02, -187500.02, 0.000, 0.000, 0.000, 17:32:16.984
233, 35212.16, -90343.45, -187500.02, -187500.02, -187500.02, -102661.91, -187500.02, -187500.02, 0.000, 0.000, 0.000, 17:32:16.984
234, 35227.49, -90148.43, -187500.02, -187500.02, -187500.02, -102439.31, -187500.02, -187500.02, 0.152, 0.044, 1.004, 17:32:16.984
235, 35193.22, -90130.41, -187500.02, -187500.02, -187500.02, -102403.27, -187500.02, -187500.02, 0.000, 0.000, 0.000, 17:32:16.984
236, 35163.05, -90286.00, -187500.02, -187500.02, -187500.02, -102597.84, -187500.02, -187500.02, 0.000, 0.000, 0.000, 17:32:16.984
237, 35187.59, -90325.95, -187500.02, -187500.02, -187500.02, -102662.48, -187500.02, -187500.02, 0.000, 0.000, 0.000, 17:32:16.984
238, 35218.46, -90110.09, -187500.02, -187500.02, -187500.02, -102426.38, -187500.02, -187500.02, 0.000, 0.000, 0.000, 17:32:16.984
239, 35212.27, -90037.65, -187500.02, -187500.02, -187500.02, -102324.52, -187500.02, -187500.02, 0.000, 0.000, 0.000, 17:32:16.985
240, 35171.83, -90229.09, -187500.02, -187500.02, -187500.02, -102546.05, -187500.02, -187500.02, 0.000, 0.000, 0.000, 17:32:16.985
241, 35177.80, -90375.34, -187500.02, -187500.02, -187500.02, -102722.06, -187500.02, -187500.02, 0.000, 0.000, 0.000, 17:32:16.985
242, 35198.27, -90250.53, -187500.02, -187500.02, -187500.02, -102586.21, -187500.02, -187500.02, 0.000, 0.000, 0.000, 17:32:16.985
243, 35205.85, -90137.67, -187500.02, -187500.02, -187500.02, -102442.84, -187500.02, -187500.02, 0.000, 0.000, 0.000, 17:32:16.985
244, 35170.89, -90287.79, -187500.02, -187500.02, -187500.02, -102618.58, -187500.02, -187500.02, 0.154, 0.038, 1.004, 17:32:16.985
245, 35175.27, -90363.85, -187500.02, -187500.02, -187500.02, -102731.68, -187500.02, -187500.02, 0.000, 0.000, 0.000, 17:32:16.985
246, 35206.66, -90245.59, -187500.02, -187500.02, -187500.02, -102609.52, -187500.02, -187500.02, 0.000, 0.000, 0.000, 17:32:16.985
247, 35221.45, -90092.63, -187500.02, -187500.02, -187500.02, -102421.99, -187500.02, -187500.02, 0.000, 0.000, 0.000, 17:32:16.985
248, 35167.68, -90197.80, -187500.02, -187500.02, -187500.02, -102537.35, -187500.02, -187500.02, 0.000, 0.000, 0.000, 17:32:16.985
249, 35176.35, -90335.58, -187500.02, -187500.02, -187500.02, -102714.95, -187500.02, -187500.02, 0.000, 0.000, 0.000, 17:32:16.985
250, 35209.11, -90240.49, -187500.02, -187500.02, -187500.02, -102624.57, -187500.02, -187500.02, 0.000, 0.000, 0.000, 17:32:16.986
251, 35225.01, -89999.43, -187500.02, -187500.02, -187500.02, -102348.27, -187500.02, -187500.02, 0.000, 0.000, 0.000, 17:32:16.986
252, 35193.00, -90114.61, -187500.02, -187500.02, -187500.02, -102461.53, -187500.02, -187500.02, 0.000, 0.000, 0.000, 17:32:16.986
253, 35173.02, -90350.55, -187500.02, -187500.02, -187500.02, -102741.29, -187500.02, -187500.02, 0.000, 0.000, 0.000, 17:32:16.986
254, 35200.00, -90393.76, -187500.02, -187500.02, -187500.02, -102798.80, -187500.02, -187500.02, 0.150, 0.038, 1.004, 17:32:16.986
255, 35236.00, -90210.88, -187500.02, -187500.02, -187500.02, -102588.55, -187500.02, -187500.02, 0.000, 0.000, 0.000, 17:32:16.986
0, 35213.47, -90202.23, -187500.02, -187500.02, -187500.02, -102570.19, -187500.02, -187500.02, 0.000, 0.000, 0.000, 17:32:16.986
1, 35189.82, -90366.34, -187500.02, -187500.02, -187500.02, -102771.40, -187500.02, -187500.02, 0.000, 0.000, 0.000, 17:32:16.986
2, 35193.40, -90397.45, -187500.02, -187500.02, -187500.02, -102819.49, -187500.02, -187500.02, 0.000, 0.000, 0.000, 17:32:16.986
3, 35229.12, -90184.88, -187500.02, -187500.02, -187500.02, -102582.10, -187500.02, -187500.02, 0.000, 0.000, 0.000, 17:32:16.986
4, 35214.03, -90114.41, -187500.02, -187500.02, -187500.02, -102489.25, -187500.02, -187500.02, 0.000, 0.000, 0.000, 17:32:16.986
5, 35177.89, -90256.74, -187500.02, -187500.02, -187500.02, -102666.50, -187500.02, -187500.02, 0.000, 0.000, 0.000, 17:32:16.986
6, 35203.08, -90365.89, -187500.02, -187500.02, -187500.02, -102802.17, -187500.02, -187500.02, 0.000, 0.000, 0.000, 17:32:16.986
7, 35235.31, -90273.80, -187500.02, -187500.02, -187500.02, -102693.41, -187500.02, -187500.02, 0.000, 0.000, 0.000, 17:32:16.987
8, 35211.04, -90173.64, -187500.02, -187500.02, -187500.02, -102564.15, -187500.02, -187500.02, 0.158, 0.044, 1.002, 17:32:16.987
9, 35173.87, -90337.34, -187500.02, -187500.02, -187500.02, -102755.64, -187500.02, -187500.02, 0.000, 0.000, 0.000, 17:32:16.987
10, 35193.74, -90432.38, -187500.02, -187500.02, -187500.02, -102882.05, -187500.02, -187500.02, 0.000, 0.000, 0.000, 17:32:16.987
11, 35215.17, -90276.57, -187500.02, -187500.02, -187500.02, -102714.66, -187500.02, -187500.02, 0.000, 0.000, 0.000, 17:32:16.987
12, 35228.81, -90126.92, -187500.02, -187500.02, -187500.02, -102528.72, -187500.02, -187500.02, 0.000, 0.000, 0.000, 17:32:16.987
13, 35190.27, -90264.14, -187500.02, -187500.02, -187500.02, -102682.86, -187500.02, -187500.02, 0.000, 0.000, 0.000, 17:32:16.987
14, 35194.36, -90385.84, -187500.02, -187500.02, -187500.02, -102838.83, -187500.02, -187500.02, 0.000, 0.000, 0.000, 17:32:16.987
15, 35214.34, -90260.74, -187500.02, -187500.02, -187500.02, -102712.38, -187500.02, -187500.02, 0.000, 0.000, 0.000, 17:32:16.987
16, 35214.39, -90077.33, -187500.02, -187500.02, -187500.02, -102492.84, -187500.02, -187500.02, 0.000, 0.000, 0.000, 17:32:16.987
17, 35192.75, -90241.56, -187500.02, -187500.02, -187500.02, -102665.00, -187500.02, -187500.02, 0.146, 0.040, 1.006, 17:32:16.987
18, 35208.38, -90416.18, -187500.02, -187500.02, -187500.02, -102879.76, -187500.02, -187500.02, 0.000, 0.000, 0.000, 17:32:16.987
19, 35220.04, -90441.99, -187500.02, -187500.02, -187500.02, -102911.72, -187500.02, -187500.02, 0.000, 0.000, 0.000, 17:32:16.988
20, 35241.52, -90239.40, -187500.02, -187500.02, -187500.02, -102678.68, -187500.02, -187500.02, 0.000, 0.000, 0.000, 17:32:16.988
21, 35202.43, -90296.48, -187500.02, -187500.02, -187500.02, -102736.48, -187500.02, -187500.02, 0.000, 0.000, 0.000, 17:32:16.988
22, 35189.36, -90459.56, -187500.02, -187500.02, -187500.02, -102938.77, -187500.02, -187500.02, 0.000, 0.000, 0.000, 17:32:16.988
23, 35212.11, -90474.92, -187500.02, -187500.02, -187500.02, -102966.01, -187500.02, -187500.02, 0.000, 0.000, 0.000, 17:32:16.988
24, 35229.23, -90275.02, -187500.02, -187500.02, -187500.02, -102736.77, -187500.02, -187500.02, 0.000, 0.000, 0.000, 17:32:16.988
25, 35191.21, -90280.05, -187500.02, -187500.02, -187500.02, -102727.30, -187500.02, -187500.02, 0.000, 0.000, 0.000, 17:32:16.988
26, 35175.70, -90430.46, -187500.02, -187500.02, -187500.02, -102916.84, -187500.02, -187500.02, 0.000, 0.000, 0.000, 17:32:16.988
27, 35185.45, -90460.55, -187500.02, -187500.02, -187500.02, -102967.15, -187500.02, -187500.02, 0.150, 0.038, 1.008, 17:32:16.988
28, 35208.82, -90257.50, -187500.02, -187500.02, -187500.02, -102740.59, -187500.02, -187500.02, 0.000, 0.000, 0.000, 17:32:16.988
29, 35189.27, -90239.71, -187500.02, -187500.02, -187500.02, -102699.65, -187500.02, -187500.02, 0.000, 0.000, 0.000, 17:32:16.988
30, 35169.57, -90408.02, -187500.02, -187500.02, -187500.02, -102903.96, -187500.02, -187500.02, 0.000, 0.000, 0.000, 17:32:16.988
31, 35191.14, -90530.09, -187500.02, -187500.02, -187500.02, -103053.50, -187500.02, -187500.02, 0.000, 0.000, 0.000, 17:32:16.988
32, 35214.99, -90403.80, -187500.02, -187500.02, -187500.02, -102910.69, -187500.02, -187500.02, 0.000, 0.000, 0.000, 17:32:16.989
33, 35207.04, -90293.40, -187500.02, -187500.02, -187500.02, -102770.12, -187500.02, -187500.02, 0.000, 0.000, 0.000, 17:32:16.989
34, 35167.09, -90405.23, -187500.02, -187500.02, -187500.02, -102907.00, -187500.02, -187500.02, 0.000, 0.000, 0.000, 17:32:16.989
35, 35185.85, -90507.44, -187500.02, -187500.02, -187500.02, -103041.88, -187500.02, -187500.02, 0.000, 0.000, 0.000, 17:32:16.989
36, 35208.11, -90330.93, -187500.02, -187500.02, -187500.02, -102857.31, -187500.02, -187500.02, 0.000, 0.000, 0.000, 17:32:16.989
37, 35215.91, -90165.21, -187500.02, -187500.02, -187500.02, -102656.33, -187500.02, -187500.02, 0.156, 0.036, 1.004, 17:32:16.989
38, 35182.70, -90325.20, -187500.02, -187500.02, -187500.02, -102834.31, -187500.02, -187500.02, 0.000, 0.000, 0.000, 17:32:16.989
39, 35186.18, -90504.36, -187500.02, -187500.02, -187500.02, -103052.73, -187500.02, -187500.02, 0.000, 0.000, 0.000, 17:32:16.989
40, 35213.59, -90422.91, -187500.02, -187500.02, -187500.02, -102971.82, -187500.02, -187500.02, 0.000, 0.000, 0.000, 17:32:16.989
41, 35228.83, -90263.80, -187500.02, -187500.02, -187500.02, -102780.96, -187500.02, -187500.02, 0.000, 0.000, 0.000, 17:32:16.989
42, 35176.62, -90350.30, -187500.02, -187500.02, -187500.02, -102874.33, -187500.02, -187500.02, 0.000, 0.000, 0.000, 17:32:16.989
43, 35197.38, -90482.16, -187500.02, -187500.02, -187500.02, -103046.73, -187500.02, -187500.02, 0.000, 0.000, 0.000, 17:32:16.989
44, 35220.89, -90463.34, -187500.02, -187500.02, -187500.02, -103035.59, -187500.02, -187500.02, 0.000, 0.000, 0.000, 17:32:16.989
45, 35209.74, -90294.54, -187500.02, -187500.02, -187500.02, -102834.09, -187500.02, -187500.02, 0.000, 0.000, 0.000, 17:32:16.989
46, 35154.44, -90331.09, -187500.02, -187500.02, -187500.02, -102863.69, -187500.02, -187500.02, 0.000, 0.000, 0.000, 17:32:16.990
47, 35142.44, -90469.60, -187500.02, -187500.02, -187500.02, -103043.57, -187500.02, -187500.02, 0.154, 0.038, 1.006, 17:32:16.990
48, 35166.54, -90429.09, -187500.02, -187500.02, -187500.02, -103019.01, -187500.02, -187500.02, 0.000, 0.000, 0.000, 17:32:16.990
49, 35201.74, -90209.78, -187500.02, -187500.02, -187500.02, -102769.05, -187500.02, -187500.02, 0.000, 0.000, 0.000, 17:32:16.990
50, 35193.56, -90284.86, -187500.02, -187500.02, -187500.02, -102825.77, -187500.02, -187500.02, 0.000, 0.000, 0.000, 17:32:16.990
51, 35179.66, -90475.97, -187500.02, -187500.02, -187500.02, -103055.76, -187500.02, -187500.02, 0.000, 0.000, 0.000, 17:32:16.990
52, 35203.19, -90553.58, -187500.02, -187500.02, -187500.02, -103155.06, -187500.02, -187500.02, 0.000, 0.000, 0.000, 17:32:16.990
53, 35223.18, -90383.99, -187500.02, -187500.02, -187500.02, -102964.73, -187500.02, -187500.02, 0.000, 0.000, 0.000, 17:32:16.990
54, 35186.85, -90333.14, -187500.02, -187500.02, -187500.02, -102889.52, -187500.02, -187500.02, 0.000, 0.000, 0.000, 17:32:16.990
55, 35136.18, -90495.37, -187500.02, -187500.02, -187500.02, -103083.13, -187500.02, -187500.02, 0.000, 0.000, 0.000, 17:32:16.990
56, 35182.41, -90533.26, -187500.02, -187500.02, -187500.02, -103149.14, -187500.02, -187500.02, 0.000, 0.000, 0.000, 17:32:16.990
57, 35223.87, -90374.29, -187500.02, -187500.02, -187500.02, -102978.26, -187500.02, -187500.02, 0.154, 0.040, 1.010, 17:32:16.990
58, 35208.85, -90263.98, -187500.02, -187500.02, -187500.02, -102838.67, -187500.02, -187500.02, 0.000, 0.000, 0.000, 17:32:16.990
59, 35165.66, -90407.82, -187500.02, -187500.02, -187500.02, -103008.03, -187500.02, -187500.02, 0.000, 0.000, 0.000, 17:32:16.991
60, 35163.05, -90519.02, -187500.02, -187500.02, -187500.02, -103152.29, -187500.02, -187500.02, 0.000, 0.000, 0.000, 17:32:16.991
61, 35175.12, -90399.13, -187500.02, -187500.02, -187500.02, -103025.09, -187500.02, -187500.02, 0.000, 0.000, 0.000, 17:32:16.991
62, 35184.28, -90236.47, -187500.02, -187500.02, -187500.02, -102826.16, -187500.02, -187500.02, 0.000, 0.000, 0.000, 17:32:16.991
63, 35176.26, -90343.94, -187500.02, -187500.02, -187500.02, -102948.31, -187500.02, -187500.02, 0.000, 0.000, 0.000, 17:32:16.991
64, 35191.43, -90508.00, -187500.02, -187500.02, -187500.02, -103149.88, -187500.02, -187500.02, 0.000, 0.000, 0.000, 17:32:16.991
65, 35210.68, -90489.85, -187500.02, -187500.02, -187500.02, -103133.90, -187500.02, -187500.02, 0.000, 0.000, 0.000, 17:32:16.991
66, 35189.71, -90302.66, -187500.02, -187500.02, -187500.02, -102914.31, -187500.02, -187500.02, 0.000, 0.000, 0.000, 17:32:16.991
67, 35127.73, -90401.27, -187500.02, -187500.02, -187500.02, -103017.27, -187500.02, -187500.02, 0.156, 0.040, 1.004, 17:32:16.991
68, 35156.90, -90541.23, -187500.02, -187500.02, -187500.02, -103198.72, -187500.02, -187500.02, 0.000, 0.000, 0.000, 17:32:16.991
69, 35201.80, -90478.27, -187500.02, -187500.02, -187500.02, -103143.95, -187500.02, -187500.02, 0.000, 0.000, 0.000, 17:32:16.991
70, 35220.89, -90289.63, -187500.02, -187500.02, -187500.02, -102922.76, -187500.02, -187500.02, 0.000, 0.000, 0.000, 17:32:16.991
71, 35177.09, -90358.17, -187500.02, -187500.02, -187500.02, -102983.89, -187500.02, -187500.02, 0.000, 0.000, 0.000, 17:32:16.991
72, 35161.59, -90465.73, -187500.02, -187500.02, -187500.02, -103130.99, -187500.02, -187500.02, 0.000, 0.000, 0.000, 17:32:16.992
73, 35186.88, -90465.91, -187500.02, -187500.02, -187500.02, -103147.28, -187500.02, -187500.02, 0.000, 0.000, 0.000, 17:32:16.992
74, 35213.43, -90285.71, -187500.02, -187500.02, -187500.02, -102940.46, -187500.02, -187500.02, 0.000, 0.000, 0.000, 17:32:16.992
75, 35185.51, -90313.98, -187500.02, -187500.02, -187500.02, -102953.36, -187500.02, -187500.02, 0.000, 0.000, 0.000, 17:32:16.992
76, 35147.18, -90498.73, -187500.02, -187500.02, -187500.02, -103172.99, -187500.02, -187500.02, 0.000, 0.000, 0.000, 17:32:16.992
77, 35164.99, -90568.23, -187500.02, -187500.02, -187500.02, -103266.38, -187500.02, -187500.02, 0.154, 0.044, 1.004, 17:32:16.992
78, 35229.05, -90429.52, -187500.02, -187500.02, -187500.02, -103110.20, -187500.02, -187500.02, 0.000, 0.000, 0.000, 17:32:16.992
79, 35206.14, -90359.85, -187500.02, -187500.02, -187500.02, -103014.67, -187500.02, -187500.02, 0.000, 0.000, 0.000, 17:32:16.992
80, 35164.84, -90514.82, -187500.02, -187500.02, -187500.02, -103200.10, -187500.02, -187500.02, 0.000, 0.000, 0.000, 17:32:16.992
81, 35178.09, -90598.21, -187500.02, -187500.02, -187500.02, -103314.95, -187500.02, -187500.02, 0.000, 0.000, 0.000, 17:32:16.992
82, 35205.45, -90438.42, -187500.02, -187500.02, -187500.02, -103142.50, -187500.02, -187500.02, 0.000, 0.000, 0.000, 17:32:16.992
83, 35190.56, -90284.44, -187500.02, -187500.02, -187500.02, -102953.07, -187500.02, -187500.02, 0.000, 0.000, 0.000, 17:32:16.992
84, 35153.01, -90426.75, -187500.02, -187500.02, -187500.02, -103115.43, -187500.02, -187500.02, 0.000, 0.000, 0.000, 17:32:16.992
85, 35170.16, -90573.91, -187500.02, -187500.02, -187500.02, -103298.18, -187500.02, -187500.02, 0.000, 0.000, 0.000, 17:32:16.993
86, 35201.00, -90446.80, -187500.02, -187500.02, -187500.02, -103166.75, -187500.02, -187500.02, 0.154, 0.044, 1.006, 17:32:16.993
87, 35205.79, -90237.99, -187500.02, -187500.02, -187500.02, -102920.39, -187500.02, -187500.02, 0.000, 0.000, 0.000, 17:32:16.993
88, 35165.21, -90373.33, -187500.02, -187500.02, -187500.02, -103066.44, -187500.02, -187500.02, 0.000, 0.000, 0.000, 17:32:16.993
89, 35171.95, -90565.53, -187500.02, -187500.02, -187500.02, -103296.30, -187500.02, -187500.02, 0.000, 0.000, 0.000, 17:32:16.993
90, 35167.34, -90571.43, -187500.02, -187500.02, -187500.02, -103306.83, -187500.02, -187500.02, 0.000, 0.000, 0.000, 17:32:17.462
91, 35155.70, -90415.13, -187500.02, -187500.02, -187500.02, -103121.24, -187500.02, -187500.02, 0.000, 0.000, 0.000, 17:32:17.462
92, 35153.79, -90476.38, -187500.02, -187500.02, -187500.02, -103185.51, -187500.02, -187500.02, 0.000, 0.000, 0.000, 17:32:17.462
93, 35176.68, -90594.26, -187500.02, -187500.02, -187500.02, -103345.01, -187500.02, -187500.02, 0.000, 0.000, 0.000, 17:32:17.462
94, 35197.65, -90539.63, -187500.02, -187500.02, -187500.02, -103299.32, -187500.02, -187500.02, 0.000, 0.000, 0.000, 17:32:17.463
95, 35189.27, -90339.06, -187500.02, -187500.02, -187500.02, -103064.49, -187500.02, -187500.02, 0.000, 0.000, 0.000, 17:32:17.463
96, 35178.43, -90382.78, -187500.02, -187500.02, -187500.02, -103094.22, -187500.02, -187500.02, 0.152, 0.044, 1.010, 17:32:17.463
97, 35169.86, -90518.41, -187500.02, -187500.02, -187500.02, -103268.95, -187500.02, -187500.02, 0.000, 0.000, 0.000, 17:32:17.463
98, 35188.80, -90510.97, -187500.02, -187500.02, -187500.02, -103279.49, -187500.02, -187500.02, 0.000, 0.000, 0.000, 17:32:17.463
99, 35219.40, -90281.29, -187500.02, -187500.02, -187500.02, -103021.84, -187500.02, -187500.02, 0.000, 0.000, 0.000, 17:32:17.464
100, 35185.85, -90284.23, -187500.02, -187500.02, -187500.02, -103002.31, -187500.02, -187500.02, 0.000, 0.000, 0.000, 17:32:17.464
101, 35161.89, -90520.27, -187500.02, -187500.02, -187500.02, -103275.00, -187500.02, -187500.02, 0.000, 0.000, 0.000, 17:32:17.464
102, 35184.28, -90658.43, -187500.02, -187500.02, -187500.02, -103437.88, -187500.02, -187500.02, 0.000, 0.000, 0.000, 17:32:17.464
103, 35205.25, -90482.56, -187500.02, -187500.02, -187500.02, -103244.98, -187500.02, -187500.02, 0.000, 0.000, 0.000, 17:32:17.464
104, 35182.61, -90394.38, -187500.02, -187500.02, -187500.02, -103132.06, -187500.02, -187500.02, 0.000, 0.000, 0.000, 17:32:17.465
105, 35153.55, -90539.63, -187500.02, -187500.02, -187500.02, -103308.69, -187500.02, -187500.02, 0.000, 0.000, 0.000, 17:32:17.465
106, 35170.96, -90635.63, -187500.02, -187500.02, -187500.02, -103436.78, -187500.02, -187500.02, 0.156, 0.044, 1.010, 17:32:17.465
107, 35184.93, -90542.71, -187500.02, -187500.02, -187500.02, -103333.99, -187500.02, -187500.02, 0.000, 0.000, 0.000, 17:32:17.465
108, 35179.32, -90404.84, -187500.02, -187500.02, -187500.02, -103163.84, -187500.02, -187500.02, 0.000, 0.000, 0.000, 17:32:17.466
109, 35149.41, -90518.52, -187500.02, -187500.02, -187500.02, -103297.55, -187500.02, -187500.02, 0.000, 0.000, 0.000, 17:32:17.466
110, 35156.59, -90637.57, -187500.02, -187500.02, -187500.02, -103452.54, -187500.02, -187500.02, 0.000, 0.000, 0.000, 17:32:17.466
111, 35181.02, -90509.72, -187500.02, -187500.02, -187500.02, -103324.60, -187500.02, -187500.02, 0.000, 0.000, 0.000, 17:32:17.467
112, 35205.79, -90300.51, -187500.02, -187500.02, -187500.02, -103077.84, -187500.02, -187500.02, 0.000, 0.000, 0.000, 17:32:17.467
113, 35167.63, -90422.34, -187500.02, -187500.02, -187500.02, -103206.20, -187500.02, -187500.02, 0.000, 0.000, 0.000, 17:32:17.467
114, 35186.76, -90652.91, -187500.02, -187500.02, -187500.02, -103476.37, -187500.02, -187500.02, 0.000, 0.000, 0.000, 17:32:17.467
115, 35198.30, -90618.62, -187500.02, -187500.02, -187500.02, -103446.64, -187500.02, -187500.02, 0.000, 0.000, 0.000, 17:32:17.467
116, 35194.63, -90418.52, -187500.02, -187500.02, -187500.02, -103216.10, -187500.02, -187500.02, 0.160, 0.042, 1.012, 17:32:17.467
117, 35164.21, -90484.89, -187500.02, -187500.02, -187500.02, -103282.42, -187500.02, -187500.02, 0.000, 0.000, 0.000, 17:32:17.468
118, 35166.25, -90609.32, -187500.02, -187500.02, -187500.02, -103447.45, -187500.02, -187500.02, 0.000, 0.000, 0.000, 17:32:17.468
119, 35191.61, -90603.59, -187500.02, -187500.02, -187500.02, -103455.49, -187500.02, -187500.02, 0.000, 0.000, 0.000, 17:32:17.468
120, 35211.80, -90380.15, -187500.02, -187500.02, -187500.02, -103202.31, -187500.02, -187500.02, 0.000, 0.000, 0.000, 17:32:17.468
121, 35177.66, -90355.05, -187500.02, -187500.02, -187500.02, -103161.05, -187500.02, -187500.02, 0.000, 0.000, 0.000, 17:32:17.468
122, 35160.30, -90550.76, -187500.02, -187500.02, -187500.02, -103397.49, -187500.02, -187500.02, 0.000, 0.000, 0.000, 17:32:17.468
123, 35189.36, -90630.13, -187500.02, -187500.02, -187500.02, -103499.33, -187500.02, -187500.02, 0.000, 0.000, 0.000, 17:32:17.469
124, 35204.62, -90451.00, -187500.02, -187500.02, -187500.02, -103296.73, -187500.02, -187500.02, 0.000, 0.000, 0.000, 17:32:17.469
125, 35186.65, -90371.01, -187500.02, -187500.02, -187500.02, -103193.66, -187500.02, -187500.02, 0.000, 0.000, 0.000, 17:32:17.469
126, 35163.09, -90535.80, -187500.02, -187500.02, -187500.02, -103392.69, -187500.02, -187500.02, 0.158, 0.042, 1.014, 17:32:17.469
127, 35163.00, -90609.03, -187500.02, -187500.02, -187500.02, -103492.69, -187500.02, -187500.02, 0.000, 0.000, 0.000, 17:32:17.469
128, 35187.19, -90460.70, -187500.02, -187500.02, -187500.02, -103330.19, -187500.02, -187500.02, 0.000, 0.000, 0.000, 17:32:17.469
129, 35202.63, -90357.51, -187500.02, -187500.02, -187500.02, -103198.42, -187500.02, -187500.02, 0.000, 0.000, 0.000, 17:32:17.470
130, 35183.66, -90498.92, -187500.02, -187500.02, -187500.02, -103366.66, -187500.02, -187500.02, 0.000, 0.000, 0.000, 17:32:17.470
131, 35197.20, -90579.68, -187500.02, -187500.02, -187500.02, -103480.02, -187500.02, -187500.02, 0.000, 0.000, 0.000, 17:32:17.470
132, 35205.89, -90440.50, -187500.02, -187500.02, -187500.02, -103332.45, -187500.02, -187500.02, 0.000, 0.000, 0.000, 17:32:17.470
133, 35188.30, -90324.94, -187500.02, -187500.02, -187500.02, -103180.23, -187500.02, -187500.02, 0.000, 0.000, 0.000, 17:32:17.470
134, 35160.21, -90509.72, -187500.02, -187500.02, -187500.02, -103382.80, -187500.02, -187500.02, 0.000, 0.000, 0.000, 17:32:17.470
135, 35181.15, -90671.13, -187500.02, -187500.02, -187500.02, -103583.19, -187500.02, -187500.02, 0.000, 0.000, 0.000, 17:32:17.471
136, 35218.39, -90565.17, -187500.02, -187500.02, -187500.02, -103477.91, -187500.02, -187500.02, 0.156, 0.044, 1.006, 17:32:17.471
137, 35219.22, -90390.41, -187500.02, -187500.02, -187500.02, -103270.48, -187500.02, -187500.02, 0.000, 0.000, 0.000, 17:32:17.471
138, 35171.03, -90463.14, -187500.02, -187500.02, -187500.02, -103349.95, -187500.02, -187500.02, 0.000, 0.000, 0.000, 17:32:17.471
139, 35161.15, -90615.84, -187500.02, -187500.02, -187500.02, -103542.27, -187500.02, -187500.02, 0.000, 0.000, 0.000, 17:32:17.471
140, 35181.55, -90578.72, -187500.02, -187500.02, -187500.02, -103513.25, -187500.02, -187500.02, 0.000, 0.000, 0.000, 17:32:17.471
141, 35195.59, -90368.48, -187500.02, -187500.02, -187500.02, -103272.39, -187500.02, -187500.02, 0.000, 0.000, 0.000, 17:32:17.471
142, 35162.29, -90365.35, -187500.02, -187500.02, -187500.02, -103262.69, -187500.02, -187500.02, 0.000, 0.000, 0.000, 17:32:17.472
143, 35161.39, -90531.96, -187500.02, -187500.02, -187500.02, -103470.65, -187500.02, -187500.02, 0.000, 0.000, 0.000, 17:32:17.472
144, 35169.89, -90531.34, -187500.02, -187500.02, -187500.02, -103489.09, -187500.02, -187500.02, 0.000, 0.000, 0.000, 17:32:17.472
145, 35208.78, -90364.91, -187500.02, -187500.02, -187500.02, -103297.60, -187500.02, -187500.02, 0.154, 0.040, 1.006, 17:32:17.472
146, 35196.24, -90400.06, -187500.02, -187500.02, -187500.02, -103317.52, -187500.02, -187500.02, 0.000, 0.000, 0.000, 17:32:17.472
147, 35178.14, -90555.02, -187500.02, -187500.02, -187500.02, -103507.82, -187500.02, -187500.02, 0.000, 0.000, 0.000, 17:32:17.472
148, 35192.11, -90603.44, -187500.02, -187500.02, -187500.02, -103575.90, -187500.02, -187500.02, 0.000, 0.000, 0.000, 17:32:17.473
149, 35209.05, -90426.91, -187500.02, -187500.02, -187500.02, -103377.84, -187500.02, -187500.02, 0.000, 0.000, 0.000, 17:32:17.473
150, 35202.41, -90393.20, -187500.02, -187500.02, -187500.02, -103320.69, -187500.02, -187500.02, 0.000, 0.000, 0.000, 17:32:17.473
151, 35159.92, -90526.93, -187500.02, -187500.02, -187500.02, -103487.21, -187500.02, -187500.02, 0.000, 0.000, 0.000, 17:32:17.473
152, 35180.26, -90583.39, -187500.02, -187500.02, -187500.02, -103569.45, -187500.02, -187500.02, 0.000, 0.000, 0.000, 17:32:17.473
153, 35201.02, -90407.98, -187500.02, -187500.02, -187500.02, -103377.44, -187500.02, -187500.02, 0.000, 0.000, 0.000, 17:32:17.473
154, 35183.10, -90315.38, -187500.02, -187500.02, -187500.02, -103253.23, -187500.02, -187500.02, 0.000, 0.000, 0.000, 17:32:17.474
155, 35152.16, -90470.74, -187500.02, -187500.02, -187500.02, -103435.09, -187500.02, -187500.02, 0.154, 0.042, 1.006, 17:32:17.474
156, 35167.34, -90632.23, -187500.02, -187500.02, -187500.02, -103631.71, -187500.02, -187500.02, 0.000, 0.000, 0.000, 17:32:17.474
157, 35184.02, -90528.72, -187500.02, -187500.02, -187500.02, -103522.30, -187500.02, -187500.02, 0.000, 0.000, 0.000, 17:32:17.474
158, 35193.22, -90380.98, -187500.02, -187500.02, -187500.02, -103340.88, -187500.02, -187500.02, 0.000, 0.000, 0.000, 17:32:17.474
159, 35150.48, -90520.92, -187500.02, -187500.02, -187500.02, -103498.72, -187500.02, -187500.02, 0.000, 0.000, 0.000, 17:32:17.474
160, 35162.78, -90612.25, -187500.02, -187500.02, -187500.02, -103627.09, -187500.02, -187500.02, 0.000, 0.000, 0.000, 17:32:17.475
161, 35196.31, -90518.55, -187500.02, -187500.02, -187500.02, -103532.47, -187500.02, -187500.02, 0.000, 0.000, 0.000, 17:32:17.475
162, 35209.11, -90367.14, -187500.02, -187500.02, -187500.02, -103345.01, -187500.02, -187500.02, 0.000, 0.000, 0.000, 17:32:17.475
163, 35172.26, -90409.88, -187500.02, -187500.02, -187500.02, -103389.40, -187500.02, -187500.02, 0.000, 0.000, 0.000, 17:32:17.475
164, 35162.09, -90532.99, -187500.02, -187500.02, -187500.02, -103550.80, -187500.02, -187500.02, 0.000, 0.000, 0.000, 17:32:17.475
165, 35179.61, -90543.16, -187500.02, -187500.02, -187500.02, -103569.11, -187500.02, -187500.02, 0.154, 0.046, 1.014, 17:32:17.475
166, 35210.05, -90398.43, -187500.02, -187500.02, -187500.02, -103393.18, -187500.02, -187500.02, 0.000, 0.000, 0.000, 17:32:17.476
167, 35197.09, -90422.03, -187500.02, -187500.02, -187500.02, -103405.70, -187500.02, -187500.02, 0.000, 0.000, 0.000, 17:32:17.476
168, 35169.60, -90607.20, -187500.02, -187500.02, -187500.02, -103627.58, -187500.02, -187500.02, 0.000, 0.000, 0.000, 17:32:17.476
169, 35179.66, -90605.61, -187500.02, -187500.02, -187500.02, -103640.12, -187500.02, -187500.02, 0.000, 0.000, 0.000, 17:32:17.476
170, 35197.52, -90401.90, -187500.02, -187500.02, -187500.02, -103408.46, -187500.02, -187500.02, 0.000, 0.000, 0.000, 17:32:17.476
171, 35171.63, -90412.38, -187500.02, -187500.02, -187500.02, -103400.13, -187500.02, -187500.02, 0.000, 0.000, 0.000, 17:32:17.476
172, 35166.98, -90582.84, -187500.02, -187500.02, -187500.02, -103607.84, -187500.02, -187500.02, 0.000, 0.000, 0.000, 17:32:17.477
173, 35186.72, -90602.99, -187500.02, -187500.02, -187500.02, -103650.58, -187500.02, -187500.02, 0.000, 0.000, 0.000, 17:32:17.477
174, 35202.68, -90417.56, -187500.02, -187500.02, -187500.02, -103445.26, -187500.02, -187500.02, 0.000, 0.000, 0.000, 17:32:17.477
175, 35205.25, -90375.68, -187500.02, -187500.02, -187500.02, -103377.48, -187500.02, -187500.02, 0.158, 0.046, 1.012, 17:32:17.477
176, 35161.26, -90560.46, -187500.02, -187500.02, -187500.02, -103593.38, -187500.02, -187500.02, 0.000, 0.000, 0.000, 17:32:17.477
177, 35164.57, -90657.17, -187500.02, -187500.02, -187500.02, -103719.94, -187500.02, -187500.02, 0.000, 0.000, 0.000, 17:32:17.477
178, 35189.38, -90492.42, -187500.02, -187500.02, -187500.02, -103543.02, -187500.02, -187500.02, 0.000, 0.000, 0.000, 17:32:17.477
179, 35215.35, -90378.59, -187500.02, -187500.02, -187500.02, -103396.08, -187500.02, -187500.02, 0.000, 0.000, 0.000, 17:32:17.478
180, 35154.42, -90509.27, -187500.02, -187500.02, -187500.02, -103548.41, -187500.02, -187500.02, 0.000, 0.000, 0.000, 17:32:17.478
181, 35146.44, -90606.44, -187500.02, -187500.02, -187500.02, -103679.05, -187500.02, -187500.02, 0.000, 0.000, 0.000, 17:32:17.478
182, 35208.49, -90478.98, -187500.02, -187500.02, -187500.02, -103545.05, -187500.02, -187500.02, 0.000, 0.000, 0.000, 17:32:17.478
183, 35214.01, -90348.74, -187500.02, -187500.02, -187500.02, -103383.45, -187500.02, -187500.02, 0.000, 0.000, 0.000, 17:32:17.478
184, 35164.61, -90528.85, -187500.02, -187500.02, -187500.02, -103579.16, -187500.02, -187500.02, 0.000, 0.000, 0.000, 17:32:17.479
185, 35165.80, -90667.34, -187500.02, -187500.02, -187500.02, -103755.54, -187500.02, -187500.02, 0.156, 0.040, 1.006, 17:32:17.479
186, 35195.01, -90572.44, -187500.02, -187500.02, -187500.02, -103663.21, -187500.02, -187500.02, 0.000, 0.000, 0.000, 17:32:17.479
187, 35233.66, -90400.87, -187500.02, -187500.02, -187500.02, -103458.91, -187500.02, -187500.02, 0.000, 0.000, 0.000, 17:32:17.479
188, 35187.97, -90490.88, -187500.02, -187500.02, -187500.02, -103550.94, -187500.02, -187500.02, 0.000, 0.000, 0.000, 17:32:17.479
189, 35170.83, -90586.79, -187500.02, -187500.02, -187500.02, -103686.72, -187500.02, -187500.02, 0.000, 0.000, 0.000, 17:32:17.479
190, 35197.47, -90570.18, -187500.02, -187500.02, -187500.02, -103680.33, -187500.02, -187500.02, 0.000, 0.000, 0.000, 17:32:17.480
191, 35215.11, -90409.48, -187500.02, -187500.02, -187500.02, -103488.95, -187500.02, -187500.02, 0.000, 0.000, 0.000, 17:32:17.480
192, 35169.53, -90450.84, -187500.02, -187500.02, -187500.02, -103517.34, -187500.02, -187500.02, 0.000, 0.000, 0.000, 17:32:17.480
193, 35165.51, -90625.30, -187500.02, -187500.02, -187500.02, -103728.25, -187500.02, -187500.02, 0.000, 0.000, 0.000, 17:32:17.480
194, 35202.63, -90614.84, -187500.02, -187500.02, -187500.02, -103735.05, -187500.02, -187500.02, 0.000, 0.000, 0.000, 17:32:17.480
195, 35210.79, -90394.90, -187500.02, -187500.02, -187500.02, -103488.55, -187500.02, -187500.02, 0.150, 0.044, 1.010, 17:32:17.480
196, 35167.16, -90377.09, -187500.02, -187500.02, -187500.02, -103449.77, -187500.02, -187500.02, 0.000, 0.000, 0.000, 17:32:17.481
197, 35153.23, -90598.05, -187500.02, -187500.02, -187500.02, -103705.63, -187500.02, -187500.02, 0.000, 0.000, 0.000, 17:32:17.481
198, 35189.11, -90667.70, -187500.02, -187500.02, -187500.02, -103798.91, -187500.02, -187500.02, 0.000, 0.000, 0.000, 17:32:17.481
199, 35215.86, -90474.13, -187500.02, -187500.02, -187500.02, -103586.70, -187500.02, -187500.02, 0.000, 0.000, 0.000, 17:32:17.481
200, 35202.16, -90426.21, -187500.02, -187500.02, -187500.02, -103510.79, -187500.02, -187500.02, 0.000, 0.000, 0.000, 17:32:17.481
201, 35157.86, -90575.68, -187500.02, -187500.02, -187500.02, -103688.58, -187500.02, -187500.02, 0.000, 0.000, 0.000, 17:32:17.482
202, 35181.91, -90672.40, -187500.02, -187500.02, -187500.02, -103815.69, -187500.02, -187500.02, 0.000, 0.000, 0.000, 17:32:17.482
203, 35234.80, -90547.98, -187500.02, -187500.02, -187500.02, -103679.95, -187500.02, -187500.02, 0.000, 0.000, 0.000, 17:32:17.482
204, 35218.21, -90424.85, -187500.02, -187500.02, -187500.02, -103523.33, -187500.02, -187500.02, 0.000, 0.000, 0.000, 17:32:17.482
205, 35158.85, -90557.33, -187500.02, -187500.02, -187500.02, -103675.21, -187500.02, -187500.02, 0.154, 0.046, 1.010, 17:32:17.482
206, 35164.28, -90642.18, -187500.02, -187500.02, -187500.02, -103794.32, -187500.02, -187500.02, 0.000, 0.000, 0.000, 17:32:17.482
207, 35200.66, -90481.69, -187500.02, -187500.02, -187500.02, -103631.34, -187500.02, -187500.02, 0.000, 0.000, 0.000, 17:32:17.483
208, 35211.84, -90329.27, -187500.02, -187500.02, -187500.02, -103442.80, -187500.02, -187500.02, 0.000, 0.000, 0.000, 17:32:17.483
209, 35196.89, -90481.78, -187500.02, -187500.02, -187500.02, -103603.93, -187500.02, -187500.02, 0.000, 0.000, 0.000, 17:32:17.483
210, 35208.11, -90666.80, -187500.02, -187500.02, -187500.02, -103827.13, -187500.02, -187500.02, 0.000, 0.000, 0.000, 17:32:17.942
211, 35218.26, -90644.30, -187500.02, -187500.02, -187500.02, -103809.23, -187500.02, -187500.02, 0.000, 0.000, 0.000, 17:32:17.942
212, 35218.55, -90502.41, -187500.02, -187500.02, -187500.02, -103637.70, -187500.02, -187500.02, 0.000, 0.000, 0.000, 17:32:17.942
213, 35178.96, -90588.42, -187500.02, -187500.02, -187500.02, -103724.79, -187500.02, -187500.02, 0.000, 0.000, 0.000, 17:32:17.942
214, 35173.44, -90710.44, -187500.02, -187500.02, -187500.02, -103885.63, -187500.02, -187500.02, 0.156, 0.050, 1.006, 17:32:17.942
215, 35200.22, -90663.75, -187500.02, -187500.02, -187500.02, -103850.72, -187500.02, -187500.02, 0.000, 0.000, 0.000, 17:32:17.942
216, 35220.85, -90470.54, -187500.02, -187500.02, -187500.02, -103628.88, -187500.02, -187500.02, 0.000, 0.000, 0.000, 17:32:17.942
217, 35175.16, -90496.22, -187500.02, -187500.02, -187500.02, -103639.42, -187500.02, -187500.02, 0.000, 0.000, 0.000, 17:32:17.942
218, 35171.70, -90633.33, -187500.02, -187500.02, -187500.02, -103813.61, -187500.02, -187500.02, 0.000, 0.000, 0.000, 17:32:17.943
219, 35190.56, -90661.60, -187500.02, -187500.02, -187500.02, -103861.84, -187500.02, -187500.02, 0.000, 0.000, 0.000, 17:32:17.943
220, 35204.82, -90447.63, -187500.02, -187500.02, -187500.02, -103624.29, -187500.02, -187500.02, 0.000, 0.000, 0.000, 17:32:17.943
221, 35175.79, -90405.80, -187500.02, -187500.02, -187500.02, -103556.84, -187500.02, -187500.02, 0.000, 0.000, 0.000, 17:32:17.943
222, 35165.42, -90589.31, -187500.02, -187500.02, -187500.02, -103774.85, -187500.02, -187500.02, 0.000, 0.000, 0.000, 17:32:17.943
223, 35196.64, -90720.05, -187500.02, -187500.02, -187500.02, -103932.05, -187500.02, -187500.02, 0.000, 0.000, 0.000, 17:32:17.944
224, 35223.29, -90564.62, -187500.02, -187500.02, -187500.02, -103758.02, -187500.02, -187500.02, 0.154, 0.050, 1.004, 17:32:17.944
225, 35202.83, -90432.02, -187500.02, -187500.02, -187500.02, -103593.67, -187500.02, -187500.02, 0.000, 0.000, 0.000, 17:32:17.944
226, 35167.63, -90565.06, -187500.02, -187500.02, -187500.02, -103752.34, -187500.02, -187500.02, 0.000, 0.000, 0.000, 17:32:17.944
227, 35176.82, -90686.73, -187500.02, -187500.02, -187500.02, -103905.57, -187500.02, -187500.02, 0.000, 0.000, 0.000, 17:32:17.944
228, 35212.73, -90534.71, -187500.02, -187500.02, -187500.02, -103743.47, -187500.02, -187500.02, 0.000, 0.000, 0.000, 17:32:17.944
229, 35220.63, -90384.17, -187500.02, -187500.02, -187500.02, -103556.45, -187500.02, -187500.02, 0.000, 0.000, 0.000, 17:32:17.945
230, 35185.64, -90471.01, -187500.02, -187500.02, -187500.02, -103657.46, -187500.02, -187500.02, 0.000, 0.000, 0.000, 17:32:17.945
231, 35203.62, -90597.95, -187500.02, -187500.02, -187500.02, -103819.76, -187500.02, -187500.02, 0.000, 0.000, 0.000, 17:32:17.945
232, 35210.05, -90557.91, -187500.02, -187500.02, -187500.02, -103777.67, -187500.02, -187500.02, 0.000, 0.000, 0.000, 17:32:17.945
233, 35214.08, -90394.16, -187500.02, -187500.02, -187500.02, -103579.68, -187500.02, -187500.02, 0.000, 0.000, 0.000, 17:32:17.945
234, 35173.02, -90506.39, -187500.02, -187500.02, -187500.02, -103697.85, -187500.02, -187500.02, 0.158, 0.046, 1.004, 17:32:17.945
235, 35159.16, -90661.40, -187500.02, -187500.02, -187500.02, -103890.37, -187500.02, -187500.02, 0.000, 0.000, 0.000, 17:32:17.945
236, 35190.38, -90620.05, -187500.02, -187500.02, -187500.02, -103853.60, -187500.02, -187500.02, 0.000, 0.000, 0.000, 17:32:17.945
237, 35220.18, -90427.09, -187500.02, -187500.02, -187500.02, -103626.53, -187500.02, -187500.02, 0.000, 0.000, 0.000, 17:32:17.946
238, 35192.44, -90445.98, -187500.02, -187500.02, -187500.02, -103639.23, -187500.02, -187500.02, 0.000, 0.000, 0.000, 17:32:17.946
239, 35181.93, -90619.63, -187500.02, -187500.02, -187500.02, -103851.66, -187500.02, -187500.02, 0.000, 0.000, 0.000, 17:32:17.946
240, 35180.62, -90707.55, -187500.02, -187500.02, -187500.02, -103953.02, -187500.02, -187500.02, 0.000, 0.000, 0.000, 17:32:17.946
241, 35202.88, -90510.19, -187500.02, -187500.02, -187500.02, -103726.30, -187500.02, -187500.02, 0.000, 0.000, 0.000, 17:32:17.946
242, 35183.90, -90480.46, -187500.02, -187500.02, -187500.02, -103680.62, -187500.02, -187500.02, 0.000, 0.000, 0.000, 17:32:17.946
243, 35189.82, -90608.60, -187500.02, -187500.02, -187500.02, -103846.73, -187500.02, -187500.02, 0.000, 0.000, 0.000, 17:32:17.946
244, 35206.75, -90623.20, -187500.02, -187500.02, -187500.02, -103881.12, -187500.02, -187500.02, 0.156, 0.042, 1.004, 17:32:17.946
245, 35213.36, -90397.56, -187500.02, -187500.02, -187500.02, -103631.91, -187500.02, -187500.02, 0.000, 0.000, 0.000, 17:32:17.946
246, 35200.26, -90365.13, -187500.02, -187500.02, -187500.02, -103572.33, -187500.02, -187500.02, 0.000, 0.000, 0.000, 17:32:17.946
247, 35167.96, -90572.13, -187500.02, -187500.02, -187500.02, -103811.98, -187500.02, -187500.02, 0.000, 0.000, 0.000, 17:32:17.947
248, 35183.93, -90685.27, -187500.02, -187500.02, -187500.02, -103952.39, -187500.02, -187500.02, 0.000, 0.000, 0.000, 17:32:17.947
249, 35225.63, -90537.70, -187500.02, -187500.02, -187500.02, -103788.91, -187500.02, -187500.02, 0.000, 0.000, 0.000, 17:32:17.947
250, 35198.14, -90421.32, -187500.02, -187500.02, -187500.02, -103643.29, -187500.02, -187500.02, 0.000, 0.000, 0.000, 17:32:17.947
251, 35172.88, -90563.16, -187500.02, -187500.02, -187500.02, -103809.23, -187500.02, -187500.02, 0.000, 0.000, 0.000, 17:32:17.947
252, 35192.33, -90679.08, -187500.02, -187500.02, -187500.02, -103956.77, -187500.02, -187500.02, 0.000, 0.000, 0.000, 17:32:17.947
253, 35212.67, -90517.86, -187500.02, -187500.02, -187500.02, -103787.44, -187500.02, -187500.02, 0.000, 0.000, 0.000, 17:32:17.947
254, 35215.38, -90386.96, -187500.02, -187500.02, -187500.02, -103622.10, -187500.02, -187500.02, 0.154, 0.046, 1.004, 17:32:17.947
255, 35180.19, -90540.72, -187500.02, -187500.02, -187500.02, -103792.00, -187500.02, -187500.02, 0.000, 0.000, 0.000, 17:32:17.947
0, 35179.61, -90722.29, -187500.02, -187500.02, -187500.02, -104009.13, -187500.02, -187500.02, 0.000, 0.000, 0.000, 17:32:17.948
1, 35199.70, -90665.53, -187500.02, -187500.02, -187500.02, -103951.32, -187500.02, -187500.02, 0.000, 0.000, 0.000, 17:32:17.948
2, 35215.71, -90465.09, -187500.02, -187500.02, -187500.02, -103716.45, -187500.02, -187500.02, 0.000, 0.000, 0.000, 17:32:17.948
3, 35176.13, -90560.08, -187500.02, -187500.02, -187500.02, -103815.00, -187500.02, -187500.02, 0.000, 0.000, 0.000, 17:32:17.948
4, 35170.29, -90719.05, -187500.02, -187500.02, -187500.02, -104011.72, -187500.02, -187500.02, 0.000, 0.000, 0.000, 17:32:17.948
5, 35205.76, -90647.66, -187500.02, -187500.02, -187500.02, -103946.67, -187500.02, -187500.02, 0.000, 0.000, 0.000, 17:32:17.948
6, 35237.19, -90430.26, -187500.02, -187500.02, -187500.02, -103697.47, -187500.02, -187500.02, 0.000, 0.000, 0.000, 17:32:17.948
7, 35196.93, -90460.88, -187500.02, -187500.02, -187500.02, -103719.78, -187500.02, -187500.02, 0.000, 0.000, 0.000, 17:32:17.949
8, 35175.23, -90610.41, -187500.02, -187500.02, -187500.02, -103908.92, -187500.02, -187500.02, 0.148, 0.048, 1.004, 17:32:17.949
9, 35190.23, -90617.55, -187500.02, -187500.02, -187500.02, -103930.84, -187500.02, -187500.02, 0.000, 0.000, 0.000, 17:32:17.949
10, 35225.30, -90365.22, -187500.02, -187500.02, -187500.02, -103647.94, -187500.02, -187500.02, 0.000, 0.000, 0.000, 17:32:17.949
11, 35211.73, -90368.37, -187500.02, -187500.02, -187500.02, -103627.87, -187500.02, -187500.02, 0.000, 0.000, 0.000, 17:32:17.949
12, 35186.85, -90615.63, -187500.02, -187500.02, -187500.02, -103910.13, -187500.02, -187500.02, 0.000, 0.000, 0.000, 17:32:17.949
13, 35205.29, -90706.75, -187500.02, -187500.02, -187500.02, -104023.16, -187500.02, -187500.02, 0.000, 0.000, 0.000, 17:32:17.949
14, 35244.63, -90566.16, -187500.02, -187500.02, -187500.02, -103863.10, -187500.02, -187500.02, 0.000, 0.000, 0.000, 17:32:17.949
15, 35221.23, -90507.82, -187500.02, -187500.02, -187500.02, -103780.98, -187500.02, -187500.02, 0.000, 0.000, 0.000, 17:32:17.949
16, 35181.31, -90643.61, -187500.02, -187500.02, -187500.02, -103946.36, -187500.02, -187500.02, 0.000, 0.000, 0.000, 17:32:17.950
17, 35189.33, -90695.46, -187500.02, -187500.02, -187500.02, -104026.34, -187500.02, -187500.02, 0.152, 0.056, 1.002, 17:32:17.950
18, 35212.51, -90554.31, -187500.02, -187500.02, -187500.02, -103872.33, -187500.02, -187500.02, 0.000, 0.000, 0.000, 17:32:17.950
19, 35225.10, -90459.79, -187500.02, -187500.02, -187500.02, -103745.15, -187500.02, -187500.02, 0.000, 0.000, 0.000, 17:32:17.950
20, 35188.15, -90625.05, -187500.02, -187500.02, -187500.02, -103931.27, -187500.02, -187500.02, 0.000, 0.000, 0.000, 17:32:17.950
21, 35189.24, -90711.18, -187500.02, -187500.02, -187500.02, -104049.36, -187500.02, -187500.02, 0.000, 0.000, 0.000, 17:32:17.950
22, 35200.18, -90594.45, -187500.02, -187500.02, -187500.02, -103926.20, -187500.02, -187500.02, 0.000, 0.000, 0.000, 17:32:17.950
23, 35210.90, -90427.02, -187500.02, -187500.02, -187500.02, -103723.13, -187500.02, -187500.02, 0.000, 0.000, 0.000, 17:32:17.950
24, 35183.43, -90574.38, -187500.02, -187500.02, -187500.02, -103883.13, -187500.02, -187500.02, 0.000, 0.000, 0.000, 17:32:17.950
25, 35194.74, -90728.27, -187500.02, -187500.02, -187500.02, -104073.07, -187500.02, -187500.02, 0.000, 0.000, 0.000, 17:32:17.950
26, 35222.08, -90687.39, -187500.02, -187500.02, -187500.02, -104033.62, -187500.02, -187500.02, 0.000, 0.000, 0.000, 17:32:17.951
27, 35237.21, -90519.11, -187500.02, -187500.02, -187500.02, -103831.25, -187500.02, -187500.02, 0.146, 0.052, 1.006, 17:32:17.951
28, 35182.27, -90572.93, -187500.02, -187500.02, -187500.02, -103886.19, -187500.02, -187500.02, 0.000, 0.000, 0.000, 17:32:17.951
29, 35172.52, -90709.01, -187500.02, -187500.02, -187500.02, -104058.90, -187500.02, -187500.02, 0.000, 0.000, 0.000, 17:32:17.951
30, 35209.27, -90702.73, -187500.02, -187500.02, -187500.02, -104059.13, -187500.02, -187500.02, 0.000, 0.000, 0.000, 17:32:17.951
31, 35228.38, -90518.95, -187500.02, -187500.02, -187500.02, -103843.09, -187500.02, -187500.02, 0.000, 0.000, 0.000, 17:32:17.951
32, 35207.53, -90549.46, -187500.02, -187500.02, -187500.02, -103862.67, -187500.02, -187500.02, 0.000, 0.000, 0.000, 17:32:17.951
33, 35195.21, -90691.35, -187500.02, -187500.02, -187500.02, -104043.32, -187500.02, -187500.02, 0.000, 0.000, 0.000, 17:32:17.951
34, 35198.72, -90685.90, -187500.02, -187500.02, -187500.02, -104056.40, -187500.02, -187500.02, 0.000, 0.000, 0.000, 17:32:17.951
35, 35197.36, -90474.20, -187500.02, -187500.02, -187500.02, -103818.58, -187500.02, -187500.02, 0.000, 0.000, 0.000, 17:32:17.951
36, 35193.85, -90430.66, -187500.02, -187500.02, -187500.02, -103750.76, -187500.02, -187500.02, 0.000, 0.000, 0.000, 17:32:17.952
37, 35179.39, -90629.05, -187500.02, -187500.02, -187500.02, -103982.14, -187500.02, -187500.02, 0.150, 0.046, 1.010, 17:32:17.952
38, 35205.20, -90748.37, -187500.02, -187500.02, -187500.02, -104123.25, -187500.02, -187500.02, 0.000, 0.000, 0.000, 17:32:17.952
39, 35228.61, -90583.01, -187500.02, -187500.02, -187500.02, -103936.55, -187500.02, -187500.02, 0.000, 0.000, 0.000, 17:32:17.952
40, 35200.33, -90510.62, -187500.02, -187500.02, -187500.02, -103834.78, -187500.02, -187500.02, 0.000, 0.000, 0.000, 17:32:17.952
41, 35170.27, -90654.20, -187500.02, -187500.02, -187500.02, -104006.15, -187500.02, -187500.02, 0.000, 0.000, 0.000, 17:32:17.952
42, 35178.38, -90728.55, -187500.02, -187500.02, -187500.02, -104112.25, -187500.02, -187500.02, 0.000, 0.000, 0.000, 17:32:17.952
43, 35209.25, -90563.88, -187500.02, -187500.02, -187500.02, -103936.55, -187500.02, -187500.02, 0.000, 0.000, 0.000, 17:32:17.952
44, 35205.88, -90427.13, -187500.02, -187500.02, -187500.02, -103763.66, -187500.02, -187500.02, 0.000, 0.000, 0.000, 17:32:17.952
45, 35159.88, -90584.22, -187500.02, -187500.02, -187500.02, -103939.23, -187500.02, -187500.02, 0.000, 0.000, 0.000, 17:32:17.953
46, 35190.65, -90759.79, -187500.02, -187500.02, -187500.02, -104149.58, -187500.02, -187500.02, 0.000, 0.000, 0.000, 17:32:17.953
47, 35226.13, -90710.88, -187500.02, -187500.02, -187500.02, -104096.18, -187500.02, -187500.02, 0.154, 0.050, 1.006, 17:32:17.953
48, 35225.34, -90530.98, -187500.02, -187500.02, -187500.02, -103881.85, -187500.02, -187500.02, 0.000, 0.000, 0.000, 17:32:17.953
49, 35172.39, -90630.24, -187500.02, -187500.02, -187500.02, -103989.21, -187500.02, -187500.02, 0.000, 0.000, 0.000, 17:32:17.953
50, 35169.71, -90743.92, -187500.02, -187500.02, -187500.02, -104138.90, -187500.02, -187500.02, 0.000, 0.000, 0.000, 17:32:17.953
51, 35202.43, -90698.05, -187500.02, -187500.02, -187500.02, -104094.55, -187500.02, -187500.02, 0.000, 0.000, 0.000, 17:32:17.953
52, 35214.68, -90481.20, -187500.02, -187500.02, -187500.02, -103841.53, -187500.02, -187500.02, 0.000, 0.000, 0.000, 17:32:17.953
53, 35174.80, -90516.11, -187500.02, -187500.02, -187500.02, -103872.91, -187500.02, -187500.02, 0.000, 0.000, 0.000, 17:32:17.953
54, 35191.77, -90687.06, -187500.02, -187500.02, -187500.02, -104085.50, -187500.02, -187500.02, 0.000, 0.000, 0.000, 17:32:17.953
55, 35194.74, -90692.11, -187500.02, -187500.02, -187500.02, -104103.76, -187500.02, -187500.02, 0.000, 0.000, 0.000, 17:32:17.954
56, 35203.91, -90514.66, -187500.02, -187500.02, -187500.02, -103896.83, -187500.02, -187500.02, 0.000, 0.000, 0.000, 17:32:17.954
57, 35196.71, -90573.76, -187500.02, -187500.02, -187500.02, -103942.85, -187500.02, -187500.02, 0.156, 0.052, 1.008, 17:32:17.954
58, 35182.05, -90724.77, -187500.02, -187500.02, -187500.02, -104132.10, -187500.02, -187500.02, 0.000, 0.000, 0.000, 17:32:17.954
59, 35188.95, -90779.46, -187500.02, -187500.02, -187500.02, -104202.71, -187500.02, -187500.02, 0.000, 0.000, 0.000, 17:32:17.954
60, 35201.25, -90588.60, -187500.02, -187500.02, -187500.02, -103984.91, -187500.02, -187500.02, 0.000, 0.000, 0.000, 17:32:17.954
61, 35194.25, -90541.80, -187500.02, -187500.02, -187500.02, -103914.62, -187500.02, -187500.02, 0.000, 0.000, 0.000, 17:32:17.954
62, 35163.76, -90700.07, -187500.02, -187500.02, -187500.02, -104105.73, -187500.02, -187500.02, 0.000, 0.000, 0.000, 17:32:17.954
63, 35187.81, -90761.70, -187500.02, -187500.02, -187500.02, -104190.46, -187500.02, -187500.02, 0.000, 0.000, 0.000, 17:32:17.954
64, 35231.11, -90561.89, -187500.02, -187500.02, -187500.02, -103971.23, -187500.02, -187500.02, 0.000, 0.000, 0.000, 17:32:17.954
65, 35216.40, -90455.47, -187500.02, -187500.02, -187500.02, -103831.13, -187500.02, -187500.02, 0.000, 0.000, 0.000, 17:32:17.955
66, 35177.53, -90618.22, -187500.02, -187500.02, -187500.02, -104018.76, -187500.02, -187500.02, 0.000, 0.000, 0.000, 17:32:17.955
67, 35200.29, -90797.84, -187500.02, -187500.02, -187500.02, -104228.39, -187500.02, -187500.02, 0.154, 0.046, 1.004, 17:32:17.955
68, 35210.79, -90694.46, -187500.02, -187500.02, -187500.02, -104113.95, -187500.02, -187500.02, 0.000, 0.000, 0.000, 17:32:17.955
69, 35196.46, -90571.43, -187500.02, -187500.02, -187500.02, -103955.75, -187500.02, -187500.02, 0.000, 0.000, 0.000, 17:32:17.955
70, 35159.49, -90683.37, -187500.02, -187500.02, -187500.02, -104083.27, -187500.02, -187500.02, 0.000, 0.000, 0.000, 17:32:17.955
71, 35168.70, -90811.45, -187500.02, -187500.02, -187500.02, -104246.77, -187500.02, -187500.02, 0.000, 0.000, 0.000, 17:32:17.955
72, 35195.23, -90706.57, -187500.02, -187500.02, -187500.02, -104138.31, -187500.02, -187500.02, 0.000, 0.000, 0.000, 17:32:17.955
73, 35184.64, -90535.45, -187500.02, -187500.02, -187500.02, -103928.74, -187500.02, -187500.02, 0.000, 0.000, 0.000, 17:32:17.955
74, 35149.91, -90639.61, -187500.02, -187500.02, -187500.02, -104037.17, -187500.02, -187500.02, 0.000, 0.000, 0.000, 17:32:18.437
75, 35177.26, -90768.17, -187500.02, -187500.02, -187500.02, -104201.62, -187500.02, -187500.02, 0.000, 0.000, 0.000, 17:32:18.437
76, 35195.19, -90723.98, -187500.02, -187500.02, -187500.02, -104160.63, -187500.02, -187500.02, 0.152, 0.050, 1.004, 17:32:18.438
77, 35201.61, -90501.30, -187500.02, -187500.02, -187500.02, -103902.73, -187500.02, -187500.02, 0.000, 0.000, 0.000, 17:32:18.438
78, 35175.34, -90560.13, -187500.02, -187500.02, -187500.02, -103956.10, -187500.02, -187500.02, 0.000, 0.000, 0.000, 17:32:18.439
79, 35178.70, -90738.00, -187500.02, -187500.02, -187500.02, -104172.58, -187500.02, -187500.02, 0.000, 0.000, 0.000, 17:32:18.439
80, 35204.76, -90812.36, -187500.02, -187500.02, -187500.02, -104258.57, -187500.02, -187500.02, 0.000, 0.000, 0.000, 17:32:18.440
81, 35225.39, -90633.39, -187500.02, -187500.02, -187500.02, -104049.73, -187500.02, -187500.02, 0.000, 0.000, 0.000, 17:32:18.440
82, 35196.06, -90618.62, -187500.02, -187500.02, -187500.02, -104018.84, -187500.02, -187500.02, 0.000, 0.000, 0.000, 17:32:18.441
83, 35194.07, -90752.88, -187500.02, -187500.02, -187500.02, -104189.93, -187500.02, -187500.02, 0.000, 0.000, 0.000, 17:32:18.441
84, 35201.71, -90805.39, -187500.02, -187500.02, -187500.02, -104260.78, -187500.02, -187500.02, 0.000, 0.000, 0.000, 17:32:18.441
85, 35209.59, -90591.21, -187500.02, -187500.02, -187500.02, -104020.81, -187500.02, -187500.02, 0.000, 0.000, 0.000, 17:32:18.442
86, 35179.81, -90580.73, -187500.02, -187500.02, -187500.02, -103981.85, -187500.02, -187500.02, 0.154, 0.042, 1.002, 17:32:18.442
87, 35162.38, -90769.94, -187500.02, -187500.02, -187500.02, -104199.96, -187500.02, -187500.02, 0.000, 0.000, 0.000, 17:32:18.442
88, 35194.47, -90834.13, -187500.02, -187500.02, -187500.02, -104289.23, -187500.02, -187500.02, 0.000, 0.000, 0.000, 17:32:18.443
89, 35212.63, -90641.38, -187500.02, -187500.02, -187500.02, -104077.61, -187500.02, -187500.02, 0.000, 0.000, 0.000, 17:32:18.443
90, 35217.14, -90528.07, -187500.02, -187500.02, -187500.02, -103927.90, -187500.02, -187500.02, 0.000, 0.000, 0.000, 17:32:18.443
91, 35185.06, -90703.64, -187500.02, -187500.02, -187500.02, -104125.27, -187500.02, -187500.02, 0.000, 0.000, 0.000, 17:32:18.444
92, 35196.73, -90872.69, -187500.02, -187500.02, -187500.02, -104326.74, -187500.02, -187500.02, 0.000, 0.000, 0.000, 17:32:18.444
93, 35218.19, -90776.94, -187500.02, -187500.02, -187500.02, -104223.72, -187500.02, -187500.02, 0.000, 0.000, 0.000, 17:32:18.444
94, 35199.77, -90622.51, -187500.02, -187500.02, -187500.02, -104035.68, -187500.02, -187500.02, 0.000, 0.000, 0.000, 17:32:18.445
95, 35163.38, -90749.02, -187500.02, -187500.02, -187500.02, -104176.38, -187500.02, -187500.02, 0.000, 0.000, 0.000, 17:32:18.445
96, 35188.71, -90870.21, -187500.02, -187500.02, -187500.02, -104333.07, -187500.02, -187500.02, 0.152, 0.042, 1.006, 17:32:18.445
97, 35196.75, -90762.97, -187500.02, -187500.02, -187500.02, -104223.66, -187500.02, -187500.02, 0.000, 0.000, 0.000, 17:32:18.446
98, 35207.17, -90590.09, -187500.02, -187500.02, -187500.02, -104012.97, -187500.02, -187500.02, 0.000, 0.000, 0.000, 17:32:18.446
99, 35180.19, -90697.77, -187500.02, -187500.02, -187500.02, -104122.29, -187500.02, -187500.02, 0.000, 0.000, 0.000, 17:32:18.447
100, 35191.59, -90870.55, -187500.02, -187500.02, -187500.02, -104330.66, -187500.02, -187500.02, 0.000, 0.000, 0.000, 17:32:18.448
101, 35205.07, -90792.07, -187500.02, -187500.02, -187500.02, -104258.05, -187500.02, -187500.02, 0.000, 0.000, 0.000, 17:32:18.448
102, 35203.53, -90522.98, -187500.02, -187500.02, -187500.02, -103952.41, -187500.02, -187500.02, 0.000, 0.000, 0.000, 17:32:18.449
103, 35179.21, -90616.14, -187500.02, -187500.02, -187500.02, -104037.84, -187500.02, -187500.02, 0.000, 0.000, 0.000, 17:32:18.449
104, 35179.66, -90835.50, -187500.02, -187500.02, -187500.02, -104298.02, -187500.02, -187500.02, 0.000, 0.000, 0.000, 17:32:18.449
105, 35195.75, -90890.17, -187500.02, -187500.02, -187500.02, -104367.78, -187500.02, -187500.02, 0.000, 0.000, 0.000, 17:32:18.450
106, 35207.44, -90682.56, -187500.02, -187500.02, -187500.02, -104132.37, -187500.02, -187500.02, 0.154, 0.044, 1.006, 17:32:18.450
107, 35181.76, -90655.19, -187500.02, -187500.02, -187500.02, -104086.02, -187500.02, -187500.02, 0.000, 0.000, 0.000, 17:32:18.451
108, 35173.91, -90817.88, -187500.02, -187500.02, -187500.02, -104282.20, -187500.02, -187500.02, 0.000, 0.000, 0.000, 17:32:18.451
109, 35198.27, -90858.25, -187500.02, -187500.02, -187500.02, -104341.09, -187500.02, -187500.02, 0.000, 0.000, 0.000, 17:32:18.451
110, 35213.68, -90689.07, -187500.02, -187500.02, -187500.02, -104147.97, -187500.02, -187500.02, 0.000, 0.000, 0.000, 17:32:18.451
111, 35190.81, -90595.51, -187500.02, -187500.02, -187500.02, -104026.71, -187500.02, -187500.02, 0.000, 0.000, 0.000, 17:32:18.451
112, 35164.57, -90745.13, -187500.02, -187500.02, -187500.02, -104204.79, -187500.02, -187500.02, 0.000, 0.000, 0.000, 17:32:18.452
113, 35164.77, -90876.58, -187500.02, -187500.02, -187500.02, -104361.43, -187500.02, -187500.02, 0.000, 0.000, 0.000, 17:32:18.452
114, 35206.12, -90758.95, -187500.02, -187500.02, -187500.02, -104227.57, -187500.02, -187500.02, 0.000, 0.000, 0.000, 17:32:18.452
115, 35216.11, -90639.88, -187500.02, -187500.02, -187500.02, -104076.52, -187500.02, -187500.02, 0.000, 0.000, 0.000, 17:32:18.452
116, 35187.03, -90800.74, -187500.02, -187500.02, -187500.02, -104257.61, -187500.02, -187500.02, 0.158, 0.044, 1.004, 17:32:18.452
117, 35209.70, -90889.59, -187500.02, -187500.02, -187500.02, -104376.23, -187500.02, -187500.02, 0.000, 0.000, 0.000, 17:32:18.453
118, 35214.08, -90759.34, -187500.02, -187500.02, -187500.02, -104237.31, -187500.02, -187500.02, 0.000, 0.000, 0.000, 17:32:18.453
119, 35223.04, -90556.28, -187500.02, -187500.02, -187500.02, -103995.63, -187500.02, -187500.02, 0.000, 0.000, 0.000, 17:32:18.453
120, 35183.16, -90688.02, -187500.02, -187500.02, -187500.02, -104138.14, -187500.02, -187500.02, 0.000, 0.000, 0.000, 17:32:18.453
121, 35177.69, -90912.50, -187500.02, -187500.02, -187500.02, -104399.61, -187500.02, -187500.02, 0.000, 0.000, 0.000, 17:32:18.453
122, 35203.73, -90896.34, -187500.02, -187500.02, -187500.02, -104383.07, -187500.02, -187500.02, 0.000, 0.000, 0.000, 17:32:18.454
123, 35223.89, -90727.56, -187500.02, -187500.02, -187500.02, -104178.39, -187500.02, -187500.02, 0.000, 0.000, 0.000, 17:32:18.454
124, 35180.59, -90819.05, -187500.02, -187500.02, -187500.02, -104270.91, -187500.02, -187500.02, 0.000, 0.000, 0.000, 17:32:18.454
125, 35180.62, -90938.43, -187500.02, -187500.02, -187500.02, -104427.08, -187500.02, -187500.02, 0.000, 0.000, 0.000, 17:32:18.455
126, 35204.27, -90890.37, -187500.02, -187500.02, -187500.02, -104385.21, -187500.02, -187500.02, 0.158, 0.042, 1.002, 17:32:18.455
127, 35214.23, -90698.80, -187500.02, -187500.02, -187500.02, -104160.29, -187500.02, -187500.02, 0.000, 0.000, 0.000, 17:32:18.455
128, 35181.62, -90756.87, -187500.02, -187500.02, -187500.02, -104207.27, -187500.02, -187500.02, 0.000, 0.000, 0.000, 17:32:18.455
129, 35177.38, -90893.34, -187500.02, -187500.02, -187500.02, -104381.91, -187500.02, -187500.02, 0.000, 0.000, 0.000, 17:32:18.455
130, 35208.71, -90900.72, -187500.02, -187500.02, -187500.02, -104401.84, -187500.02, -187500.02, 0.000, 0.000, 0.000, 17:32:18.456
131, 35220.74, -90673.58, -187500.02, -187500.02, -187500.02, -104145.11, -187500.02, -187500.02, 0.000, 0.000, 0.000, 17:32:18.456
132, 35180.15, -90639.02, -187500.02, -187500.02, -187500.02, -104088.31, -187500.02, -187500.02, 0.000, 0.000, 0.000, 17:32:18.456
133, 35150.53, -90799.13, -187500.02, -187500.02, -187500.02, -104283.31, -187500.02, -187500.02, 0.000, 0.000, 0.000, 17:32:18.456
134, 35179.48, -90898.98, -187500.02, -187500.02, -187500.02, -104404.64, -187500.02, -187500.02, 0.000, 0.000, 0.000, 17:32:18.456
135, 35228.36, -90775.98, -187500.02, -187500.02, -187500.02, -104257.49, -187500.02, -187500.02, 0.000, 0.000, 0.000, 17:32:18.457
136, 35224.67, -90706.64, -187500.02, -187500.02, -187500.02, -104158.34, -187500.02, -187500.02, 0.156, 0.048, 1.010, 17:32:18.457
137, 35175.45, -90850.70, -187500.02, -187500.02, -187500.02, -104329.76, -187500.02, -187500.02, 0.000, 0.000, 0.000, 17:32:18.457
138, 35195.35, -90935.92, -187500.02, -187500.02, -187500.02, -104442.57, -187500.02, -187500.02, 0.000, 0.000, 0.000, 17:32:18.457
139, 35235.09, -90786.46, -187500.02, -187500.02, -187500.02, -104279.24, -187500.02, -187500.02, 0.000, 0.000, 0.000, 17:32:18.457
140, 35216.49, -90688.38, -187500.02, -187500.02, -187500.02, -104143.01, -187500.02, -187500.02, 0.000, 0.000, 0.000, 17:32:18.458
141, 35175.30, -90818.58, -187500.02, -187500.02, -187500.02, -104289.19, -187500.02, -187500.02, 0.000, 0.000, 0.000, 17:32:18.458
142, 35201.49, -90893.23, -187500.02, -187500.02, -187500.02, -104393.51, -187500.02, -187500.02, 0.000, 0.000, 0.000, 17:32:18.458
143, 35217.39, -90777.12, -187500.02, -187500.02, -187500.02, -104267.58, -187500.02, -187500.02, 0.000, 0.000, 0.000, 17:32:18.458
