%OpenBCI Raw EEG Data
%
%Sample Rate = 250.0 Hz
%First Column = SampleIndex
%Last Column = Timestamp 
%Other Columns = EEG data in microvolts followed by Accel Data (in G) interleaved with Aux Data
0, 0.00, 0.00, 0.00, 0.00, 0.00, 0.00, 0.00, 0.00, 0.000, 0.000, 0.000, 17:31:02.331
1, 33957.30, -80948.56, -187500.02, -187500.02, -187500.02, -80863.49, -187500.02, -187500.02, 0.150, 0.060, 1.008, 17:31:02.809
2, 33968.50, -80787.49, -187500.02, -187500.02, -187500.02, -80687.91, -187500.02, -187500.02, 0.000, 0.000, 0.000, 17:31:02.809
3, 33979.10, -80683.07, -187500.02, -187500.02, -187500.02, -80548.84, -187500.02, -187500.02, 0.000, 0.000, 0.000, 17:31:02.809
4, 33954.98, -80802.31, -187500.02, -187500.02, -187500.02, -80686.76, -187500.02, -187500.02, 0.000, 0.000, 0.000, 17:31:02.809
5, 33964.57, -80911.21, -187500.02, -187500.02, -187500.02, -80827.17, -187500.02, -187500.02, 0.000, 0.000, 0.000, 17:31:02.809
6, 34018.50, -80781.10, -187500.02, -187500.02, -187500.02, -80688.30, -187500.02, -187500.02, 0.000, 0.000, 0.000, 17:31:02.809
7, 33997.74, -80642.81, -187500.02, -187500.02, -187500.02, -80511.23, -187500.02, -187500.02, 0.000, 0.000, 0.000, 17:31:02.810
8, 33947.11, -80781.99, -187500.02, -187500.02, -187500.02, -80659.62, -187500.02, -187500.02, 0.146, 0.054, 1.014, 17:31:02.810
9, 33947.94, -80974.13, -187500.02, -187500.02, -187500.02, -80889.84, -187500.02, -187500.02, 0.000, 0.000, 0.000, 17:31:02.810
10, 33950.24, -80992.68, -187500.02, -187500.02, -187500.02, -80912.02, -187500.02, -187500.02, 0.000, 0.000, 0.000, 17:31:02.810
11, 33965.02, -80846.86, -187500.02, -187500.02, -187500.02, -80734.19, -187500.02, -187500.02, 0.000, 0.000, 0.000, 17:31:02.810
12, 33978.18, -80861.01, -187500.02, -187500.02, -187500.02, -80748.27, -187500.02, -187500.02, 0.000, 0.000, 0.000, 17:31:02.810
13, 33988.35, -80950.39, -187500.02, -187500.02, -187500.02, -80876.12, -187500.02, -187500.02, 0.000, 0.000, 0.000, 17:31:02.810
14, 33991.82, -80936.76, -187500.02, -187500.02, -187500.02, -80873.15, -187500.02, -187500.02, 0.000, 0.000, 0.000, 17:31:02.811
15, 33983.79, -80748.65, -187500.02, -187500.02, -187500.02, -80649.59, -187500.02, -187500.02, 0.000, 0.000, 0.000, 17:31:02.811
16, 33950.15, -80777.68, -187500.02, -187500.02, -187500.02, -80661.56, -187500.02, -187500.02, 0.000, 0.000, 0.000, 17:31:02.811
17, 33960.99, -80893.22, -187500.02, -187500.02, -187500.02, -80813.31, -187500.02, -187500.02, 0.140, 0.058, 1.004, 17:31:02.811
18, 33995.62, -80974.04, -187500.02, -187500.02, -187500.02, -80910.45, -187500.02, -187500.02, 0.000, 0.000, 0.000, 17:31:02.811
19, 34008.04, -80840.98, -187500.02, -187500.02, -187500.02, -80748.60, -187500.02, -187500.02, 0.000, 0.000, 0.000, 17:31:02.811
20, 33976.95, -80834.39, -187500.02, -187500.02, -187500.02, -80716.75, -187500.02, -187500.02, 0.000, 0.000, 0.000, 17:31:02.811
21, 33964.57, -80926.32, -187500.02, -187500.02, -187500.02, -80841.18, -187500.02, -187500.02, 0.000, 0.000, 0.000, 17:31:02.811
22, 33987.70, -80937.66, -187500.02, -187500.02, -187500.02, -80872.84, -187500.02, -187500.02, 0.000, 0.000, 0.000, 17:31:02.812
23, 33999.33, -80798.34, -187500.02, -187500.02, -187500.02, -80709.33, -187500.02, -187500.02, 0.000, 0.000, 0.000, 17:31:02.812
24, 33998.37, -80693.35, -187500.02, -187500.02, -187500.02, -80568.31, -187500.02, -187500.02, 0.000, 0.000, 0.000, 17:31:02.812
25, 33960.66, -80806.34, -187500.02, -187500.02, -187500.02, -80704.32, -187500.02, -187500.02, 0.000, 0.000, 0.000, 17:31:02.812
26, 33970.25, -80905.87, -187500.02, -187500.02, -187500.02, -80836.66, -187500.02, -187500.02, 0.000, 0.000, 0.000, 17:31:02.812
27, 34012.89, -80812.51, -187500.02, -187500.02, -187500.02, -80734.43, -187500.02, -187500.02, 0.146, 0.056, 1.000, 17:31:02.812
28, 33997.20, -80725.16, -187500.02, -187500.02, -187500.02, -80611.81, -187500.02, -187500.02, 0.000, 0.000, 0.000, 17:31:02.812
29, 33960.39, -80877.52, -187500.02, -187500.02, -187500.02, -80781.26, -187500.02, -187500.02, 0.000, 0.000, 0.000, 17:31:02.812
30, 33949.88, -81001.87, -187500.02, -187500.02, -187500.02, -80940.16, -187500.02, -187500.02, 0.000, 0.000, 0.000, 17:31:02.813
31, 33974.81, -80929.96, -187500.02, -187500.02, -187500.02, -80865.21, -187500.02, -187500.02, 0.000, 0.000, 0.000, 17:31:02.813
32, 33959.99, -80775.00, -187500.02, -187500.02, -187500.02, -80672.67, -187500.02, -187500.02, 0.000, 0.000, 0.000, 17:31:02.813
33, 33922.68, -80849.70, -187500.02, -187500.02, -187500.02, -80752.45, -187500.02, -187500.02, 0.000, 0.000, 0.000, 17:31:02.813
34, 33939.00, -80962.44, -187500.02, -187500.02, -187500.02, -80903.21, -187500.02, -187500.02, 0.000, 0.000, 0.000, 17:31:02.813
35, 33988.04, -80935.93, -187500.02, -187500.02, -187500.02, -80878.06, -187500.02, -187500.02, 0.000, 0.000, 0.000, 17:31:02.813
36, 33979.57, -80727.23, -187500.02, -187500.02, -187500.02, -80627.63, -187500.02, -187500.02, 0.000, 0.000, 0.000, 17:31:02.813
37, 33968.53, -80738.30, -187500.02, -187500.02, -187500.02, -80629.69, -187500.02, -187500.02, 0.150, 0.048, 1.002, 17:31:02.814
38, 33952.07, -80904.26, -187500.02, -187500.02, -187500.02, -80834.45, -187500.02, -187500.02, 0.000, 0.000, 0.000, 17:31:02.814
39, 33974.67, -80941.12, -187500.02, -187500.02, -187500.02, -80885.02, -187500.02, -187500.02, 0.000, 0.000, 0.000, 17:31:02.814
40, 34000.85, -80776.30, -187500.02, -187500.02, -187500.02, -80690.09, -187500.02, -187500.02, 0.000, 0.000, 0.000, 17:31:02.814
41, 33972.28, -80860.49, -187500.02, -187500.02, -187500.02, -80758.93, -187500.02, -187500.02, 0.000, 0.000, 0.000, 17:31:02.814
42, 33952.70, -81002.45, -187500.02, -187500.02, -187500.02, -80940.05, -187500.02, -187500.02, 0.000, 0.000, 0.000, 17:31:02.814
43, 33974.41, -81036.63, -187500.02, -187500.02, -187500.02, -80991.48, -187500.02, -187500.02, 0.000, 0.000, 0.000, 17:31:02.814
44, 33986.86, -80844.80, -187500.02, -187500.02, -187500.02, -80772.77, -187500.02, -187500.02, 0.000, 0.000, 0.000, 17:31:02.815
45, 33973.60, -80799.45, -187500.02, -187500.02, -187500.02, -80701.10, -187500.02, -187500.02, 0.000, 0.000, 0.000, 17:31:02.815
46, 33950.20, -80924.98, -187500.02, -187500.02, -187500.02, -80860.12, -187500.02, -187500.02, 0.000, 0.000, 0.000, 17:31:02.815
47, 33956.66, -80975.30, -187500.02, -187500.02, -187500.02, -80937.09, -187500.02, -187500.02, 0.154, 0.044, 1.002, 17:31:02.815
48, 33978.92, -80816.91, -187500.02, -187500.02, -187500.02, -80757.50, -187500.02, -187500.02, 0.000, 0.000, 0.000, 17:31:02.815
49, 34003.46, -80731.64, -187500.02, -187500.02, -187500.02, -80632.66, -187500.02, -187500.02, 0.000, 0.000, 0.000, 17:31:02.815
50, 33983.17, -80850.26, -187500.02, -187500.02, -187500.02, -80774.89, -187500.02, -187500.02, 0.000, 0.000, 0.000, 17:31:02.815
51, 34006.08, -80973.15, -187500.02, -187500.02, -187500.02, -80929.07, -187500.02, -187500.02, 0.000, 0.000, 0.000, 17:31:02.816
52, 34006.32, -80911.95, -187500.02, -187500.02, -187500.02, -80855.82, -187500.02, -187500.02, 0.000, 0.000, 0.000, 17:31:02.816
53, 33989.65, -80760.36, -187500.02, -187500.02, -187500.02, -80661.84, -187500.02, -187500.02, 0.000, 0.000, 0.000, 17:31:02.816
54, 33950.71, -80862.71, -187500.02, -187500.02, -187500.02, -80776.90, -187500.02, -187500.02, 0.000, 0.000, 0.000, 17:31:02.816
55, 33967.74, -81002.85, -187500.02, -187500.02, -187500.02, -80952.34, -187500.02, -187500.02, 0.000, 0.000, 0.000, 17:31:02.816
56, 33986.12, -80894.20, -187500.02, -187500.02, -187500.02, -80841.88, -187500.02, -187500.02, 0.000, 0.000, 0.000, 17:31:02.816
57, 33976.59, -80682.46, -187500.02, -187500.02, -187500.02, -80589.28, -187500.02, -187500.02, 0.156, 0.040, 1.010, 17:31:02.816
58, 33921.30, -80781.52, -187500.02, -187500.02, -187500.02, -80689.26, -187500.02, -187500.02, 0.000, 0.000, 0.000, 17:31:02.817
59, 33946.91, -80944.76, -187500.02, -187500.02, -187500.02, -80892.77, -187500.02, -187500.02, 0.000, 0.000, 0.000, 17:31:02.817
60, 33992.09, -80993.38, -187500.02, -187500.02, -187500.02, -80950.88, -187500.02, -187500.02, 0.000, 0.000, 0.000, 17:31:02.817
61, 33983.01, -80829.96, -187500.02, -187500.02, -187500.02, -80751.84, -187500.02, -187500.02, 0.000, 0.000, 0.000, 17:31:02.817
62, 33952.81, -80859.71, -187500.02, -187500.02, -187500.02, -80772.66, -187500.02, -187500.02, 0.000, 0.000, 0.000, 17:31:02.817
63, 33946.33, -81009.83, -187500.02, -187500.02, -187500.02, -80962.95, -187500.02, -187500.02, 0.000, 0.000, 0.000, 17:31:02.859
64, 33963.30, -81022.70, -187500.02, -187500.02, -187500.02, -80990.85, -187500.02, -187500.02, 0.000, 0.000, 0.000, 17:31:02.859
65, 33978.81, -80836.24, -187500.02, -187500.02, -187500.02, -80771.76, -187500.02, -187500.02, 0.000, 0.000, 0.000, 17:31:02.859
66, 33959.07, -80796.48, -187500.02, -187500.02, -187500.02, -80709.87, -187500.02, -187500.02, 0.000, 0.000, 0.000, 17:31:02.859
67, 33992.06, -80921.49, -187500.02, -187500.02, -187500.02, -80870.30, -187500.02, -187500.02, 0.158, 0.030, 1.008, 17:31:02.860
68, 34031.56, -80958.09, -187500.02, -187500.02, -187500.02, -80928.11, -187500.02, -187500.02, 0.000, 0.000, 0.000, 17:31:02.860
69, 34046.96, -80826.90, -187500.02, -187500.02, -187500.02, -80772.88, -187500.02, -187500.02, 0.000, 0.000, 0.000, 17:31:02.860
70, 34011.98, -80819.93, -187500.02, -187500.02, -187500.02, -80737.05, -187500.02, -187500.02, 0.000, 0.000, 0.000, 17:31:02.860
71, 33988.11, -81012.94, -187500.02, -187500.02, -187500.02, -80961.01, -187500.02, -187500.02, 0.000, 0.000, 0.000, 17:31:02.860
72, 34014.57, -81097.76, -187500.02, -187500.02, -187500.02, -81073.13, -187500.02, -187500.02, 0.000, 0.000, 0.000, 17:31:02.860
73, 34031.56, -80945.56, -187500.02, -187500.02, -187500.02, -80904.05, -187500.02, -187500.02, 0.000, 0.000, 0.000, 17:31:02.861
74, 34018.01, -80880.66, -187500.02, -187500.02, -187500.02, -80800.73, -187500.02, -187500.02, 0.000, 0.000, 0.000, 17:31:02.861
75, 33964.84, -81004.41, -187500.02, -187500.02, -187500.02, -80945.09, -187500.02, -187500.02, 0.000, 0.000, 0.000, 17:31:02.861
76, 33960.97, -81142.41, -187500.02, -187500.02, -187500.02, -81114.63, -187500.02, -187500.02, 0.000, 0.000, 0.000, 17:31:02.861
77, 33989.47, -81003.93, -187500.02, -187500.02, -187500.02, -80966.48, -187500.02, -187500.02, 0.162, 0.028, 1.000, 17:31:02.861
78, 33970.29, -80832.66, -187500.02, -187500.02, -187500.02, -80754.15, -187500.02, -187500.02, 0.000, 0.000, 0.000, 17:31:02.861
79, 33915.26, -80890.78, -187500.02, -187500.02, -187500.02, -80819.52, -187500.02, -187500.02, 0.000, 0.000, 0.000, 17:31:02.861
80, 33958.36, -80955.60, -187500.02, -187500.02, -187500.02, -80917.78, -187500.02, -187500.02, 0.000, 0.000, 0.000, 17:31:02.862
81, 33989.61, -80918.68, -187500.02, -187500.02, -187500.02, -80880.32, -187500.02, -187500.02, 0.000, 0.000, 0.000, 17:31:02.862
82, 33986.86, -80772.02, -187500.02, -187500.02, -187500.02, -80695.88, -187500.02, -187500.02, 0.000, 0.000, 0.000, 17:31:02.862
83, 33930.59, -80900.33, -187500.02, -187500.02, -187500.02, -80827.02, -187500.02, -187500.02, 0.000, 0.000, 0.000, 17:31:02.862
84, 33935.56, -81076.19, -187500.02, -187500.02, -187500.02, -81044.77, -187500.02, -187500.02, 0.000, 0.000, 0.000, 17:31:02.862
85, 33962.89, -81064.41, -187500.02, -187500.02, -187500.02, -81043.35, -187500.02, -187500.02, 0.000, 0.000, 0.000, 17:31:02.862
86, 33986.81, -80884.57, -187500.02, -187500.02, -187500.02, -80830.14, -187500.02, -187500.02, 0.166, 0.020, 1.008, 17:31:02.863
87, 33977.42, -80940.65, -187500.02, -187500.02, -187500.02, -80876.52, -187500.02, -187500.02, 0.000, 0.000, 0.000, 17:31:02.863
88, 33959.14, -81040.70, -187500.02, -187500.02, -187500.02, -81016.64, -187500.02, -187500.02, 0.000, 0.000, 0.000, 17:31:02.863
89, 33974.45, -81031.24, -187500.02, -187500.02, -187500.02, -81023.38, -187500.02, -187500.02, 0.000, 0.000, 0.000, 17:31:02.863
90, 33984.91, -80840.31, -187500.02, -187500.02, -187500.02, -80801.48, -187500.02, -187500.02, 0.000, 0.000, 0.000, 17:31:02.863
91, 33970.29, -80798.63, -187500.02, -187500.02, -187500.02, -80731.91, -187500.02, -187500.02, 0.000, 0.000, 0.000, 17:31:02.863
92, 33931.67, -80964.25, -187500.02, -187500.02, -187500.02, -80931.44, -187500.02, -187500.02, 0.000, 0.000, 0.000, 17:31:02.863
93, 33970.36, -81095.79, -187500.02, -187500.02, -187500.02, -81087.01, -187500.02, -187500.02, 0.000, 0.000, 0.000, 17:31:02.864
94, 34024.45, -80941.07, -187500.02, -187500.02, -187500.02, -80908.35, -187500.02, -187500.02, 0.000, 0.000, 0.000, 17:31:02.864
95, 34021.88, -80893.76, -187500.02, -187500.02, -187500.02, -80828.87, -187500.02, -187500.02, 0.000, 0.000, 0.000, 17:31:02.864
96, 33969.96, -81011.23, -187500.02, -187500.02, -187500.02, -80973.91, -187500.02, -187500.02, 0.168, 0.020, 1.004, 17:31:02.864
97, 33966.56, -81075.01, -187500.02, -187500.02, -187500.02, -81067.85, -187500.02, -187500.02, 0.000, 0.000, 0.000, 17:31:02.864
98, 34018.32, -80911.88, -187500.02, -187500.02, -187500.02, -80890.38, -187500.02, -187500.02, 0.000, 0.000, 0.000, 17:31:02.864
99, 34055.23, -80767.53, -187500.02, -187500.02, -187500.02, -80705.53, -187500.02, -187500.02, 0.000, 0.000, 0.000, 17:31:02.864
100, 34005.70, -80908.64, -187500.02, -187500.02, -187500.02, -80864.36, -187500.02, -187500.02, 0.000, 0.000, 0.000, 17:31:02.864
101, 34003.39, -81029.97, -187500.02, -187500.02, -187500.02, -81021.72, -187500.02, -187500.02, 0.000, 0.000, 0.000, 17:31:02.865
102, 34026.20, -80934.75, -187500.02, -187500.02, -187500.02, -80922.84, -187500.02, -187500.02, 0.000, 0.000, 0.000, 17:31:02.865
103, 34033.59, -80837.77, -187500.02, -187500.02, -187500.02, -80788.92, -187500.02, -187500.02, 0.000, 0.000, 0.000, 17:31:02.865
104, 33967.14, -81003.03, -187500.02, -187500.02, -187500.02, -80965.55, -187500.02, -187500.02, 0.000, 0.000, 0.000, 17:31:02.865
105, 33963.88, -81125.16, -187500.02, -187500.02, -187500.02, -81126.26, -187500.02, -187500.02, 0.000, 0.000, 0.000, 17:31:02.865
106, 34003.11, -81070.31, -187500.02, -187500.02, -187500.02, -81072.48, -187500.02, -187500.02, 0.160, 0.016, 1.014, 17:31:02.865
107, 34026.02, -80899.52, -187500.02, -187500.02, -187500.02, -80865.97, -187500.02, -187500.02, 0.000, 0.000, 0.000, 17:31:02.865
108, 33980.82, -80981.24, -187500.02, -187500.02, -187500.02, -80947.02, -187500.02, -187500.02, 0.000, 0.000, 0.000, 17:31:02.865
109, 33962.00, -81091.88, -187500.02, -187500.02, -187500.02, -81099.10, -187500.02, -187500.02, 0.000, 0.000, 0.000, 17:31:02.866
110, 33977.87, -81091.10, -187500.02, -187500.02, -187500.02, -81108.94, -187500.02, -187500.02, 0.000, 0.000, 0.000, 17:31:02.866
111, 34001.05, -80884.10, -187500.02, -187500.02, -187500.02, -80864.34, -187500.02, -187500.02, 0.000, 0.000, 0.000, 17:31:02.866
112, 33966.07, -80836.53, -187500.02, -187500.02, -187500.02, -80796.44, -187500.02, -187500.02, 0.000, 0.000, 0.000, 17:31:02.866
113, 33949.01, -81012.58, -187500.02, -187500.02, -187500.02, -81008.55, -187500.02, -187500.02, 0.000, 0.000, 0.000, 17:31:02.866
114, 33980.35, -81105.76, -187500.02, -187500.02, -187500.02, -81120.45, -187500.02, -187500.02, 0.000, 0.000, 0.000, 17:31:02.866
115, 34011.93, -80961.68, -187500.02, -187500.02, -187500.02, -80948.96, -187500.02, -187500.02, 0.000, 0.000, 0.000, 17:31:02.866
116, 33994.16, -80920.22, -187500.02, -187500.02, -187500.02, -80881.17, -187500.02, -187500.02, 0.154, 0.016, 1.008, 17:31:02.867
117, 33965.40, -81028.63, -187500.02, -187500.02, -187500.02, -81022.57, -187500.02, -187500.02, 0.000, 0.000, 0.000, 17:31:02.867
118, 34000.76, -81080.59, -187500.02, -187500.02, -187500.02, -81099.50, -187500.02, -187500.02, 0.000, 0.000, 0.000, 17:31:02.867
119, 34036.88, -80881.38, -187500.02, -187500.02, -187500.02, -80877.41, -187500.02, -187500.02, 0.000, 0.000, 0.000, 17:31:02.867
120, 34028.99, -80813.89, -187500.02, -187500.02, -187500.02, -80772.25, -187500.02, -187500.02, 0.000, 0.000, 0.000, 17:31:02.867
121, 33998.39, -81016.35, -187500.02, -187500.02, -187500.02, -81002.67, -187500.02, -187500.02, 0.000, 0.000, 0.000, 17:31:03.289
122, 34013.72, -81147.11, -187500.02, -187500.02, -187500.02, -81167.32, -187500.02, -187500.02, 0.000, 0.000, 0.000, 17:31:03.289
123, 34022.17, -81037.56, -187500.02, -187500.02, -187500.02, -81047.22, -187500.02, -187500.02, 0.000, 0.000, 0.000, 17:31:03.289
124, 34002.39, -80924.58, -187500.02, -187500.02, -187500.02, -80898.09, -187500.02, -187500.02, 0.000, 0.000, 0.000, 17:31:03.289
125, 33953.39, -81040.67, -187500.02, -187500.02, -187500.02, -81031.20, -187500.02, -187500.02, 0.000, 0.000, 0.000, 17:31:03.289
126, 33952.28, -81110.72, -187500.02, -187500.02, -187500.02, -81136.70, -187500.02, -187500.02, 0.152, 0.014, 1.010, 17:31:03.290
127, 33992.40, -81018.48, -187500.02, -187500.02, -187500.02, -81042.44, -187500.02, -187500.02, 0.000, 0.000, 0.000, 17:31:03.290
128, 34003.86, -80804.93, -187500.02, -187500.02, -187500.02, -80789.84, -187500.02, -187500.02, 0.000, 0.000, 0.000, 17:31:03.290
129, 33958.07, -80919.62, -187500.02, -187500.02, -187500.02, -80906.70, -187500.02, -187500.02, 0.000, 0.000, 0.000, 17:31:03.290
130, 33977.96, -81112.87, -187500.02, -187500.02, -187500.02, -81140.36, -187500.02, -187500.02, 0.000, 0.000, 0.000, 17:31:03.290
131, 34012.54, -81148.99, -187500.02, -187500.02, -187500.02, -81182.92, -187500.02, -187500.02, 0.000, 0.000, 0.000, 17:31:03.290
132, 34023.22, -80988.44, -187500.02, -187500.02, -187500.02, -80987.20, -187500.02, -187500.02, 0.000, 0.000, 0.000, 17:31:03.290
133, 33986.18, -81040.72, -187500.02, -187500.02, -187500.02, -81035.40, -187500.02, -187500.02, 0.000, 0.000, 0.000, 17:31:03.291
134, 33953.62, -81189.49, -187500.02, -187500.02, -187500.02, -81223.63, -187500.02, -187500.02, 0.000, 0.000, 0.000, 17:31:03.291
135, 33981.82, -81168.63, -187500.02, -187500.02, -187500.02, -81213.30, -187500.02, -187500.02, 0.000, 0.000, 0.000, 17:31:03.291
136, 34040.45, -80944.02, -187500.02, -187500.02, -187500.02, -80955.34, -187500.02, -187500.02, 0.154, 0.022, 1.012, 17:31:03.291
137, 34008.34, -80916.55, -187500.02, -187500.02, -187500.02, -80907.41, -187500.02, -187500.02, 0.000, 0.000, 0.000, 17:31:03.291
138, 33975.90, -81073.02, -187500.02, -187500.02, -187500.02, -81098.85, -187500.02, -187500.02, 0.000, 0.000, 0.000, 17:31:03.291
139, 33979.41, -81134.64, -187500.02, -187500.02, -187500.02, -81179.16, -187500.02, -187500.02, 0.000, 0.000, 0.000, 17:31:03.291
140, 34006.90, -80959.06, -187500.02, -187500.02, -187500.02, -80978.00, -187500.02, -187500.02, 0.000, 0.000, 0.000, 17:31:03.291
141, 34004.67, -80964.77, -187500.02, -187500.02, -187500.02, -80957.73, -187500.02, -187500.02, 0.000, 0.000, 0.000, 17:31:03.292
142, 33962.20, -81165.06, -187500.02, -187500.02, -187500.02, -81190.97, -187500.02, -187500.02, 0.000, 0.000, 0.000, 17:31:03.292
143, 33989.09, -81223.48, -187500.02, -187500.02, -187500.02, -81275.77, -187500.02, -187500.02, 0.000, 0.000, 0.000, 17:31:03.292
144, 34025.97, -81065.82, -187500.02, -187500.02, -187500.02, -81101.24, -187500.02, -187500.02, 0.000, 0.000, 0.000, 17:31:03.292
145, 34006.52, -80951.96, -187500.02, -187500.02, -187500.02, -80953.37, -187500.02, -187500.02, 0.158, 0.028, 1.006, 17:31:03.292
146, 33976.15, -81077.53, -187500.02, -187500.02, -187500.02, -81102.36, -187500.02, -187500.02, 0.000, 0.000, 0.000, 17:31:03.293
147, 33987.75, -81149.10, -187500.02, -187500.02, -187500.02, -81206.26, -187500.02, -187500.02, 0.000, 0.000, 0.000, 17:31:03.293
148, 34011.46, -81015.41, -187500.02, -187500.02, -187500.02, -81061.70, -187500.02, -187500.02, 0.000, 0.000, 0.000, 17:31:03.293
149, 33999.55, -80865.88, -187500.02, -187500.02, -187500.02, -80868.97, -187500.02, -187500.02, 0.000, 0.000, 0.000, 17:31:03.293
150, 33958.49, -80962.91, -187500.02, -187500.02, -187500.02, -80973.48, -187500.02, -187500.02, 0.000, 0.000, 0.000, 17:31:03.293
151, 33969.11, -81106.07, -187500.02, -187500.02, -187500.02, -81152.84, -187500.02, -187500.02, 0.000, 0.000, 0.000, 17:31:03.293
152, 34001.88, -81128.72, -187500.02, -187500.02, -187500.02, -81178.20, -187500.02, -187500.02, 0.000, 0.000, 0.000, 17:31:03.293
153, 34034.66, -80976.37, -187500.02, -187500.02, -187500.02, -80988.59, -187500.02, -187500.02, 0.000, 0.000, 0.000, 17:31:03.293
154, 34009.61, -81043.66, -187500.02, -187500.02, -187500.02, -81056.09, -187500.02, -187500.02, 0.000, 0.000, 0.000, 17:31:03.294
155, 33991.70, -81172.15, -187500.02, -187500.02, -187500.02, -81222.21, -187500.02, -187500.02, 0.160, 0.026, 1.010, 17:31:03.294
156, 34028.85, -81130.15, -187500.02, -187500.02, -187500.02, -81185.55, -187500.02, -187500.02, 0.000, 0.000, 0.000, 17:31:03.294
157, 34043.85, -80919.19, -187500.02, -187500.02, -187500.02, -80937.01, -187500.02, -187500.02, 0.000, 0.000, 0.000, 17:31:03.294
158, 33964.77, -80891.79, -187500.02, -187500.02, -187500.02, -80895.88, -187500.02, -187500.02, 0.000, 0.000, 0.000, 17:31:03.294
159, 33968.68, -81071.52, -187500.02, -187500.02, -187500.02, -81111.95, -187500.02, -187500.02, 0.000, 0.000, 0.000, 17:31:03.294
160, 34022.84, -81159.85, -187500.02, -187500.02, -187500.02, -81214.79, -187500.02, -187500.02, 0.000, 0.000, 0.000, 17:31:03.294
161, 34059.61, -81001.63, -187500.02, -187500.02, -187500.02, -81027.35, -187500.02, -187500.02, 0.000, 0.000, 0.000, 17:31:03.294
162, 34013.27, -80980.57, -187500.02, -187500.02, -187500.02, -80984.57, -187500.02, -187500.02, 0.000, 0.000, 0.000, 17:31:03.294
163, 33970.00, -81125.34, -187500.02, -187500.02, -187500.02, -81160.73, -187500.02, -187500.02, 0.000, 0.000, 0.000, 17:31:03.294
164, 33983.88, -81175.05, -187500.02, -187500.02, -187500.02, -81229.39, -187500.02, -187500.02, 0.000, 0.000, 0.000, 17:31:03.294
165, 34008.98, -80949.99, -187500.02, -187500.02, -187500.02, -80980.03, -187500.02, -187500.02, 0.154, 0.024, 1.004, 17:31:03.294
166, 33976.17, -80873.68, -187500.02, -187500.02, -187500.02, -80872.63, -187500.02, -187500.02, 0.000, 0.000, 0.000, 17:31:03.294
167, 33951.83, -81042.98, -187500.02, -187500.02, -187500.02, -81072.48, -187500.02, -187500.02, 0.000, 0.000, 0.000, 17:31:03.295
168, 33986.92, -81139.51, -187500.02, -187500.02, -187500.02, -81199.57, -187500.02, -187500.02, 0.000, 0.000, 0.000, 17:31:03.295
169, 34003.95, -81036.54, -187500.02, -187500.02, -187500.02, -81083.16, -187500.02, -187500.02, 0.000, 0.000, 0.000, 17:31:03.295
170, 33981.49, -80954.02, -187500.02, -187500.02, -187500.02, -80965.50, -187500.02, -187500.02, 0.000, 0.000, 0.000, 17:31:03.295
171, 33948.21, -81077.48, -187500.02, -187500.02, -187500.02, -81110.70, -187500.02, -187500.02, 0.000, 0.000, 0.000, 17:31:03.295
172, 33971.70, -81200.29, -187500.02, -187500.02, -187500.02, -81263.45, -187500.02, -187500.02, 0.000, 0.000, 0.000, 17:31:03.295
173, 33998.21, -81075.23, -187500.02, -187500.02, -187500.02, -81127.93, -187500.02, -187500.02, 0.000, 0.000, 0.000, 17:31:03.295
174, 33994.99, -80877.95, -187500.02, -187500.02, -187500.02, -80890.96, -187500.02, -187500.02, 0.000, 0.000, 0.000, 17:31:03.295
175, 33963.72, -81028.63, -187500.02, -187500.02, -187500.02, -81052.77, -187500.02, -187500.02, 0.152, 0.030, 1.006, 17:31:03.295
176, 33978.65, -81175.74, -187500.02, -187500.02, -187500.02, -81239.24, -187500.02, -187500.02, 0.000, 0.000, 0.000, 17:31:03.295
177, 33992.96, -81139.47, -187500.02, -187500.02, -187500.02, -81204.63, -187500.02, -187500.02, 0.000, 0.000, 0.000, 17:31:03.295
178, 34001.65, -80993.82, -187500.02, -187500.02, -187500.02, -81020.65, -187500.02, -187500.02, 0.000, 0.000, 0.000, 17:31:03.295
179, 33999.02, -81066.42, -187500.02, -187500.02, -187500.02, -81094.23, -187500.02, -187500.02, 0.000, 0.000, 0.000, 17:31:03.296
180, 34008.60, -81193.98, -187500.02, -187500.02, -187500.02, -81262.23, -187500.02, -187500.02, 0.000, 0.000, 0.000, 17:31:03.296
181, 34034.64, -81162.89, -187500.02, -187500.02, -187500.02, -81239.65, -187500.02, -187500.02, 0.000, 0.000, 0.000, 17:31:03.296
182, 34078.50, -80961.55, -187500.02, -187500.02, -187500.02, -81003.01, -187500.02, -187500.02, 0.000, 0.000, 0.000, 17:31:03.296
183, 34032.43, -80951.51, -187500.02, -187500.02, -187500.02, -80975.34, -187500.02, -187500.02, 0.000, 0.000, 0.000, 17:31:03.296
184, 34015.51, -81117.70, -187500.02, -187500.02, -187500.02, -81176.08, -187500.02, -187500.02, 0.000, 0.000, 0.000, 17:31:03.296
185, 34072.02, -81191.73, -187500.02, -187500.02, -187500.02, -81265.62, -187500.02, -187500.02, 0.152, 0.030, 1.004, 17:31:03.296
186, 34092.18, -81035.82, -187500.02, -187500.02, -187500.02, -81082.11, -187500.02, -187500.02, 0.000, 0.000, 0.000, 17:31:03.296
187, 34024.83, -80996.26, -187500.02, -187500.02, -187500.02, -81019.86, -187500.02, -187500.02, 0.000, 0.000, 0.000, 17:31:03.296
188, 33979.77, -81147.42, -187500.02, -187500.02, -187500.02, -81205.05, -187500.02, -187500.02, 0.000, 0.000, 0.000, 17:31:03.296
189, 33998.66, -81211.48, -187500.02, -187500.02, -187500.02, -81291.28, -187500.02, -187500.02, 0.000, 0.000, 0.000, 17:31:03.296
190, 34013.39, -81026.86, -187500.02, -187500.02, -187500.02, -81084.10, -187500.02, -187500.02, 0.000, 0.000, 0.000, 17:31:03.296
191, 33987.77, -80881.48, -187500.02, -187500.02, -187500.02, -80902.94, -187500.02, -187500.02, 0.000, 0.000, 0.000, 17:31:03.296
192, 33951.65, -81102.77, -187500.02, -187500.02, -187500.02, -81151.05, -187500.02, -187500.02, 0.000, 0.000, 0.000, 17:31:03.297
193, 33974.96, -81261.64, -187500.02, -187500.02, -187500.02, -81339.27, -187500.02, -187500.02, 0.000, 0.000, 0.000, 17:31:03.297
194, 34014.53, -81137.77, -187500.02, -187500.02, -187500.02, -81200.78, -187500.02, -187500.02, 0.000, 0.000, 0.000, 17:31:03.297
195, 33997.02, -81023.59, -187500.02, -187500.02, -187500.02, -81049.63, -187500.02, -187500.02, 0.146, 0.032, 1.010, 17:31:03.297
196, 33936.45, -81143.73, -187500.02, -187500.02, -187500.02, -81188.73, -187500.02, -187500.02, 0.000, 0.000, 0.000, 17:31:03.297
197, 33954.98, -81221.19, -187500.02, -187500.02, -187500.02, -81300.45, -187500.02, -187500.02, 0.000, 0.000, 0.000, 17:31:03.297
198, 33983.30, -81101.83, -187500.02, -187500.02, -187500.02, -81175.05, -187500.02, -187500.02, 0.000, 0.000, 0.000, 17:31:03.297
199, 33984.62, -80874.46, -187500.02, -187500.02, -187500.02, -80904.95, -187500.02, -187500.02, 0.000, 0.000, 0.000, 17:31:03.297
200, 33948.68, -81018.56, -187500.02, -187500.02, -187500.02, -81052.66, -187500.02, -187500.02, 0.000, 0.000, 0.000, 17:31:03.297
201, 33971.32, -81159.20, -187500.02, -187500.02, -187500.02, -81230.13, -187500.02, -187500.02, 0.000, 0.000, 0.000, 17:31:03.297
202, 33996.36, -81156.14, -187500.02, -187500.02, -187500.02, -81229.86, -187500.02, -187500.02, 0.000, 0.000, 0.000, 17:31:03.297
203, 34016.36, -80992.23, -187500.02, -187500.02, -187500.02, -81029.48, -187500.02, -187500.02, 0.000, 0.000, 0.000, 17:31:03.297
204, 33988.00, -81067.70, -187500.02, -187500.02, -187500.02, -81099.50, -187500.02, -187500.02, 0.000, 0.000, 0.000, 17:31:03.297
205, 33990.18, -81221.07, -187500.02, -187500.02, -187500.02, -81290.21, -187500.02, -187500.02, 0.152, 0.036, 1.008, 17:31:03.298
206, 34031.94, -81199.02, -187500.02, -187500.02, -187500.02, -81276.77, -187500.02, -187500.02, 0.000, 0.000, 0.000, 17:31:03.298
207, 34046.15, -80997.40, -187500.02, -187500.02, -187500.02, -81038.08, -187500.02, -187500.02, 0.000, 0.000, 0.000, 17:31:03.298
208, 34004.16, -80927.77, -187500.02, -187500.02, -187500.02, -80948.02, -187500.02, -187500.02, 0.000, 0.000, 0.000, 17:31:03.298
209, 33990.41, -81081.42, -187500.02, -187500.02, -187500.02, -81136.54, -187500.02, -187500.02, 0.000, 0.000, 0.000, 17:31:03.298
210, 34003.82, -81133.27, -187500.02, -187500.02, -187500.02, -81207.41, -187500.02, -187500.02, 0.000, 0.000, 0.000, 17:31:03.298
211, 34037.91, -80957.44, -187500.02, -187500.02, -187500.02, -81003.14, -187500.02, -187500.02, 0.000, 0.000, 0.000, 17:31:03.298
212, 34017.36, -81005.24, -187500.02, -187500.02, -187500.02, -81028.36, -187500.02, -187500.02, 0.000, 0.000, 0.000, 17:31:03.298
213, 33964.77, -81188.73, -187500.02, -187500.02, -187500.02, -81249.64, -187500.02, -187500.02, 0.000, 0.000, 0.000, 17:31:03.298
214, 33991.55, -81267.54, -187500.02, -187500.02, -187500.02, -81355.48, -187500.02, -187500.02, 0.154, 0.034, 1.002, 17:31:03.298
215, 34033.41, -81098.07, -187500.02, -187500.02, -187500.02, -81166.98, -187500.02, -187500.02, 0.000, 0.000, 0.000, 17:31:03.298
216, 34046.98, -80999.19, -187500.02, -187500.02, -187500.02, -81034.57, -187500.02, -187500.02, 0.000, 0.000, 0.000, 17:31:03.298
217, 34014.86, -81150.93, -187500.02, -187500.02, -187500.02, -81212.18, -187500.02, -187500.02, 0.000, 0.000, 0.000, 17:31:03.298
218, 34009.77, -81225.25, -187500.02, -187500.02, -187500.02, -81316.00, -187500.02, -187500.02, 0.000, 0.000, 0.000, 17:31:03.299
219, 34042.18, -81086.59, -187500.02, -187500.02, -187500.02, -81163.92, -187500.02, -187500.02, 0.000, 0.000, 0.000, 17:31:03.299
220, 34047.11, -80936.16, -187500.02, -187500.02, -187500.02, -80973.04, -187500.02, -187500.02, 0.000, 0.000, 0.000, 17:31:03.299
221, 33981.71, -81038.02, -187500.02, -187500.02, -187500.02, -81086.67, -187500.02, -187500.02, 0.000, 0.000, 0.000, 17:31:03.299
222, 33986.79, -81184.98, -187500.02, -187500.02, -187500.02, -81267.27, -187500.02, -187500.02, 0.000, 0.000, 0.000, 17:31:03.299
223, 34008.45, -81120.87, -187500.02, -187500.02, -187500.02, -81200.45, -187500.02, -187500.02, 0.000, 0.000, 0.000, 17:31:03.299
224, 34027.58, -80962.42, -187500.02, -187500.02, -187500.02, -81004.33, -187500.02, -187500.02, 0.158, 0.036, 1.000, 17:31:03.299
225, 33994.59, -81145.21, -187500.02, -187500.02, -187500.02, -81193.85, -187500.02, -187500.02, 0.000, 0.000, 0.000, 17:31:03.299
226, 34011.48, -81253.66, -187500.02, -187500.02, -187500.02, -81342.48, -187500.02, -187500.02, 0.000, 0.000, 0.000, 17:31:03.299
227, 34044.23, -81197.42, -187500.02, -187500.02, -187500.02, -81292.63, -187500.02, -187500.02, 0.000, 0.000, 0.000, 17:31:03.299
228, 34067.88, -81032.96, -187500.02, -187500.02, -187500.02, -81091.43, -187500.02, -187500.02, 0.000, 0.000, 0.000, 17:31:03.299
229, 34010.93, -81094.18, -187500.02, -187500.02, -187500.02, -81145.48, -187500.02, -187500.02, 0.000, 0.000, 0.000, 17:31:03.299
230, 34002.55, -81217.56, -187500.02, -187500.02, -187500.02, -81306.21, -187500.02, -187500.02, 0.000, 0.000, 0.000, 17:31:03.299
231, 34052.28, -81186.43, -187500.02, -187500.02, -187500.02, -81286.41, -187500.02, -187500.02, 0.000, 0.000, 0.000, 17:31:03.300
232, 34065.06, -80996.10, -187500.02, -187500.02, -187500.02, -81063.20, -187500.02, -187500.02, 0.000, 0.000, 0.000, 17:31:03.300
233, 34026.37, -81013.94, -187500.02, -187500.02, -187500.02, -81061.46, -187500.02, -187500.02, 0.000, 0.000, 0.000, 17:31:03.300
234, 34000.27, -81165.87, -187500.02, -187500.02, -187500.02, -81248.05, -187500.02, -187500.02, 0.158, 0.038, 0.998, 17:31:03.300
235, 34015.20, -81204.09, -187500.02, -187500.02, -187500.02, -81302.99, -187500.02, -187500.02, 0.000, 0.000, 0.000, 17:31:03.300
236, 34041.41, -80962.95, -187500.02, -187500.02, -187500.02, -81032.29, -187500.02, -187500.02, 0.000, 0.000, 0.000, 17:31:03.300
237, 34009.27, -80963.27, -187500.02, -187500.02, -187500.02, -81000.80, -187500.02, -187500.02, 0.000, 0.000, 0.000, 17:31:03.300
238, 33980.42, -81153.23, -187500.02, -187500.02, -187500.02, -81223.09, -187500.02, -187500.02, 0.000, 0.000, 0.000, 17:31:03.300
239, 34016.63, -81199.44, -187500.02, -187500.02, -187500.02, -81295.93, -187500.02, -187500.02, 0.000, 0.000, 0.000, 17:31:03.300
240, 34041.50, -81059.13, -187500.02, -187500.02, -187500.02, -81141.52, -187500.02, -187500.02, 0.000, 0.000, 0.000, 17:31:03.300
241, 34025.07, -81006.30, -187500.02, -187500.02, -187500.02, -81056.81, -187500.02, -187500.02, 0.000, 0.000, 0.000, 17:31:03.770
242, 33972.08, -81211.84, -187500.02, -187500.02, -187500.02, -81286.90, -187500.02, -187500.02, 0.000, 0.000, 0.000, 17:31:03.770
243, 34000.22, -81283.39, -187500.02, -187500.02, -187500.02, -81389.43, -187500.02, -187500.02, 0.000, 0.000, 0.000, 17:31:03.771
244, 34028.68, -81151.73, -187500.02, -187500.02, -187500.02, -81247.54, -187500.02, -187500.02, 0.158, 0.046, 1.002, 17:31:03.771
245, 34020.81, -81020.22, -187500.02, -187500.02, -187500.02, -81081.06, -187500.02, -187500.02, 0.000, 0.000, 0.000, 17:31:03.771
246, 34002.90, -81154.13, -187500.02, -187500.02, -187500.02, -81228.83, -187500.02, -187500.02, 0.000, 0.000, 0.000, 17:31:03.771
247, 34027.64, -81266.47, -187500.02, -187500.02, -187500.02, -81375.86, -187500.02, -187500.02, 0.000, 0.000, 0.000, 17:31:03.771
248, 34038.49, -81199.80, -187500.02, -187500.02, -187500.02, -81305.95, -187500.02, -187500.02, 0.000, 0.000, 0.000, 17:31:03.771
249, 34034.26, -80957.95, -187500.02, -187500.02, -187500.02, -81023.87, -187500.02, -187500.02, 0.000, 0.000, 0.000, 17:31:03.771
250, 33976.84, -81034.41, -187500.02, -187500.02, -187500.02, -81098.20, -187500.02, -187500.02, 0.000, 0.000, 0.000, 17:31:03.771
251, 34007.75, -81205.41, -187500.02, -187500.02, -187500.02, -81305.02, -187500.02, -187500.02, 0.000, 0.000, 0.000, 17:31:03.771
252, 34037.32, -81248.27, -187500.02, -187500.02, -187500.02, -81355.92, -187500.02, -187500.02, 0.000, 0.000, 0.000, 17:31:03.771
253, 34047.18, -81059.13, -187500.02, -187500.02, -187500.02, -81133.12, -187500.02, -187500.02, 0.000, 0.000, 0.000, 17:31:03.772
254, 33985.00, -81115.08, -187500.02, -187500.02, -187500.02, -81178.49, -187500.02, -187500.02, 0.152, 0.048, 1.004, 17:31:03.772
255, 33953.44, -81254.63, -187500.02, -187500.02, -187500.02, -81354.96, -187500.02, -187500.02, 0.000, 0.000, 0.000, 17:31:03.772
0, 34011.20, -81258.02, -187500.02, -187500.02, -187500.02, -81372.80, -187500.02, -187500.02, 0.000, 0.000, 0.000, 17:31:03.772
1, 34025.70, -81048.30, -187500.02, -187500.02, -187500.02, -81133.43, -187500.02, -187500.02, 0.000, 0.000, 0.000, 17:31:03.772
2, 33986.95, -81009.45, -187500.02, -187500.02, -187500.02, -81071.54, -187500.02, -187500.02, 0.000, 0.000, 0.000, 17:31:03.772
3, 33963.07, -81181.06, -187500.02, -187500.02, -187500.02, -81276.28, -187500.02, -187500.02, 0.000, 0.000, 0.000, 17:31:03.772
4, 33968.64, -81281.16, -187500.02, -187500.02, -187500.02, -81394.63, -187500.02, -187500.02, 0.000, 0.000, 0.000, 17:31:03.772
5, 33967.90, -81126.15, -187500.02, -187500.02, -187500.02, -81216.06, -187500.02, -187500.02, 0.000, 0.000, 0.000, 17:31:03.772
6, 33986.36, -81050.38, -187500.02, -187500.02, -187500.02, -81111.28, -187500.02, -187500.02, 0.000, 0.000, 0.000, 17:31:03.772
7, 33976.24, -81192.84, -187500.02, -187500.02, -187500.02, -81282.77, -187500.02, -187500.02, 0.000, 0.000, 0.000, 17:31:03.772
8, 33980.77, -81272.39, -187500.02, -187500.02, -187500.02, -81390.25, -187500.02, -187500.02, 0.148, 0.048, 1.004, 17:31:03.772
9, 34008.91, -81090.59, -187500.02, -187500.02, -187500.02, -81192.17, -187500.02, -187500.02, 0.000, 0.000, 0.000, 17:31:03.773
10, 33997.18, -80948.09, -187500.02, -187500.02, -187500.02, -81010.66, -187500.02, -187500.02, 0.000, 0.000, 0.000, 17:31:03.773
11, 33955.94, -81151.56, -187500.02, -187500.02, -187500.02, -81233.59, -187500.02, -187500.02, 0.000, 0.000, 0.000, 17:31:03.773
12, 33972.35, -81325.99, -187500.02, -187500.02, -187500.02, -81440.99, -187500.02, -187500.02, 0.000, 0.000, 0.000, 17:31:03.773
13, 34002.90, -81245.55, -187500.02, -187500.02, -187500.02, -81351.38, -187500.02, -187500.02, 0.000, 0.000, 0.000, 17:31:03.773
14, 34007.02, -81073.82, -187500.02, -187500.02, -187500.02, -81140.95, -187500.02, -187500.02, 0.000, 0.000, 0.000, 17:31:03.773
15, 33960.57, -81168.28, -187500.02, -187500.02, -187500.02, -81248.03, -187500.02, -187500.02, 0.000, 0.000, 0.000, 17:31:03.773
16, 33980.15, -81287.08, -187500.02, -187500.02, -187500.02, -81403.84, -187500.02, -187500.02, 0.000, 0.000, 0.000, 17:31:03.773
17, 34019.33, -81212.58, -187500.02, -187500.02, -187500.02, -81328.34, -187500.02, -187500.02, 0.150, 0.050, 1.002, 17:31:03.773
18, 34036.16, -80998.56, -187500.02, -187500.02, -187500.02, -81075.61, -187500.02, -187500.02, 0.000, 0.000, 0.000, 17:31:03.773
19, 33988.42, -81081.29, -187500.02, -187500.02, -187500.02, -81157.17, -187500.02, -187500.02, 0.000, 0.000, 0.000, 17:31:03.773
20, 33973.29, -81293.76, -187500.02, -187500.02, -187500.02, -81407.82, -187500.02, -187500.02, 0.000, 0.000, 0.000, 17:31:03.773
21, 34007.13, -81364.39, -187500.02, -187500.02, -187500.02, -81488.35, -187500.02, -187500.02, 0.000, 0.000, 0.000, 17:31:03.773
22, 34022.80, -81159.72, -187500.02, -187500.02, -187500.02, -81250.29, -187500.02, -187500.02, 0.000, 0.000, 0.000, 17:31:03.774
23, 33965.93, -81145.79, -187500.02, -187500.02, -187500.02, -81224.65, -187500.02, -187500.02, 0.000, 0.000, 0.000, 17:31:03.774
24, 33962.16, -81293.49, -187500.02, -187500.02, -187500.02, -81407.09, -187500.02, -187500.02, 0.000, 0.000, 0.000, 17:31:03.774
25, 34001.52, -81332.70, -187500.02, -187500.02, -187500.02, -81459.68, -187500.02, -187500.02, 0.000, 0.000, 0.000, 17:31:03.774
26, 33996.13, -81136.83, -187500.02, -187500.02, -187500.02, -81233.77, -187500.02, -187500.02, 0.000, 0.000, 0.000, 17:31:03.774
27, 33970.25, -81069.57, -187500.02, -187500.02, -187500.02, -81141.88, -187500.02, -187500.02, 0.148, 0.050, 1.006, 17:31:03.774
28, 33971.21, -81222.82, -187500.02, -187500.02, -187500.02, -81327.96, -187500.02, -187500.02, 0.000, 0.000, 0.000, 17:31:03.774
29, 33978.14, -81332.79, -187500.02, -187500.02, -187500.02, -81460.30, -187500.02, -187500.02, 0.000, 0.000, 0.000, 17:31:03.774
30, 33974.79, -81191.44, -187500.02, -187500.02, -187500.02, -81297.67, -187500.02, -187500.02, 0.000, 0.000, 0.000, 17:31:03.774
31, 33958.07, -81166.71, -187500.02, -187500.02, -187500.02, -81244.70, -187500.02, -187500.02, 0.000, 0.000, 0.000, 17:31:03.774
32, 33930.15, -81293.78, -187500.02, -187500.02, -187500.02, -81402.84, -187500.02, -187500.02, 0.000, 0.000, 0.000, 17:31:03.774
33, 33958.31, -81347.88, -187500.02, -187500.02, -187500.02, -81485.54, -187500.02, -187500.02, 0.000, 0.000, 0.000, 17:31:03.774
34, 34005.96, -81195.37, -187500.02, -187500.02, -187500.02, -81318.93, -187500.02, -187500.02, 0.000, 0.000, 0.000, 17:31:03.775
35, 33996.76, -81050.91, -187500.02, -187500.02, -187500.02, -81138.44, -187500.02, -187500.02, 0.000, 0.000, 0.000, 17:31:03.775
36, 33962.09, -81179.61, -187500.02, -187500.02, -187500.02, -81286.77, -187500.02, -187500.02, 0.000, 0.000, 0.000, 17:31:03.775
37, 33990.34, -81311.11, -187500.02, -187500.02, -187500.02, -81454.83, -187500.02, -187500.02, 0.150, 0.050, 1.002, 17:31:03.775
38, 34005.38, -81309.92, -187500.02, -187500.02, -187500.02, -81452.03, -187500.02, -187500.02, 0.000, 0.000, 0.000, 17:31:03.775
39, 33986.41, -81162.96, -187500.02, -187500.02, -187500.02, -81269.17, -187500.02, -187500.02, 0.000, 0.000, 0.000, 17:31:03.775
40, 33949.97, -81253.51, -187500.02, -187500.02, -187500.02, -81368.57, -187500.02, -187500.02, 0.000, 0.000, 0.000, 17:31:03.775
41, 33957.55, -81367.66, -187500.02, -187500.02, -187500.02, -81518.28, -187500.02, -187500.02, 0.000, 0.000, 0.000, 17:31:03.775
42, 33991.66, -81276.05, -187500.02, -187500.02, -187500.02, -81427.47, -187500.02, -187500.02, 0.000, 0.000, 0.000, 17:31:03.775
43, 34009.59, -81052.59, -187500.02, -187500.02, -187500.02, -81163.70, -187500.02, -187500.02, 0.000, 0.000, 0.000, 17:31:03.775
44, 33959.81, -81135.29, -187500.02, -187500.02, -187500.02, -81239.96, -187500.02, -187500.02, 0.000, 0.000, 0.000, 17:31:03.775
45, 33967.50, -81282.05, -187500.02, -187500.02, -187500.02, -81426.77, -187500.02, -187500.02, 0.000, 0.000, 0.000, 17:31:03.775
46, 34005.23, -81294.88, -187500.02, -187500.02, -187500.02, -81450.76, -187500.02, -187500.02, 0.000, 0.000, 0.000, 17:31:03.775
47, 34009.09, -81151.67, -187500.02, -187500.02, -187500.02, -81274.45, -187500.02, -187500.02, 0.150, 0.054, 1.004, 17:31:03.776
48, 33976.19, -81208.34, -187500.02, -187500.02, -187500.02, -81317.90, -187500.02, -187500.02, 0.000, 0.000, 0.000, 17:31:03.776
49, 33964.28, -81340.07, -187500.02, -187500.02, -187500.02, -81487.88, -187500.02, -187500.02, 0.000, 0.000, 0.000, 17:31:03.776
50, 34011.66, -81361.73, -187500.02, -187500.02, -187500.02, -81526.53, -187500.02, -187500.02, 0.000, 0.000, 0.000, 17:31:03.776
51, 34031.56, -81159.72, -187500.02, -187500.02, -187500.02, -81296.69, -187500.02, -187500.02, 0.000, 0.000, 0.000, 17:31:03.776
52, 33985.51, -81103.05, -187500.02, -187500.02, -187500.02, -81211.48, -187500.02, -187500.02, 0.000, 0.000, 0.000, 17:31:03.776
53, 33951.88, -81256.52, -187500.02, -187500.02, -187500.02, -81395.04, -187500.02, -187500.02, 0.000, 0.000, 0.000, 17:31:03.776
54, 34001.00, -81372.23, -187500.02, -187500.02, -187500.02, -81533.10, -187500.02, -187500.02, 0.000, 0.000, 0.000, 17:31:03.776
55, 34031.34, -81251.74, -187500.02, -187500.02, -187500.02, -81392.45, -187500.02, -187500.02, 0.000, 0.000, 0.000, 17:31:03.776
56, 34003.35, -81167.54, -187500.02, -187500.02, -187500.02, -81276.33, -187500.02, -187500.02, 0.000, 0.000, 0.000, 17:31:03.776
57, 33973.49, -81299.30, -187500.02, -187500.02, -187500.02, -81433.84, -187500.02, -187500.02, 0.156, 0.062, 1.000, 17:31:03.776
58, 33992.49, -81383.33, -187500.02, -187500.02, -187500.02, -81547.59, -187500.02, -187500.02, 0.000, 0.000, 0.000, 17:31:03.776
59, 34008.27, -81246.73, -187500.02, -187500.02, -187500.02, -81396.84, -187500.02, -187500.02, 0.000, 0.000, 0.000, 17:31:03.777
60, 34010.39, -81060.48, -187500.02, -187500.02, -187500.02, -81172.01, -187500.02, -187500.02, 0.000, 0.000, 0.000, 17:31:03.777
61, 33971.39, -81180.59, -187500.02, -187500.02, -187500.02, -81306.75, -187500.02, -187500.02, 0.000, 0.000, 0.000, 17:31:03.777
62, 33974.89, -81346.91, -187500.02, -187500.02, -187500.02, -81507.16, -187500.02, -187500.02, 0.000, 0.000, 0.000, 17:31:03.777
63, 34006.19, -81309.19, -187500.02, -187500.02, -187500.02, -81466.98, -187500.02, -187500.02, 0.000, 0.000, 0.000, 17:31:03.777
64, 33997.72, -81161.98, -187500.02, -187500.02, -187500.02, -81284.53, -187500.02, -187500.02, 0.000, 0.000, 0.000, 17:31:03.777
65, 33952.43, -81259.56, -187500.02, -187500.02, -187500.02, -81388.64, -187500.02, -187500.02, 0.000, 0.000, 0.000, 17:31:03.777
66, 33980.89, -81393.18, -187500.02, -187500.02, -187500.02, -81559.57, -187500.02, -187500.02, 0.000, 0.000, 0.000, 17:31:03.777
67, 34008.36, -81361.82, -187500.02, -187500.02, -187500.02, -81530.58, -187500.02, -187500.02, 0.150, 0.060, 0.998, 17:31:03.777
68, 34008.51, -81178.45, -187500.02, -187500.02, -187500.02, -81309.36, -187500.02, -187500.02, 0.000, 0.000, 0.000, 17:31:03.777
69, 33960.68, -81231.18, -187500.02, -187500.02, -187500.02, -81355.38, -187500.02, -187500.02, 0.000, 0.000, 0.000, 17:31:03.777
70, 33942.93, -81371.16, -187500.02, -187500.02, -187500.02, -81532.34, -187500.02, -187500.02, 0.000, 0.000, 0.000, 17:31:03.777
71, 33967.25, -81339.98, -187500.02, -187500.02, -187500.02, -81511.71, -187500.02, -187500.02, 0.000, 0.000, 0.000, 17:31:03.777
72, 34002.95, -81078.76, -187500.02, -187500.02, -187500.02, -81216.11, -187500.02, -187500.02, 0.000, 0.000, 0.000, 17:31:03.778
73, 33972.30, -81113.72, -187500.02, -187500.02, -187500.02, -81229.73, -187500.02, -187500.02, 0.000, 0.000, 0.000, 17:31:03.778
74, 33952.95, -81321.81, -187500.02, -187500.02, -187500.02, -81474.50, -187500.02, -187500.02, 0.000, 0.000, 0.000, 17:31:03.778
75, 33965.89, -81385.78, -187500.02, -187500.02, -187500.02, -81558.09, -187500.02, -187500.02, 0.000, 0.000, 0.000, 17:31:03.778
76, 34001.81, -81227.84, -187500.02, -187500.02, -187500.02, -81374.72, -187500.02, -187500.02, 0.150, 0.056, 1.000, 17:31:03.778
77, 33999.59, -81199.05, -187500.02, -187500.02, -187500.02, -81319.33, -187500.02, -187500.02, 0.000, 0.000, 0.000, 17:31:03.778
78, 33952.88, -81327.27, -187500.02, -187500.02, -187500.02, -81479.80, -187500.02, -187500.02, 0.000, 0.000, 0.000, 17:31:03.778
79, 33970.58, -81384.51, -187500.02, -187500.02, -187500.02, -81562.61, -187500.02, -187500.02, 0.000, 0.000, 0.000, 17:31:03.778
80, 34032.00, -81221.63, -187500.02, -187500.02, -187500.02, -81383.01, -187500.02, -187500.02, 0.000, 0.000, 0.000, 17:31:03.778
81, 34026.17, -81120.45, -187500.02, -187500.02, -187500.02, -81244.54, -187500.02, -187500.02, 0.000, 0.000, 0.000, 17:31:03.778
82, 33978.41, -81288.55, -187500.02, -187500.02, -187500.02, -81432.07, -187500.02, -187500.02, 0.000, 0.000, 0.000, 17:31:03.778
83, 33985.91, -81453.77, -187500.02, -187500.02, -187500.02, -81628.10, -187500.02, -187500.02, 0.000, 0.000, 0.000, 17:31:03.778
84, 34016.98, -81339.27, -187500.02, -187500.02, -187500.02, -81503.27, -187500.02, -187500.02, 0.000, 0.000, 0.000, 17:31:03.778
85, 34037.30, -81203.68, -187500.02, -187500.02, -187500.02, -81329.66, -187500.02, -187500.02, 0.000, 0.000, 0.000, 17:31:03.779
86, 33981.73, -81307.17, -187500.02, -187500.02, -187500.02, -81445.62, -187500.02, -187500.02, 0.150, 0.054, 1.000, 17:31:03.779
87, 33991.21, -81429.39, -187500.02, -187500.02, -187500.02, -81600.12, -187500.02, -187500.02, 0.000, 0.000, 0.000, 17:31:03.779
88, 34026.02, -81326.91, -187500.02, -187500.02, -187500.02, -81492.67, -187500.02, -187500.02, 0.000, 0.000, 0.000, 17:31:03.779
89, 34034.20, -81120.49, -187500.02, -187500.02, -187500.02, -81246.11, -187500.02, -187500.02, 0.000, 0.000, 0.000, 17:31:03.779
90, 33995.64, -81225.37, -187500.02, -187500.02, -187500.02, -81351.38, -187500.02, -187500.02, 0.000, 0.000, 0.000, 17:31:03.779
91, 33989.94, -81421.13, -187500.02, -187500.02, -187500.02, -81583.57, -187500.02, -187500.02, 0.000, 0.000, 0.000, 17:31:03.779
92, 34006.37, -81396.98, -187500.02, -187500.02, -187500.02, -81564.28, -187500.02, -187500.02, 0.000, 0.000, 0.000, 17:31:03.779
93, 34017.41, -81216.83, -187500.02, -187500.02, -187500.02, -81347.47, -187500.02, -187500.02, 0.000, 0.000, 0.000, 17:31:03.779
94, 33997.81, -81282.48, -187500.02, -187500.02, -187500.02, -81404.52, -187500.02, -187500.02, 0.000, 0.000, 0.000, 17:31:03.779
95, 33971.99, -81397.67, -187500.02, -187500.02, -187500.02, -81556.22, -187500.02, -187500.02, 0.000, 0.000, 0.000, 17:31:03.779
96, 33987.86, -81381.94, -187500.02, -187500.02, -187500.02, -81555.23, -187500.02, -187500.02, 0.146, 0.054, 1.008, 17:31:03.779
97, 34032.14, -81183.73, -187500.02, -187500.02, -187500.02, -81327.49, -187500.02, -187500.02, 0.000, 0.000, 0.000, 17:31:03.779
98, 34001.05, -81202.07, -187500.02, -187500.02, -187500.02, -81327.53, -187500.02, -187500.02, 0.000, 0.000, 0.000, 17:31:03.780
99, 33983.68, -81339.47, -187500.02, -187500.02, -187500.02, -81501.05, -187500.02, -187500.02, 0.000, 0.000, 0.000, 17:31:03.780
100, 34012.87, -81452.75, -187500.02, -187500.02, -187500.02, -81635.36, -187500.02, -187500.02, 0.000, 0.000, 0.000, 17:31:03.780
101, 34029.57, -81303.88, -187500.02, -187500.02, -187500.02, -81464.66, -187500.02, -187500.02, 0.000, 0.000, 0.000, 17:31:03.780
102, 34004.96, -81251.88, -187500.02, -187500.02, -187500.02, -81386.48, -187500.02, -187500.02, 0.000, 0.000, 0.000, 17:31:03.780
103, 33971.92, -81381.49, -187500.02, -187500.02, -187500.02, -81546.47, -187500.02, -187500.02, 0.000, 0.000, 0.000, 17:31:03.780
104, 33986.96, -81475.19, -187500.02, -187500.02, -187500.02, -81665.54, -187500.02, -187500.02, 0.000, 0.000, 0.000, 17:31:03.780
105, 34032.41, -81337.37, -187500.02, -187500.02, -187500.02, -81511.27, -187500.02, -187500.02, 0.000, 0.000, 0.000, 17:31:03.780
106, 34030.55, -81197.98, -187500.02, -187500.02, -187500.02, -81335.23, -187500.02, -187500.02, 0.148, 0.058, 1.012, 17:31:04.250
107, 33988.64, -81356.68, -187500.02, -187500.02, -187500.02, -81513.99, -187500.02, -187500.02, 0.000, 0.000, 0.000, 17:31:04.250
108, 34016.61, -81489.80, -187500.02, -187500.02, -187500.02, -81679.71, -187500.02, -187500.02, 0.000, 0.000, 0.000, 17:31:04.250
109, 34034.71, -81430.69, -187500.02, -187500.02, -187500.02, -81612.19, -187500.02, -187500.02, 0.000, 0.000, 0.000, 17:31:04.250
110, 34022.33, -81293.13, -187500.02, -187500.02, -187500.02, -81439.05, -187500.02, -187500.02, 0.000, 0.000, 0.000, 17:31:04.250
111, 33972.71, -81418.38, -187500.02, -187500.02, -187500.02, -81575.33, -187500.02, -187500.02, 0.000, 0.000, 0.000, 17:31:04.254
112, 33977.94, -81524.70, -187500.02, -187500.02, -187500.02, -81715.52, -187500.02, -187500.02, 0.000, 0.000, 0.000, 17:31:04.254
113, 34021.81, -81455.92, -187500.02, -187500.02, -187500.02, -81645.06, -187500.02, -187500.02, 0.000, 0.000, 0.000, 17:31:04.254
114, 34031.65, -81227.17, -187500.02, -187500.02, -187500.02, -81377.05, -187500.02, -187500.02, 0.000, 0.000, 0.000, 17:31:04.255
115, 33971.43, -81322.70, -187500.02, -187500.02, -187500.02, -81469.91, -187500.02, -187500.02, 0.000, 0.000, 0.000, 17:31:04.255
116, 33961.30, -81489.56, -187500.02, -187500.02, -187500.02, -81673.80, -187500.02, -187500.02, 0.148, 0.062, 1.010, 17:31:04.256
117, 33987.32, -81484.60, -187500.02, -187500.02, -187500.02, -81677.16, -187500.02, -187500.02, 0.000, 0.000, 0.000, 17:31:04.256
118, 33989.43, -81308.02, -187500.02, -187500.02, -187500.02, -81469.05, -187500.02, -187500.02, 0.000, 0.000, 0.000, 17:31:04.256
119, 33978.14, -81319.47, -187500.02, -187500.02, -187500.02, -81468.22, -187500.02, -187500.02, 0.000, 0.000, 0.000, 17:31:04.257
120, 33979.93, -81467.75, -187500.02, -187500.02, -187500.02, -81653.02, -187500.02, -187500.02, 0.000, 0.000, 0.000, 17:31:04.257
121, 34002.23, -81462.25, -187500.02, -187500.02, -187500.02, -81662.37, -187500.02, -187500.02, 0.000, 0.000, 0.000, 17:31:04.257
122, 34022.44, -81227.84, -187500.02, -187500.02, -187500.02, -81395.87, -187500.02, -187500.02, 0.000, 0.000, 0.000, 17:31:04.258
123, 33962.38, -81248.97, -187500.02, -187500.02, -187500.02, -81394.14, -187500.02, -187500.02, 0.000, 0.000, 0.000, 17:31:04.258
124, 33912.76, -81454.88, -187500.02, -187500.02, -187500.02, -81634.24, -187500.02, -187500.02, 0.000, 0.000, 0.000, 17:31:04.258
125, 33969.80, -81574.50, -187500.02, -187500.02, -187500.02, -81775.06, -187500.02, -187500.02, 0.000, 0.000, 0.000, 17:31:04.258
126, 34042.44, -81418.46, -187500.02, -187500.02, -187500.02, -81597.61, -187500.02, -187500.02, 0.146, 0.062, 1.008, 17:31:04.258
127, 34005.59, -81319.94, -187500.02, -187500.02, -187500.02, -81471.97, -187500.02, -187500.02, 0.000, 0.000, 0.000, 17:31:04.259
128, 33970.16, -81484.29, -187500.02, -187500.02, -187500.02, -81663.26, -187500.02, -187500.02, 0.000, 0.000, 0.000, 17:31:04.259
129, 33987.75, -81569.91, -187500.02, -187500.02, -187500.02, -81774.01, -187500.02, -187500.02, 0.000, 0.000, 0.000, 17:31:04.259
130, 34000.76, -81407.30, -187500.02, -187500.02, -187500.02, -81596.18, -187500.02, -187500.02, 0.000, 0.000, 0.000, 17:31:04.259
131, 34004.49, -81257.84, -187500.02, -187500.02, -187500.02, -81412.07, -187500.02, -187500.02, 0.000, 0.000, 0.000, 17:31:04.259
132, 33980.93, -81394.19, -187500.02, -187500.02, -187500.02, -81569.65, -187500.02, -187500.02, 0.000, 0.000, 0.000, 17:31:04.260
133, 34001.47, -81534.84, -187500.02, -187500.02, -187500.02, -81744.38, -187500.02, -187500.02, 0.000, 0.000, 0.000, 17:31:04.260
134, 34023.02, -81467.61, -187500.02, -187500.02, -187500.02, -81670.16, -187500.02, -187500.02, 0.000, 0.000, 0.000, 17:31:04.260
135, 34013.05, -81350.49, -187500.02, -187500.02, -187500.02, -81516.23, -187500.02, -187500.02, 0.000, 0.000, 0.000, 17:31:04.260
136, 33964.28, -81426.42, -187500.02, -187500.02, -187500.02, -81602.26, -187500.02, -187500.02, 0.146, 0.066, 1.008, 17:31:04.260
137, 33981.20, -81541.75, -187500.02, -187500.02, -187500.02, -81750.77, -187500.02, -187500.02, 0.000, 0.000, 0.000, 17:31:04.260
138, 34011.24, -81485.31, -187500.02, -187500.02, -187500.02, -81693.81, -187500.02, -187500.02, 0.000, 0.000, 0.000, 17:31:04.261
139, 34018.48, -81257.13, -187500.02, -187500.02, -187500.02, -81427.78, -187500.02, -187500.02, 0.000, 0.000, 0.000, 17:31:04.261
140, 33993.18, -81335.02, -187500.02, -187500.02, -187500.02, -81502.52, -187500.02, -187500.02, 0.000, 0.000, 0.000, 17:31:04.261
141, 33995.80, -81542.13, -187500.02, -187500.02, -187500.02, -81747.97, -187500.02, -187500.02, 0.000, 0.000, 0.000, 17:31:04.261
142, 34012.11, -81560.44, -187500.02, -187500.02, -187500.02, -81776.78, -187500.02, -187500.02, 0.000, 0.000, 0.000, 17:31:04.261
143, 34036.54, -81379.03, -187500.02, -187500.02, -187500.02, -81567.80, -187500.02, -187500.02, 0.000, 0.000, 0.000, 17:31:04.262
144, 34021.45, -81388.16, -187500.02, -187500.02, -187500.02, -81566.79, -187500.02, -187500.02, 0.000, 0.000, 0.000, 17:31:04.262
145, 34003.30, -81500.05, -187500.02, -187500.02, -187500.02, -81714.09, -187500.02, -187500.02, 0.146, 0.066, 1.006, 17:31:04.262
146, 34026.46, -81508.70, -187500.02, -187500.02, -187500.02, -81738.07, -187500.02, -187500.02, 0.000, 0.000, 0.000, 17:31:04.262
147, 34052.64, -81295.35, -187500.02, -187500.02, -187500.02, -81495.22, -187500.02, -187500.02, 0.000, 0.000, 0.000, 17:31:04.262
148, 34023.09, -81296.42, -187500.02, -187500.02, -187500.02, -81466.34, -187500.02, -187500.02, 0.000, 0.000, 0.000, 17:31:04.263
149, 33997.11, -81479.86, -187500.02, -187500.02, -187500.02, -81680.49, -187500.02, -187500.02, 0.000, 0.000, 0.000, 17:31:04.263
150, 34007.48, -81591.40, -187500.02, -187500.02, -187500.02, -81816.95, -187500.02, -187500.02, 0.000, 0.000, 0.000, 17:31:04.263
151, 34033.17, -81437.26, -187500.02, -187500.02, -187500.02, -81644.20, -187500.02, -187500.02, 0.000, 0.000, 0.000, 17:31:04.263
152, 34042.33, -81368.23, -187500.02, -187500.02, -187500.02, -81544.95, -187500.02, -187500.02, 0.000, 0.000, 0.000, 17:31:04.263
153, 33988.60, -81506.48, -187500.02, -187500.02, -187500.02, -81708.72, -187500.02, -187500.02, 0.000, 0.000, 0.000, 17:31:04.263
154, 34006.25, -81597.59, -187500.02, -187500.02, -187500.02, -81826.52, -187500.02, -187500.02, 0.000, 0.000, 0.000, 17:31:04.264
155, 34017.43, -81424.61, -187500.02, -187500.02, -187500.02, -81637.89, -187500.02, -187500.02, 0.148, 0.066, 1.006, 17:31:04.264
156, 34021.50, -81260.21, -187500.02, -187500.02, -187500.02, -81434.31, -187500.02, -187500.02, 0.000, 0.000, 0.000, 17:31:04.264
157, 33974.25, -81417.23, -187500.02, -187500.02, -187500.02, -81607.31, -187500.02, -187500.02, 0.000, 0.000, 0.000, 17:31:04.264
158, 33992.06, -81593.84, -187500.02, -187500.02, -187500.02, -81818.49, -187500.02, -187500.02, 0.000, 0.000, 0.000, 17:31:04.264
159, 34046.58, -81555.61, -187500.02, -187500.02, -187500.02, -81775.84, -187500.02, -187500.02, 0.000, 0.000, 0.000, 17:31:04.265
160, 34038.26, -81416.65, -187500.02, -187500.02, -187500.02, -81600.80, -187500.02, -187500.02, 0.000, 0.000, 0.000, 17:31:04.265
161, 33971.23, -81519.18, -187500.02, -187500.02, -187500.02, -81709.52, -187500.02, -187500.02, 0.000, 0.000, 0.000, 17:31:04.265
162, 33991.55, -81622.13, -187500.02, -187500.02, -187500.02, -81846.66, -187500.02, -187500.02, 0.000, 0.000, 0.000, 17:31:04.265
163, 34030.84, -81572.66, -187500.02, -187500.02, -187500.02, -81798.40, -187500.02, -187500.02, 0.000, 0.000, 0.000, 17:31:04.265
164, 34052.03, -81382.90, -187500.02, -187500.02, -187500.02, -81571.73, -187500.02, -187500.02, 0.000, 0.000, 0.000, 17:31:04.265
165, 34001.79, -81396.83, -187500.02, -187500.02, -187500.02, -81576.53, -187500.02, -187500.02, 0.150, 0.070, 1.010, 17:31:04.266
166, 33989.13, -81548.15, -187500.02, -187500.02, -187500.02, -81763.57, -187500.02, -187500.02, 0.000, 0.000, 0.000, 17:31:04.266
167, 33989.47, -81589.95, -187500.02, -187500.02, -187500.02, -81818.65, -187500.02, -187500.02, 0.000, 0.000, 0.000, 17:31:04.266
168, 34026.28, -81423.24, -187500.02, -187500.02, -187500.02, -81620.21, -187500.02, -187500.02, 0.000, 0.000, 0.000, 17:31:04.266
169, 34055.45, -81446.18, -187500.02, -187500.02, -187500.02, -81622.42, -187500.02, -187500.02, 0.000, 0.000, 0.000, 17:31:04.266
170, 34025.43, -81598.77, -187500.02, -187500.02, -187500.02, -81809.26, -187500.02, -187500.02, 0.000, 0.000, 0.000, 17:31:04.267
171, 34036.86, -81622.00, -187500.02, -187500.02, -187500.02, -81851.26, -187500.02, -187500.02, 0.000, 0.000, 0.000, 17:31:04.267
172, 34071.90, -81400.00, -187500.02, -187500.02, -187500.02, -81601.66, -187500.02, -187500.02, 0.000, 0.000, 0.000, 17:31:04.267
173, 34039.09, -81336.63, -187500.02, -187500.02, -187500.02, -81507.22, -187500.02, -187500.02, 0.000, 0.000, 0.000, 17:31:04.267
174, 33983.84, -81540.63, -187500.02, -187500.02, -187500.02, -81742.38, -187500.02, -187500.02, 0.000, 0.000, 0.000, 17:31:04.267
175, 34017.36, -81679.04, -187500.02, -187500.02, -187500.02, -81907.98, -187500.02, -187500.02, 0.146, 0.072, 1.010, 17:31:04.267
176, 34035.29, -81536.68, -187500.02, -187500.02, -187500.02, -81748.13, -187500.02, -187500.02, 0.000, 0.000, 0.000, 17:31:04.268
177, 34032.12, -81450.55, -187500.02, -187500.02, -187500.02, -81628.95, -187500.02, -187500.02, 0.000, 0.000, 0.000, 17:31:04.268
178, 33967.65, -81564.80, -187500.02, -187500.02, -187500.02, -81766.43, -187500.02, -187500.02, 0.000, 0.000, 0.000, 17:31:04.268
179, 33992.82, -81670.61, -187500.02, -187500.02, -187500.02, -81905.55, -187500.02, -187500.02, 0.000, 0.000, 0.000, 17:31:04.268
180, 34052.57, -81547.03, -187500.02, -187500.02, -187500.02, -81773.38, -187500.02, -187500.02, 0.000, 0.000, 0.000, 17:31:04.268
181, 34027.24, -81361.58, -187500.02, -187500.02, -187500.02, -81550.43, -187500.02, -187500.02, 0.000, 0.000, 0.000, 17:31:04.291
182, 33974.76, -81484.82, -187500.02, -187500.02, -187500.02, -81686.91, -187500.02, -187500.02, 0.000, 0.000, 0.000, 17:31:04.291
183, 33981.22, -81643.41, -187500.02, -187500.02, -187500.02, -81877.81, -187500.02, -187500.02, 0.000, 0.000, 0.000, 17:31:04.292
184, 34003.28, -81616.32, -187500.02, -187500.02, -187500.02, -81848.22, -187500.02, -187500.02, 0.000, 0.000, 0.000, 17:31:04.292
185, 34013.48, -81448.08, -187500.02, -187500.02, -187500.02, -81645.00, -187500.02, -187500.02, 0.150, 0.066, 1.006, 17:31:04.292
186, 33961.53, -81543.19, -187500.02, -187500.02, -187500.02, -81742.56, -187500.02, -187500.02, 0.000, 0.000, 0.000, 17:31:04.292
187, 33940.47, -81691.13, -187500.02, -187500.02, -187500.02, -81927.32, -187500.02, -187500.02, 0.000, 0.000, 0.000, 17:31:04.292
188, 33997.41, -81641.63, -187500.02, -187500.02, -187500.02, -81885.37, -187500.02, -187500.02, 0.000, 0.000, 0.000, 17:31:04.292
189, 34012.45, -81416.05, -187500.02, -187500.02, -187500.02, -81626.65, -187500.02, -187500.02, 0.000, 0.000, 0.000, 17:31:04.293
190, 33969.42, -81428.99, -187500.02, -187500.02, -187500.02, -81629.33, -187500.02, -187500.02, 0.000, 0.000, 0.000, 17:31:04.293
191, 33966.63, -81617.75, -187500.02, -187500.02, -187500.02, -81853.63, -187500.02, -187500.02, 0.000, 0.000, 0.000, 17:31:04.293
192, 33994.52, -81676.55, -187500.02, -187500.02, -187500.02, -81924.59, -187500.02, -187500.02, 0.000, 0.000, 0.000, 17:31:04.293
193, 34042.60, -81497.19, -187500.02, -187500.02, -187500.02, -81716.05, -187500.02, -187500.02, 0.000, 0.000, 0.000, 17:31:04.293
194, 34008.45, -81499.80, -187500.02, -187500.02, -187500.02, -81701.70, -187500.02, -187500.02, 0.000, 0.000, 0.000, 17:31:04.293
195, 33992.33, -81659.70, -187500.02, -187500.02, -187500.02, -81895.98, -187500.02, -187500.02, 0.152, 0.066, 0.998, 17:31:04.293
196, 34016.61, -81700.92, -187500.02, -187500.02, -187500.02, -81956.65, -187500.02, -187500.02, 0.000, 0.000, 0.000, 17:31:04.293
197, 34045.04, -81469.76, -187500.02, -187500.02, -187500.02, -81700.56, -187500.02, -187500.02, 0.000, 0.000, 0.000, 17:31:04.294
198, 34028.47, -81384.55, -187500.02, -187500.02, -187500.02, -81584.36, -187500.02, -187500.02, 0.000, 0.000, 0.000, 17:31:04.294
199, 33987.79, -81579.64, -187500.02, -187500.02, -187500.02, -81808.63, -187500.02, -187500.02, 0.000, 0.000, 0.000, 17:31:04.294
200, 34011.66, -81707.76, -187500.02, -187500.02, -187500.02, -81963.40, -187500.02, -187500.02, 0.000, 0.000, 0.000, 17:31:04.294
201, 34039.05, -81588.49, -187500.02, -187500.02, -187500.02, -81827.92, -187500.02, -187500.02, 0.000, 0.000, 0.000, 17:31:04.294
202, 34004.67, -81539.83, -187500.02, -187500.02, -187500.02, -81747.19, -187500.02, -187500.02, 0.000, 0.000, 0.000, 17:31:04.294
203, 33948.70, -81646.61, -187500.02, -187500.02, -187500.02, -81876.76, -187500.02, -187500.02, 0.000, 0.000, 0.000, 17:31:04.294
204, 34002.72, -81707.60, -187500.02, -187500.02, -187500.02, -81967.98, -187500.02, -187500.02, 0.148, 0.068, 1.002, 17:31:04.294
205, 34040.72, -81554.16, -187500.02, -187500.02, -187500.02, -81802.91, -187500.02, -187500.02, 0.000, 0.000, 0.000, 17:31:04.294
206, 34025.28, -81392.45, -187500.02, -187500.02, -187500.02, -81599.13, -187500.02, -187500.02, 0.000, 0.000, 0.000, 17:31:04.295
207, 33986.92, -81582.45, -187500.02, -187500.02, -187500.02, -81797.63, -187500.02, -187500.02, 0.000, 0.000, 0.000, 17:31:04.295
208, 33978.41, -81745.49, -187500.02, -187500.02, -187500.02, -81994.84, -187500.02, -187500.02, 0.000, 0.000, 0.000, 17:31:04.295
209, 33997.14, -81700.16, -187500.02, -187500.02, -187500.02, -81948.02, -187500.02, -187500.02, 0.000, 0.000, 0.000, 17:31:04.295
210, 34003.68, -81537.24, -187500.02, -187500.02, -187500.02, -81750.97, -187500.02, -187500.02, 0.000, 0.000, 0.000, 17:31:04.295
211, 33962.67, -81585.56, -187500.02, -187500.02, -187500.02, -81798.84, -187500.02, -187500.02, 0.000, 0.000, 0.000, 17:31:04.295
212, 33958.31, -81686.98, -187500.02, -187500.02, -187500.02, -81935.14, -187500.02, -187500.02, 0.000, 0.000, 0.000, 17:31:04.295
213, 33979.46, -81671.46, -187500.02, -187500.02, -187500.02, -81926.20, -187500.02, -187500.02, 0.000, 0.000, 0.000, 17:31:04.295
214, 34020.38, -81440.39, -187500.02, -187500.02, -187500.02, -81657.78, -187500.02, -187500.02, 0.148, 0.070, 1.004, 17:31:04.296
215, 33990.99, -81487.22, -187500.02, -187500.02, -187500.02, -81687.42, -187500.02, -187500.02, 0.000, 0.000, 0.000, 17:31:04.296
216, 33982.54, -81692.65, -187500.02, -187500.02, -187500.02, -81927.61, -187500.02, -187500.02, 0.000, 0.000, 0.000, 17:31:04.296
217, 34008.78, -81790.88, -187500.02, -187500.02, -187500.02, -82037.67, -187500.02, -187500.02, 0.000, 0.000, 0.000, 17:31:04.296
218, 34028.43, -81606.57, -187500.02, -187500.02, -187500.02, -81822.49, -187500.02, -187500.02, 0.000, 0.000, 0.000, 17:31:04.296
219, 34004.69, -81587.24, -187500.02, -187500.02, -187500.02, -81780.94, -187500.02, -187500.02, 0.000, 0.000, 0.000, 17:31:04.296
220, 33986.61, -81748.41, -187500.02, -187500.02, -187500.02, -81974.93, -187500.02, -187500.02, 0.000, 0.000, 0.000, 17:31:04.296
221, 34019.38, -81758.27, -187500.02, -187500.02, -187500.02, -82004.16, -187500.02, -187500.02, 0.000, 0.000, 0.000, 17:31:04.296
222, 34062.54, -81573.83, -187500.02, -187500.02, -187500.02, -81796.14, -187500.02, -187500.02, 0.000, 0.000, 0.000, 17:31:04.296
223, 34046.45, -81474.03, -187500.02, -187500.02, -187500.02, -81662.61, -187500.02, -187500.02, 0.000, 0.000, 0.000, 17:31:04.297
224, 34024.83, -81640.55, -187500.02, -187500.02, -187500.02, -81854.48, -187500.02, -187500.02, 0.148, 0.066, 1.000, 17:31:04.297
225, 34059.95, -81787.27, -187500.02, -187500.02, -187500.02, -82027.50, -187500.02, -187500.02, 0.000, 0.000, 0.000, 17:31:04.297
226, 34080.57, -81667.88, -187500.02, -187500.02, -187500.02, -81894.58, -187500.02, -187500.02, 0.000, 0.000, 0.000, 17:31:04.730
227, 34068.06, -81566.63, -187500.02, -187500.02, -187500.02, -81758.74, -187500.02, -187500.02, 0.000, 0.000, 0.000, 17:31:04.730
228, 34026.33, -81698.15, -187500.02, -187500.02, -187500.02, -81907.05, -187500.02, -187500.02, 0.000, 0.000, 0.000, 17:31:04.730
229, 34056.14, -81806.06, -187500.02, -187500.02, -187500.02, -82044.84, -187500.02, -187500.02, 0.000, 0.000, 0.000, 17:31:04.730
230, 34079.73, -81702.64, -187500.02, -187500.02, -187500.02, -81933.27, -187500.02, -187500.02, 0.000, 0.000, 0.000, 17:31:04.730
231, 34056.19, -81539.30, -187500.02, -187500.02, -187500.02, -81733.13, -187500.02, -187500.02, 0.000, 0.000, 0.000, 17:31:04.730
232, 33955.09, -81660.77, -187500.02, -187500.02, -187500.02, -81866.46, -187500.02, -187500.02, 0.000, 0.000, 0.000, 17:31:04.730
233, 33940.79, -81786.04, -187500.02, -187500.02, -187500.02, -82028.77, -187500.02, -187500.02, 0.000, 0.000, 0.000, 17:31:04.730
234, 34036.32, -81803.91, -187500.02, -187500.02, -187500.02, -82050.52, -187500.02, -187500.02, 0.142, 0.062, 1.006, 17:31:04.730
235, 34045.68, -81641.13, -187500.02, -187500.02, -187500.02, -81852.76, -187500.02, -187500.02, 0.000, 0.000, 0.000, 17:31:04.731
236, 33984.80, -81702.20, -187500.02, -187500.02, -187500.02, -81910.49, -187500.02, -187500.02, 0.000, 0.000, 0.000, 17:31:04.731
237, 33977.96, -81843.79, -187500.02, -187500.02, -187500.02, -82088.03, -187500.02, -187500.02, 0.000, 0.000, 0.000, 17:31:04.731
238, 33984.46, -81836.08, -187500.02, -187500.02, -187500.02, -82087.20, -187500.02, -187500.02, 0.000, 0.000, 0.000, 17:31:04.731
239, 33994.05, -81661.09, -187500.02, -187500.02, -187500.02, -81878.62, -187500.02, -187500.02, 0.000, 0.000, 0.000, 17:31:04.731
240, 33952.54, -81700.54, -187500.02, -187500.02, -187500.02, -81902.78, -187500.02, -187500.02, 0.000, 0.000, 0.000, 17:31:04.731
241, 33952.93, -81809.04, -187500.02, -187500.02, -187500.02, -82046.23, -187500.02, -187500.02, 0.000, 0.000, 0.000, 17:31:04.731
242, 34016.47, -81780.29, -187500.02, -187500.02, -187500.02, -82032.93, -187500.02, -187500.02, 0.000, 0.000, 0.000, 17:31:04.731
243, 34033.91, -81546.49, -187500.02, -187500.02, -187500.02, -81768.76, -187500.02, -187500.02, 0.000, 0.000, 0.000, 17:31:04.731
244, 34006.25, -81575.15, -187500.02, -187500.02, -187500.02, -81770.77, -187500.02, -187500.02, 0.142, 0.062, 1.002, 17:31:04.731
245, 33993.63, -81776.29, -187500.02, -187500.02, -187500.02, -82004.39, -187500.02, -187500.02, 0.000, 0.000, 0.000, 17:31:04.731
246, 34018.88, -81834.23, -187500.02, -187500.02, -187500.02, -82085.93, -187500.02, -187500.02, 0.000, 0.000, 0.000, 17:31:04.731
247, 34045.57, -81714.58, -187500.02, -187500.02, -187500.02, -81946.88, -187500.02, -187500.02, 0.000, 0.000, 0.000, 17:31:04.732
248, 34021.34, -81681.25, -187500.02, -187500.02, -187500.02, -81883.06, -187500.02, -187500.02, 0.000, 0.000, 0.000, 17:31:04.732
249, 33993.52, -81855.64, -187500.02, -187500.02, -187500.02, -82081.73, -187500.02, -187500.02, 0.000, 0.000, 0.000, 17:31:04.732
250, 34011.75, -81920.37, -187500.02, -187500.02, -187500.02, -82173.44, -187500.02, -187500.02, 0.000, 0.000, 0.000, 17:31:04.732
251, 34045.82, -81765.90, -187500.02, -187500.02, -187500.02, -82003.45, -187500.02, -187500.02, 0.000, 0.000, 0.000, 17:31:04.732
252, 34032.36, -81627.27, -187500.02, -187500.02, -187500.02, -81826.05, -187500.02, -187500.02, 0.000, 0.000, 0.000, 17:31:04.732
253, 33993.02, -81730.11, -187500.02, -187500.02, -187500.02, -81944.09, -187500.02, -187500.02, 0.000, 0.000, 0.000, 17:31:04.732
254, 34036.92, -81813.08, -187500.02, -187500.02, -187500.02, -82059.76, -187500.02, -187500.02, 0.144, 0.060, 1.004, 17:31:04.732
255, 34057.87, -81715.65, -187500.02, -187500.02, -187500.02, -81957.01, -187500.02, -187500.02, 0.000, 0.000, 0.000, 17:31:04.732
0, 34056.08, -81586.52, -187500.02, -187500.02, -187500.02, -81788.41, -187500.02, -187500.02, 0.000, 0.000, 0.000, 17:31:04.732
1, 34026.84, -81738.07, -187500.02, -187500.02, -187500.02, -81946.68, -187500.02, -187500.02, 0.000, 0.000, 0.000, 17:31:04.732
2, 34033.61, -81900.63, -187500.02, -187500.02, -187500.02, -82146.32, -187500.02, -187500.02, 0.000, 0.000, 0.000, 17:31:04.732
3, 34056.03, -81858.14, -187500.02, -187500.02, -187500.02, -82107.09, -187500.02, -187500.02, 0.000, 0.000, 0.000, 17:31:04.732
4, 34063.57, -81670.63, -187500.02, -187500.02, -187500.02, -81884.83, -187500.02, -187500.02, 0.000, 0.000, 0.000, 17:31:04.733
5, 34004.78, -81731.66, -187500.02, -187500.02, -187500.02, -81938.09, -187500.02, -187500.02, 0.000, 0.000, 0.000, 17:31:04.733
6, 34027.22, -81900.01, -187500.02, -187500.02, -187500.02, -82140.53, -187500.02, -187500.02, 0.000, 0.000, 0.000, 17:31:04.733
7, 34051.61, -81879.49, -187500.02, -187500.02, -187500.02, -82128.06, -187500.02, -187500.02, 0.000, 0.000, 0.000, 17:31:04.733
8, 34051.59, -81635.07, -187500.02, -187500.02, -187500.02, -81849.42, -187500.02, -187500.02, 0.146, 0.054, 1.004, 17:31:04.733
9, 34006.82, -81642.25, -187500.02, -187500.02, -187500.02, -81837.11, -187500.02, -187500.02, 0.000, 0.000, 0.000, 17:31:04.733
10, 33985.02, -81797.28, -187500.02, -187500.02, -187500.02, -82026.07, -187500.02, -187500.02, 0.000, 0.000, 0.000, 17:31:04.733
11, 34023.51, -81848.09, -187500.02, -187500.02, -187500.02, -82095.72, -187500.02, -187500.02, 0.000, 0.000, 0.000, 17:31:04.733
12, 34053.11, -81734.74, -187500.02, -187500.02, -187500.02, -81961.79, -187500.02, -187500.02, 0.000, 0.000, 0.000, 17:31:04.733
13, 34016.89, -81729.62, -187500.02, -187500.02, -187500.02, -81934.50, -187500.02, -187500.02, 0.000, 0.000, 0.000, 17:31:04.733
14, 33974.96, -81853.12, -187500.02, -187500.02, -187500.02, -82088.84, -187500.02, -187500.02, 0.000, 0.000, 0.000, 17:31:04.733
15, 34006.90, -81914.91, -187500.02, -187500.02, -187500.02, -82174.11, -187500.02, -187500.02, 0.000, 0.000, 0.000, 17:31:04.733
16, 34048.34, -81744.84, -187500.02, -187500.02, -187500.02, -81984.27, -187500.02, -187500.02, 0.000, 0.000, 0.000, 17:31:04.734
17, 34024.23, -81648.51, -187500.02, -187500.02, -187500.02, -81849.88, -187500.02, -187500.02, 0.144, 0.056, 1.000, 17:31:04.734
18, 33992.51, -81841.16, -187500.02, -187500.02, -187500.02, -82063.33, -187500.02, -187500.02, 0.000, 0.000, 0.000, 17:31:04.734
19, 34012.65, -81942.52, -187500.02, -187500.02, -187500.02, -82194.49, -187500.02, -187500.02, 0.000, 0.000, 0.000, 17:31:04.734
20, 34035.40, -81772.67, -187500.02, -187500.02, -187500.02, -82013.73, -187500.02, -187500.02, 0.000, 0.000, 0.000, 17:31:04.734
21, 34023.20, -81624.50, -187500.02, -187500.02, -187500.02, -81826.49, -187500.02, -187500.02, 0.000, 0.000, 0.000, 17:31:04.734
22, 34009.34, -81784.78, -187500.02, -187500.02, -187500.02, -82001.55, -187500.02, -187500.02, 0.000, 0.000, 0.000, 17:31:04.734
23, 34024.11, -81936.46, -187500.02, -187500.02, -187500.02, -82187.00, -187500.02, -187500.02, 0.000, 0.000, 0.000, 17:31:04.734
24, 34038.87, -81906.06, -187500.02, -187500.02, -187500.02, -82157.50, -187500.02, -187500.02, 0.000, 0.000, 0.000, 17:31:04.734
25, 34057.75, -81744.51, -187500.02, -187500.02, -187500.02, -81961.16, -187500.02, -187500.02, 0.000, 0.000, 0.000, 17:31:04.734
26, 34028.12, -81823.81, -187500.02, -187500.02, -187500.02, -82044.73, -187500.02, -187500.02, 0.000, 0.000, 0.000, 17:31:04.734
27, 34011.84, -81953.16, -187500.02, -187500.02, -187500.02, -82211.66, -187500.02, -187500.02, 0.146, 0.060, 1.006, 17:31:04.734
28, 34034.71, -81876.60, -187500.02, -187500.02, -187500.02, -82140.22, -187500.02, -187500.02, 0.000, 0.000, 0.000, 17:31:04.735
29, 34067.37, -81690.51, -187500.02, -187500.02, -187500.02, -81919.56, -187500.02, -187500.02, 0.000, 0.000, 0.000, 17:31:04.735
30, 33993.74, -81797.68, -187500.02, -187500.02, -187500.02, -82021.60, -187500.02, -187500.02, 0.000, 0.000, 0.000, 17:31:04.735
31, 33995.57, -82017.58, -187500.02, -187500.02, -187500.02, -82282.71, -187500.02, -187500.02, 0.000, 0.000, 0.000, 17:31:04.735
32, 34040.05, -82023.63, -187500.02, -187500.02, -187500.02, -82303.14, -187500.02, -187500.02, 0.000, 0.000, 0.000, 17:31:04.735
33, 34049.86, -81828.37, -187500.02, -187500.02, -187500.02, -82076.25, -187500.02, -187500.02, 0.000, 0.000, 0.000, 17:31:04.735
34, 33996.76, -81823.90, -187500.02, -187500.02, -187500.02, -82052.18, -187500.02, -187500.02, 0.000, 0.000, 0.000, 17:31:04.735
35, 33967.05, -81945.78, -187500.02, -187500.02, -187500.02, -82210.77, -187500.02, -187500.02, 0.000, 0.000, 0.000, 17:31:04.735
36, 33983.86, -81943.33, -187500.02, -187500.02, -187500.02, -82229.41, -187500.02, -187500.02, 0.000, 0.000, 0.000, 17:31:04.735
37, 34019.87, -81734.18, -187500.02, -187500.02, -187500.02, -81993.05, -187500.02, -187500.02, 0.150, 0.066, 1.012, 17:31:04.735
38, 34005.56, -81719.52, -187500.02, -187500.02, -187500.02, -81947.57, -187500.02, -187500.02, 0.000, 0.000, 0.000, 17:31:04.735
39, 33968.91, -81922.20, -187500.02, -187500.02, -187500.02, -82179.63, -187500.02, -187500.02, 0.000, 0.000, 0.000, 17:31:04.735
40, 33991.55, -82016.02, -187500.02, -187500.02, -187500.02, -82298.16, -187500.02, -187500.02, 0.000, 0.000, 0.000, 17:31:04.735
41, 34030.66, -81878.88, -187500.02, -187500.02, -187500.02, -82145.97, -187500.02, -187500.02, 0.000, 0.000, 0.000, 17:31:04.735
42, 34027.38, -81776.52, -187500.02, -187500.02, -187500.02, -82011.34, -187500.02, -187500.02, 0.000, 0.000, 0.000, 17:31:04.736
43, 33986.47, -81903.07, -187500.02, -187500.02, -187500.02, -82160.45, -187500.02, -187500.02, 0.000, 0.000, 0.000, 17:31:04.736
44, 34000.60, -82004.77, -187500.02, -187500.02, -187500.02, -82292.68, -187500.02, -187500.02, 0.000, 0.000, 0.000, 17:31:04.736
45, 34025.70, -81909.33, -187500.02, -187500.02, -187500.02, -82187.49, -187500.02, -187500.02, 0.000, 0.000, 0.000, 17:31:04.736
46, 34026.33, -81698.91, -187500.02, -187500.02, -187500.02, -81937.49, -187500.02, -187500.02, 0.000, 0.000, 0.000, 17:31:04.736
47, 33980.60, -81819.59, -187500.02, -187500.02, -187500.02, -82066.69, -187500.02, -187500.02, 0.146, 0.064, 1.006, 17:31:04.736
48, 33977.13, -81955.15, -187500.02, -187500.02, -187500.02, -82237.63, -187500.02, -187500.02, 0.000, 0.000, 0.000, 17:31:04.736
49, 34004.80, -81918.76, -187500.02, -187500.02, -187500.02, -82203.01, -187500.02, -187500.02, 0.000, 0.000, 0.000, 17:31:04.736
50, 34010.19, -81817.13, -187500.02, -187500.02, -187500.02, -82067.80, -187500.02, -187500.02, 0.000, 0.000, 0.000, 17:31:04.736
51, 33984.55, -81880.12, -187500.02, -187500.02, -187500.02, -82132.87, -187500.02, -187500.02, 0.000, 0.000, 0.000, 17:31:04.736
52, 33985.13, -82002.87, -187500.02, -187500.02, -187500.02, -82291.99, -187500.02, -187500.02, 0.000, 0.000, 0.000, 17:31:04.736
53, 34004.45, -81954.03, -187500.02, -187500.02, -187500.02, -82248.90, -187500.02, -187500.02, 0.000, 0.000, 0.000, 17:31:04.737
54, 34017.50, -81743.10, -187500.02, -187500.02, -187500.02, -82000.50, -187500.02, -187500.02, 0.000, 0.000, 0.000, 17:31:04.737
55, 33981.60, -81790.41, -187500.02, -187500.02, -187500.02, -82033.80, -187500.02, -187500.02, 0.000, 0.000, 0.000, 17:31:04.737
56, 33971.84, -81928.13, -187500.02, -187500.02, -187500.02, -82206.96, -187500.02, -187500.02, 0.000, 0.000, 0.000, 17:31:04.737
57, 33997.20, -81930.61, -187500.02, -187500.02, -187500.02, -82222.99, -187500.02, -187500.02, 0.148, 0.066, 1.002, 17:31:04.737
58, 34004.71, -81670.01, -187500.02, -187500.02, -187500.02, -81929.40, -187500.02, -187500.02, 0.000, 0.000, 0.000, 17:31:04.737
59, 33959.47, -81667.82, -187500.02, -187500.02, -187500.02, -81901.17, -187500.02, -187500.02, 0.000, 0.000, 0.000, 17:31:04.737
60, 33956.32, -81878.30, -187500.02, -187500.02, -187500.02, -82145.97, -187500.02, -187500.02, 0.000, 0.000, 0.000, 17:31:04.737
61, 34003.62, -81975.94, -187500.02, -187500.02, -187500.02, -82266.06, -187500.02, -187500.02, 0.000, 0.000, 0.000, 17:31:04.738
62, 34045.15, -81806.31, -187500.02, -187500.02, -187500.02, -82074.46, -187500.02, -187500.02, 0.000, 0.000, 0.000, 17:31:04.738
63, 34010.82, -81743.61, -187500.02, -187500.02, -187500.02, -81979.40, -187500.02, -187500.02, 0.000, 0.000, 0.000, 17:31:04.738
64, 33972.68, -81899.70, -187500.02, -187500.02, -187500.02, -82160.52, -187500.02, -187500.02, 0.000, 0.000, 0.000, 17:31:04.738
65, 33993.89, -82007.85, -187500.02, -187500.02, -187500.02, -82294.90, -187500.02, -187500.02, 0.000, 0.000, 0.000, 17:31:04.738
66, 34004.45, -81848.62, -187500.02, -187500.02, -187500.02, -82122.97, -187500.02, -187500.02, 0.000, 0.000, 0.000, 17:31:04.738
67, 33997.58, -81749.40, -187500.02, -187500.02, -187500.02, -81993.10, -187500.02, -187500.02, 0.144, 0.062, 1.002, 17:31:04.738
68, 33993.45, -81898.11, -187500.02, -187500.02, -187500.02, -82162.84, -187500.02, -187500.02, 0.000, 0.000, 0.000, 17:31:04.738
69, 34015.82, -82018.92, -187500.02, -187500.02, -187500.02, -82316.09, -187500.02, -187500.02, 0.000, 0.000, 0.000, 17:31:04.738
70, 34039.18, -81959.58, -187500.02, -187500.02, -187500.02, -82251.60, -187500.02, -187500.02, 0.000, 0.000, 0.000, 17:31:04.738
71, 34026.51, -81815.16, -187500.02, -187500.02, -187500.02, -82070.64, -187500.02, -187500.02, 0.000, 0.000, 0.000, 17:31:04.738
72, 33963.88, -81912.59, -187500.02, -187500.02, -187500.02, -82176.95, -187500.02, -187500.02, 0.000, 0.000, 0.000, 17:31:04.738
73, 33969.22, -82021.47, -187500.02, -187500.02, -187500.02, -82322.14, -187500.02, -187500.02, 0.000, 0.000, 0.000, 17:31:04.739
74, 34010.46, -81957.09, -187500.02, -187500.02, -187500.02, -82258.75, -187500.02, -187500.02, 0.000, 0.000, 0.000, 17:31:04.739
75, 34016.20, -81768.31, -187500.02, -187500.02, -187500.02, -82031.55, -187500.02, -187500.02, 0.000, 0.000, 0.000, 17:31:04.739
76, 33982.88, -81815.45, -187500.02, -187500.02, -187500.02, -82072.30, -187500.02, -187500.02, 0.144, 0.062, 1.006, 17:31:04.739
77, 33978.50, -81984.63, -187500.02, -187500.02, -187500.02, -82278.53, -187500.02, -187500.02, 0.000, 0.000, 0.000, 17:31:04.739
78, 33991.97, -82050.55, -187500.02, -187500.02, -187500.02, -82351.70, -187500.02, -187500.02, 0.000, 0.000, 0.000, 17:31:04.739
79, 34008.36, -81876.05, -187500.02, -187500.02, -187500.02, -82145.38, -187500.02, -187500.02, 0.000, 0.000, 0.000, 17:31:04.739
80, 33975.39, -81887.06, -187500.02, -187500.02, -187500.02, -82145.02, -187500.02, -187500.02, 0.000, 0.000, 0.000, 17:31:04.739
81, 33942.15, -82001.59, -187500.02, -187500.02, -187500.02, -82295.59, -187500.02, -187500.02, 0.000, 0.000, 0.000, 17:31:04.739
82, 33992.62, -82032.91, -187500.02, -187500.02, -187500.02, -82342.13, -187500.02, -187500.02, 0.000, 0.000, 0.000, 17:31:04.739
83, 34020.96, -81832.91, -187500.02, -187500.02, -187500.02, -82113.82, -187500.02, -187500.02, 0.000, 0.000, 0.000, 17:31:04.739
84, 33980.53, -81828.70, -187500.02, -187500.02, -187500.02, -82084.12, -187500.02, -187500.02, 0.000, 0.000, 0.000, 17:31:04.739
85, 33961.53, -82022.83, -187500.02, -187500.02, -187500.02, -82312.22, -187500.02, -187500.02, 0.000, 0.000, 0.000, 17:31:04.739
86, 33975.90, -82115.12, -187500.02, -187500.02, -187500.02, -82428.70, -187500.02, -187500.02, 0.146, 0.068, 1.006, 17:31:04.740
87, 33983.55, -81938.77, -187500.02, -187500.02, -187500.02, -82232.80, -187500.02, -187500.02, 0.000, 0.000, 0.000, 17:31:04.740
88, 33988.20, -81841.06, -187500.02, -187500.02, -187500.02, -82103.07, -187500.02, -187500.02, 0.000, 0.000, 0.000, 17:31:04.740
89, 33976.86, -81984.09, -187500.02, -187500.02, -187500.02, -82271.85, -187500.02, -187500.02, 0.000, 0.000, 0.000, 17:31:04.740
90, 33991.93, -82085.82, -187500.02, -187500.02, -187500.02, -82404.22, -187500.02, -187500.02, 0.000, 0.000, 0.000, 17:31:05.211
91, 34024.92, -81976.63, -187500.02, -187500.02, -187500.02, -82284.52, -187500.02, -187500.02, 0.000, 0.000, 0.000, 17:31:05.211
92, 34020.45, -81810.11, -187500.02, -187500.02, -187500.02, -82082.22, -187500.02, -187500.02, 0.000, 0.000, 0.000, 17:31:05.212
93, 33990.88, -81947.39, -187500.02, -187500.02, -187500.02, -82237.81, -187500.02, -187500.02, 0.000, 0.000, 0.000, 17:31:05.212
94, 34000.96, -82058.82, -187500.02, -187500.02, -187500.02, -82385.38, -187500.02, -187500.02, 0.000, 0.000, 0.000, 17:31:05.212
95, 34021.90, -82001.75, -187500.02, -187500.02, -187500.02, -82325.12, -187500.02, -187500.02, 0.000, 0.000, 0.000, 17:31:05.212
96, 34015.84, -81835.16, -187500.02, -187500.02, -187500.02, -82120.91, -187500.02, -187500.02, 0.148, 0.062, 1.010, 17:31:05.212
97, 33954.46, -81961.45, -187500.02, -187500.02, -187500.02, -82252.95, -187500.02, -187500.02, 0.000, 0.000, 0.000, 17:31:05.213
98, 33949.37, -82102.63, -187500.02, -187500.02, -187500.02, -82429.97, -187500.02, -187500.02, 0.000, 0.000, 0.000, 17:31:05.213
99, 33990.72, -82026.92, -187500.02, -187500.02, -187500.02, -82359.00, -187500.02, -187500.02, 0.000, 0.000, 0.000, 17:31:05.213
100, 34009.59, -81817.64, -187500.02, -187500.02, -187500.02, -82112.17, -187500.02, -187500.02, 0.000, 0.000, 0.000, 17:31:05.213
101, 33953.64, -81858.48, -187500.02, -187500.02, -187500.02, -82146.59, -187500.02, -187500.02, 0.000, 0.000, 0.000, 17:31:05.213
102, 33958.47, -82007.01, -187500.02, -187500.02, -187500.02, -82331.30, -187500.02, -187500.02, 0.000, 0.000, 0.000, 17:31:05.213
103, 33994.57, -82054.80, -187500.02, -187500.02, -187500.02, -82388.88, -187500.02, -187500.02, 0.000, 0.000, 0.000, 17:31:05.214
104, 34010.50, -81876.27, -187500.02, -187500.02, -187500.02, -82181.15, -187500.02, -187500.02, 0.000, 0.000, 0.000, 17:31:05.214
105, 33963.56, -81880.31, -187500.02, -187500.02, -187500.02, -82169.03, -187500.02, -187500.02, 0.000, 0.000, 0.000, 17:31:05.214
106, 33931.85, -81999.65, -187500.02, -187500.02, -187500.02, -82325.05, -187500.02, -187500.02, 0.150, 0.070, 1.014, 17:31:05.214
107, 33978.43, -81979.76, -187500.02, -187500.02, -187500.02, -82322.61, -187500.02, -187500.02, 0.000, 0.000, 0.000, 17:31:05.214
108, 34026.57, -81786.17, -187500.02, -187500.02, -187500.02, -82102.70, -187500.02, -187500.02, 0.000, 0.000, 0.000, 17:31:05.215
109, 33984.89, -81766.39, -187500.02, -187500.02, -187500.02, -82055.93, -187500.02, -187500.02, 0.000, 0.000, 0.000, 17:31:05.215
110, 33968.91, -81934.54, -187500.02, -187500.02, -187500.02, -82254.95, -187500.02, -187500.02, 0.000, 0.000, 0.000, 17:31:05.215
111, 33998.72, -82064.36, -187500.02, -187500.02, -187500.02, -82410.97, -187500.02, -187500.02, 0.000, 0.000, 0.000, 17:31:05.215
112, 34035.85, -81961.88, -187500.02, -187500.02, -187500.02, -82293.63, -187500.02, -187500.02, 0.000, 0.000, 0.000, 17:31:05.215
113, 34031.49, -81864.29, -187500.02, -187500.02, -187500.02, -82166.95, -187500.02, -187500.02, 0.000, 0.000, 0.000, 17:31:05.215
114, 33999.86, -81975.58, -187500.02, -187500.02, -187500.02, -82304.80, -187500.02, -187500.02, 0.000, 0.000, 0.000, 17:31:05.216
115, 34024.81, -82073.01, -187500.02, -187500.02, -187500.02, -82431.89, -187500.02, -187500.02, 0.000, 0.000, 0.000, 17:31:05.216
116, 34052.41, -81901.70, -187500.02, -187500.02, -187500.02, -82248.38, -187500.02, -187500.02, 0.150, 0.070, 1.014, 17:31:05.216
117, 34017.54, -81743.70, -187500.02, -187500.02, -187500.02, -82053.36, -187500.02, -187500.02, 0.000, 0.000, 0.000, 17:31:05.216
118, 33971.41, -81866.70, -187500.02, -187500.02, -187500.02, -82189.09, -187500.02, -187500.02, 0.000, 0.000, 0.000, 17:31:05.216
119, 33993.89, -82033.88, -187500.02, -187500.02, -187500.02, -82390.72, -187500.02, -187500.02, 0.000, 0.000, 0.000, 17:31:05.216
120, 34039.54, -82016.86, -187500.02, -187500.02, -187500.02, -82370.34, -187500.02, -187500.02, 0.000, 0.000, 0.000, 17:31:05.217
121, 34058.38, -81853.16, -187500.02, -187500.02, -187500.02, -82170.22, -187500.02, -187500.02, 0.000, 0.000, 0.000, 17:31:05.217
122, 34023.58, -81938.32, -187500.02, -187500.02, -187500.02, -82260.74, -187500.02, -187500.02, 0.000, 0.000, 0.000, 17:31:05.217
123, 34002.66, -82055.04, -187500.02, -187500.02, -187500.02, -82414.74, -187500.02, -187500.02, 0.000, 0.000, 0.000, 17:31:05.217
124, 34015.04, -82002.40, -187500.02, -187500.02, -187500.02, -82368.34, -187500.02, -187500.02, 0.000, 0.000, 0.000, 17:31:05.217
125, 34050.11, -81833.87, -187500.02, -187500.02, -187500.02, -82164.27, -187500.02, -187500.02, 0.000, 0.000, 0.000, 17:31:05.217
126, 34020.96, -81887.34, -187500.02, -187500.02, -187500.02, -82210.36, -187500.02, -187500.02, 0.146, 0.072, 1.014, 17:31:05.218
127, 34009.65, -82021.13, -187500.02, -187500.02, -187500.02, -82384.03, -187500.02, -187500.02, 0.000, 0.000, 0.000, 17:31:05.218
128, 34042.13, -82057.59, -187500.02, -187500.02, -187500.02, -82435.47, -187500.02, -187500.02, 0.000, 0.000, 0.000, 17:31:05.218
129, 34064.26, -81909.06, -187500.02, -187500.02, -187500.02, -82257.86, -187500.02, -187500.02, 0.000, 0.000, 0.000, 17:31:05.218
130, 34037.75, -81897.93, -187500.02, -187500.02, -187500.02, -82228.55, -187500.02, -187500.02, 0.000, 0.000, 0.000, 17:31:05.218
131, 34010.26, -82048.76, -187500.02, -187500.02, -187500.02, -82412.38, -187500.02, -187500.02, 0.000, 0.000, 0.000, 17:31:05.218
132, 34016.85, -82081.44, -187500.02, -187500.02, -187500.02, -82464.30, -187500.02, -187500.02, 0.000, 0.000, 0.000, 17:31:05.218
133, 34041.50, -81871.62, -187500.02, -187500.02, -187500.02, -82230.81, -187500.02, -187500.02, 0.000, 0.000, 0.000, 17:31:05.219
134, 34019.33, -81834.02, -187500.02, -187500.02, -187500.02, -82163.53, -187500.02, -187500.02, 0.000, 0.000, 0.000, 17:31:05.219
135, 33967.63, -82036.66, -187500.02, -187500.02, -187500.02, -82397.52, -187500.02, -187500.02, 0.146, 0.068, 1.014, 17:31:05.219
136, 34002.12, -82169.68, -187500.02, -187500.02, -187500.02, -82556.08, -187500.02, -187500.02, 0.000, 0.000, 0.000, 17:31:05.219
137, 34046.58, -82015.88, -187500.02, -187500.02, -187500.02, -82385.58, -187500.02, -187500.02, 0.000, 0.000, 0.000, 17:31:05.219
138, 34037.30, -81901.21, -187500.02, -187500.02, -187500.02, -82238.19, -187500.02, -187500.02, 0.000, 0.000, 0.000, 17:31:05.219
139, 33981.38, -82044.51, -187500.02, -187500.02, -187500.02, -82405.42, -187500.02, -187500.02, 0.000, 0.000, 0.000, 17:31:05.220
140, 33993.20, -82127.84, -187500.02, -187500.02, -187500.02, -82523.17, -187500.02, -187500.02, 0.000, 0.000, 0.000, 17:31:05.220
141, 34031.60, -81953.43, -187500.02, -187500.02, -187500.02, -82339.82, -187500.02, -187500.02, 0.000, 0.000, 0.000, 17:31:05.220
142, 34039.38, -81754.99, -187500.02, -187500.02, -187500.02, -82102.07, -187500.02, -187500.02, 0.000, 0.000, 0.000, 17:31:05.220
143, 33994.39, -81894.22, -187500.02, -187500.02, -187500.02, -82252.67, -187500.02, -187500.02, 0.000, 0.000, 0.000, 17:31:05.220
144, 34016.40, -82053.45, -187500.02, -187500.02, -187500.02, -82449.10, -187500.02, -187500.02, 0.000, 0.000, 0.000, 17:31:05.220
145, 34044.28, -82007.48, -187500.02, -187500.02, -187500.02, -82402.66, -187500.02, -187500.02, 0.148, 0.062, 1.020, 17:31:05.221
146, 34065.53, -81828.33, -187500.02, -187500.02, -187500.02, -82188.26, -187500.02, -187500.02, 0.000, 0.000, 0.000, 17:31:05.221
147, 34026.91, -81927.55, -187500.02, -187500.02, -187500.02, -82289.69, -187500.02, -187500.02, 0.000, 0.000, 0.000, 17:31:05.221
148, 34032.18, -82098.87, -187500.02, -187500.02, -187500.02, -82502.90, -187500.02, -187500.02, 0.000, 0.000, 0.000, 17:31:05.221
149, 34064.46, -82079.36, -187500.02, -187500.02, -187500.02, -82491.73, -187500.02, -187500.02, 0.000, 0.000, 0.000, 17:31:05.221
150, 34079.52, -81851.02, -187500.02, -187500.02, -187500.02, -82229.18, -187500.02, -187500.02, 0.000, 0.000, 0.000, 17:31:05.222
151, 34032.45, -81906.96, -187500.02, -187500.02, -187500.02, -82274.51, -187500.02, -187500.02, 0.000, 0.000, 0.000, 17:31:05.222
152, 34003.39, -82091.74, -187500.02, -187500.02, -187500.02, -82497.76, -187500.02, -187500.02, 0.000, 0.000, 0.000, 17:31:05.222
153, 34034.64, -82131.64, -187500.02, -187500.02, -187500.02, -82553.70, -187500.02, -187500.02, 0.000, 0.000, 0.000, 17:31:05.222
154, 34073.29, -81915.92, -187500.02, -187500.02, -187500.02, -82310.90, -187500.02, -187500.02, 0.000, 0.000, 0.000, 17:31:05.222
155, 34022.59, -81902.29, -187500.02, -187500.02, -187500.02, -82276.52, -187500.02, -187500.02, 0.150, 0.058, 1.010, 17:31:05.222
156, 33968.17, -82067.06, -187500.02, -187500.02, -187500.02, -82475.38, -187500.02, -187500.02, 0.000, 0.000, 0.000, 17:31:05.223
157, 34006.48, -82117.83, -187500.02, -187500.02, -187500.02, -82548.95, -187500.02, -187500.02, 0.000, 0.000, 0.000, 17:31:05.223
158, 34037.73, -81884.36, -187500.02, -187500.02, -187500.02, -82293.45, -187500.02, -187500.02, 0.000, 0.000, 0.000, 17:31:05.223
159, 34010.75, -81830.23, -187500.02, -187500.02, -187500.02, -82208.53, -187500.02, -187500.02, 0.000, 0.000, 0.000, 17:31:05.223
160, 33970.45, -82025.96, -187500.02, -187500.02, -187500.02, -82432.23, -187500.02, -187500.02, 0.000, 0.000, 0.000, 17:31:05.223
161, 34003.60, -82176.66, -187500.02, -187500.02, -187500.02, -82609.23, -187500.02, -187500.02, 0.000, 0.000, 0.000, 17:31:05.223
162, 34020.41, -82056.65, -187500.02, -187500.02, -187500.02, -82474.76, -187500.02, -187500.02, 0.000, 0.000, 0.000, 17:31:05.223
163, 33998.88, -81928.69, -187500.02, -187500.02, -187500.02, -82316.09, -187500.02, -187500.02, 0.000, 0.000, 0.000, 17:31:05.224
164, 33966.11, -82033.07, -187500.02, -187500.02, -187500.02, -82442.06, -187500.02, -187500.02, 0.000, 0.000, 0.000, 17:31:05.224
165, 33968.68, -82142.21, -187500.02, -187500.02, -187500.02, -82585.87, -187500.02, -187500.02, 0.150, 0.062, 1.008, 17:31:05.224
166, 33978.32, -82013.24, -187500.02, -187500.02, -187500.02, -82450.71, -187500.02, -187500.02, 0.000, 0.000, 0.000, 17:31:05.224
167, 34013.48, -81793.34, -187500.02, -187500.02, -187500.02, -82190.89, -187500.02, -187500.02, 0.000, 0.000, 0.000, 17:31:05.224
168, 33976.64, -81927.68, -187500.02, -187500.02, -187500.02, -82334.28, -187500.02, -187500.02, 0.000, 0.000, 0.000, 17:31:05.224
169, 33988.13, -82089.05, -187500.02, -187500.02, -187500.02, -82534.06, -187500.02, -187500.02, 0.000, 0.000, 0.000, 17:31:05.224
170, 34025.50, -82075.31, -187500.02, -187500.02, -187500.02, -82522.57, -187500.02, -187500.02, 0.000, 0.000, 0.000, 17:31:05.225
171, 34037.55, -81909.62, -187500.02, -187500.02, -187500.02, -82321.05, -187500.02, -187500.02, 0.000, 0.000, 0.000, 17:31:05.225
172, 34009.23, -81984.88, -187500.02, -187500.02, -187500.02, -82395.21, -187500.02, -187500.02, 0.000, 0.000, 0.000, 17:31:05.225
173, 34015.38, -82132.80, -187500.02, -187500.02, -187500.02, -82583.48, -187500.02, -187500.02, 0.000, 0.000, 0.000, 17:31:05.225
174, 34026.66, -82073.30, -187500.02, -187500.02, -187500.02, -82532.85, -187500.02, -187500.02, 0.000, 0.000, 0.000, 17:31:05.225
175, 34049.44, -81835.30, -187500.02, -187500.02, -187500.02, -82260.88, -187500.02, -187500.02, 0.150, 0.060, 1.002, 17:31:05.225
176, 34006.68, -81892.30, -187500.02, -187500.02, -187500.02, -82304.13, -187500.02, -187500.02, 0.000, 0.000, 0.000, 17:31:05.226
177, 33976.46, -82042.16, -187500.02, -187500.02, -187500.02, -82491.05, -187500.02, -187500.02, 0.000, 0.000, 0.000, 17:31:05.226
178, 34022.44, -82135.86, -187500.02, -187500.02, -187500.02, -82601.85, -187500.02, -187500.02, 0.000, 0.000, 0.000, 17:31:05.226
179, 34054.98, -81981.97, -187500.02, -187500.02, -187500.02, -82422.48, -187500.02, -187500.02, 0.000, 0.000, 0.000, 17:31:05.226
180, 34019.89, -81932.35, -187500.02, -187500.02, -187500.02, -82349.39, -187500.02, -187500.02, 0.000, 0.000, 0.000, 17:31:05.226
181, 33988.02, -82077.48, -187500.02, -187500.02, -187500.02, -82527.02, -187500.02, -187500.02, 0.000, 0.000, 0.000, 17:31:05.226
182, 33995.28, -82142.32, -187500.02, -187500.02, -187500.02, -82615.53, -187500.02, -187500.02, 0.000, 0.000, 0.000, 17:31:05.227
183, 34024.05, -81922.67, -187500.02, -187500.02, -187500.02, -82374.58, -187500.02, -187500.02, 0.000, 0.000, 0.000, 17:31:05.227
184, 34030.91, -81823.50, -187500.02, -187500.02, -187500.02, -82240.54, -187500.02, -187500.02, 0.000, 0.000, 0.000, 17:31:05.227
185, 33982.32, -81995.94, -187500.02, -187500.02, -187500.02, -82437.43, -187500.02, -187500.02, 0.152, 0.062, 1.002, 17:31:05.227
186, 33997.00, -82149.74, -187500.02, -187500.02, -187500.02, -82624.07, -187500.02, -187500.02, 0.000, 0.000, 0.000, 17:31:05.227
187, 34001.50, -82081.17, -187500.02, -187500.02, -187500.02, -82548.88, -187500.02, -187500.02, 0.000, 0.000, 0.000, 17:31:05.227
188, 33988.11, -81970.70, -187500.02, -187500.02, -187500.02, -82408.11, -187500.02, -187500.02, 0.000, 0.000, 0.000, 17:31:05.227
189, 33954.40, -82068.54, -187500.02, -187500.02, -187500.02, -82524.63, -187500.02, -187500.02, 0.000, 0.000, 0.000, 17:31:05.228
190, 33992.11, -82162.46, -187500.02, -187500.02, -187500.02, -82651.77, -187500.02, -187500.02, 0.000, 0.000, 0.000, 17:31:05.228
191, 34005.00, -82069.14, -187500.02, -187500.02, -187500.02, -82552.92, -187500.02, -187500.02, 0.000, 0.000, 0.000, 17:31:05.228
192, 33991.84, -81884.05, -187500.02, -187500.02, -187500.02, -82328.24, -187500.02, -187500.02, 0.000, 0.000, 0.000, 17:31:05.228
193, 33972.26, -81961.07, -187500.02, -187500.02, -187500.02, -82410.41, -187500.02, -187500.02, 0.000, 0.000, 0.000, 17:31:05.228
194, 34007.95, -82092.68, -187500.02, -187500.02, -187500.02, -82579.16, -187500.02, -187500.02, 0.000, 0.000, 0.000, 17:31:05.228
195, 34018.77, -82107.19, -187500.02, -187500.02, -187500.02, -82597.31, -187500.02, -187500.02, 0.148, 0.062, 1.002, 17:31:05.229
196, 34040.43, -81939.86, -187500.02, -187500.02, -187500.02, -82396.10, -187500.02, -187500.02, 0.000, 0.000, 0.000, 17:31:05.229
197, 34009.99, -81985.30, -187500.02, -187500.02, -187500.02, -82439.06, -187500.02, -187500.02, 0.000, 0.000, 0.000, 17:31:05.229
198, 34000.11, -82097.33, -187500.02, -187500.02, -187500.02, -82590.16, -187500.02, -187500.02, 0.000, 0.000, 0.000, 17:31:05.229
199, 34029.37, -82065.74, -187500.02, -187500.02, -187500.02, -82570.34, -187500.02, -187500.02, 0.000, 0.000, 0.000, 17:31:05.229
200, 34076.44, -81836.82, -187500.02, -187500.02, -187500.02, -82307.37, -187500.02, -187500.02, 0.000, 0.000, 0.000, 17:31:05.229
201, 34057.71, -81863.30, -187500.02, -187500.02, -187500.02, -82315.34, -187500.02, -187500.02, 0.000, 0.000, 0.000, 17:31:05.229
202, 34046.82, -82065.45, -187500.02, -187500.02, -187500.02, -82555.98, -187500.02, -187500.02, 0.000, 0.000, 0.000, 17:31:05.230
203, 34072.08, -82143.06, -187500.02, -187500.02, -187500.02, -82656.88, -187500.02, -187500.02, 0.000, 0.000, 0.000, 17:31:05.230
204, 34074.70, -81959.80, -187500.02, -187500.02, -187500.02, -82452.03, -187500.02, -187500.02, 0.144, 0.058, 1.004, 17:31:05.230
205, 34035.96, -81942.03, -187500.02, -187500.02, -187500.02, -82410.55, -187500.02, -187500.02, 0.000, 0.000, 0.000, 17:31:05.230
206, 34007.62, -82101.51, -187500.02, -187500.02, -187500.02, -82601.25, -187500.02, -187500.02, 0.000, 0.000, 0.000, 17:31:05.230
207, 34035.09, -82172.25, -187500.02, -187500.02, -187500.02, -82695.44, -187500.02, -187500.02, 0.000, 0.000, 0.000, 17:31:05.230
208, 34046.49, -82016.68, -187500.02, -187500.02, -187500.02, -82521.03, -187500.02, -187500.02, 0.000, 0.000, 0.000, 17:31:05.230
209, 34021.86, -81890.87, -187500.02, -187500.02, -187500.02, -82362.58, -187500.02, -187500.02, 0.000, 0.000, 0.000, 17:31:05.231
210, 33964.37, -81982.77, -187500.02, -187500.02, -187500.02, -82478.09, -187500.02, -187500.02, 0.000, 0.000, 0.000, 17:31:05.690
211, 33971.70, -82102.60, -187500.02, -187500.02, -187500.02, -82628.95, -187500.02, -187500.02, 0.000, 0.000, 0.000, 17:31:05.690
212, 34013.25, -81993.41, -187500.02, -187500.02, -187500.02, -82511.15, -187500.02, -187500.02, 0.000, 0.000, 0.000, 17:31:05.690
213, 34034.20, -81891.63, -187500.02, -187500.02, -187500.02, -82373.69, -187500.02, -187500.02, 0.000, 0.000, 0.000, 17:31:05.690
214, 33978.85, -82058.57, -187500.02, -187500.02, -187500.02, -82556.48, -187500.02, -187500.02, 0.144, 0.066, 1.000, 17:31:05.690
215, 33980.66, -82189.51, -187500.02, -187500.02, -187500.02, -82722.10, -187500.02, -187500.02, 0.000, 0.000, 0.000, 17:31:05.690
216, 34009.65, -82085.68, -187500.02, -187500.02, -187500.02, -82614.59, -187500.02, -187500.02, 0.000, 0.000, 0.000, 17:31:05.690
217, 34001.47, -81915.30, -187500.02, -187500.02, -187500.02, -82407.03, -187500.02, -187500.02, 0.000, 0.000, 0.000, 17:31:05.691
218, 33933.34, -81998.27, -187500.02, -187500.02, -187500.02, -82495.68, -187500.02, -187500.02, 0.000, 0.000, 0.000, 17:31:05.691
219, 33961.35, -82158.23, -187500.02, -187500.02, -187500.02, -82693.43, -187500.02, -187500.02, 0.000, 0.000, 0.000, 17:31:05.691
220, 34003.89, -82103.23, -187500.02, -187500.02, -187500.02, -82642.91, -187500.02, -187500.02, 0.000, 0.000, 0.000, 17:31:05.691
221, 34042.69, -81880.52, -187500.02, -187500.02, -187500.02, -82383.63, -187500.02, -187500.02, 0.000, 0.000, 0.000, 17:31:05.691
222, 34001.83, -81912.99, -187500.02, -187500.02, -187500.02, -82404.66, -187500.02, -187500.02, 0.000, 0.000, 0.000, 17:31:05.691
223, 33995.17, -82071.47, -187500.02, -187500.02, -187500.02, -82599.69, -187500.02, -187500.02, 0.000, 0.000, 0.000, 17:31:05.691
224, 34026.37, -82120.77, -187500.02, -187500.02, -187500.02, -82664.66, -187500.02, -187500.02, 0.144, 0.066, 1.000, 17:31:05.691
225, 34059.27, -81977.86, -187500.02, -187500.02, -187500.02, -82493.60, -187500.02, -187500.02, 0.000, 0.000, 0.000, 17:31:05.691
226, 34018.19, -81990.27, -187500.02, -187500.02, -187500.02, -82489.52, -187500.02, -187500.02, 0.000, 0.000, 0.000, 17:31:05.692
227, 34000.96, -82162.20, -187500.02, -187500.02, -187500.02, -82699.15, -187500.02, -187500.02, 0.000, 0.000, 0.000, 17:31:05.692
228, 34011.60, -82189.46, -187500.02, -187500.02, -187500.02, -82748.21, -187500.02, -187500.02, 0.000, 0.000, 0.000, 17:31:05.692
229, 34044.16, -81981.32, -187500.02, -187500.02, -187500.02, -82516.52, -187500.02, -187500.02, 0.000, 0.000, 0.000, 17:31:05.692
230, 34040.99, -81970.33, -187500.02, -187500.02, -187500.02, -82479.59, -187500.02, -187500.02, 0.000, 0.000, 0.000, 17:31:05.692
231, 34015.64, -82119.68, -187500.02, -187500.02, -187500.02, -82662.02, -187500.02, -187500.02, 0.000, 0.000, 0.000, 17:31:05.692
232, 34045.91, -82134.52, -187500.02, -187500.02, -187500.02, -82703.53, -187500.02, -187500.02, 0.000, 0.000, 0.000, 17:31:05.692
233, 34071.93, -81921.27, -187500.02, -187500.02, -187500.02, -82473.11, -187500.02, -187500.02, 0.000, 0.000, 0.000, 17:31:05.692
234, 34056.59, -81841.24, -187500.02, -187500.02, -187500.02, -82358.73, -187500.02, -187500.02, 0.152, 0.064, 1.002, 17:31:05.692
235, 34018.04, -82014.25, -187500.02, -187500.02, -187500.02, -82556.41, -187500.02, -187500.02, 0.000, 0.000, 0.000, 17:31:05.693
236, 34040.14, -82158.39, -187500.02, -187500.02, -187500.02, -82734.63, -187500.02, -187500.02, 0.000, 0.000, 0.000, 17:31:05.693
237, 34073.51, -82078.95, -187500.02, -187500.02, -187500.02, -82646.55, -187500.02, -187500.02, 0.000, 0.000, 0.000, 17:31:05.693
238, 34063.54, -81940.22, -187500.02, -187500.02, -187500.02, -82471.84, -187500.02, -187500.02, 0.000, 0.000, 0.000, 17:31:05.693
239, 34016.38, -82053.88, -187500.02, -187500.02, -187500.02, -82600.00, -187500.02, -187500.02, 0.000, 0.000, 0.000, 17:31:05.693
240, 34023.27, -82164.38, -187500.02, -187500.02, -187500.02, -82748.57, -187500.02, -187500.02, 0.000, 0.000, 0.000, 17:31:05.693
241, 34040.63, -82090.18, -187500.02, -187500.02, -187500.02, -82672.98, -187500.02, -187500.02, 0.000, 0.000, 0.000, 17:31:05.693
242, 34050.38, -81883.00, -187500.02, -187500.02, -187500.02, -82428.45, -187500.02, -187500.02, 0.000, 0.000, 0.000, 17:31:05.693
243, 33996.13, -81983.55, -187500.02, -187500.02, -187500.02, -82528.94, -187500.02, -187500.02, 0.000, 0.000, 0.000, 17:31:05.694
244, 34015.96, -82155.76, -187500.02, -187500.02, -187500.02, -82739.02, -187500.02, -187500.02, 0.152, 0.058, 1.004, 17:31:05.694
245, 34050.80, -82154.51, -187500.02, -187500.02, -187500.02, -82747.32, -187500.02, -187500.02, 0.000, 0.000, 0.000, 17:31:05.694
246, 34065.04, -82001.75, -187500.02, -187500.02, -187500.02, -82563.85, -187500.02, -187500.02, 0.000, 0.000, 0.000, 17:31:05.694
247, 34018.35, -82020.10, -187500.02, -187500.02, -187500.02, -82575.25, -187500.02, -187500.02, 0.000, 0.000, 0.000, 17:31:05.694
248, 33996.20, -82117.42, -187500.02, -187500.02, -187500.02, -82710.98, -187500.02, -187500.02, 0.000, 0.000, 0.000, 17:31:05.694
249, 34036.05, -82096.93, -187500.02, -187500.02, -187500.02, -82702.88, -187500.02, -187500.02, 0.000, 0.000, 0.000, 17:31:05.694
250, 34060.95, -81914.40, -187500.02, -187500.02, -187500.02, -82490.36, -187500.02, -187500.02, 0.000, 0.000, 0.000, 17:31:05.694
251, 34024.47, -81933.94, -187500.02, -187500.02, -187500.02, -82489.58, -187500.02, -187500.02, 0.000, 0.000, 0.000, 17:31:05.694
252, 33995.66, -82116.77, -187500.02, -187500.02, -187500.02, -82709.63, -187500.02, -187500.02, 0.000, 0.000, 0.000, 17:31:05.695
253, 34042.11, -82181.46, -187500.02, -187500.02, -187500.02, -82795.91, -187500.02, -187500.02, 0.000, 0.000, 0.000, 17:31:05.695
254, 34073.04, -82004.95, -187500.02, -187500.02, -187500.02, -82596.89, -187500.02, -187500.02, 0.154, 0.060, 1.004, 17:31:05.695
255, 34044.39, -81954.95, -187500.02, -187500.02, -187500.02, -82518.37, -187500.02, -187500.02, 0.000, 0.000, 0.000, 17:31:05.695
0, 34002.34, -82114.41, -187500.02, -187500.02, -187500.02, -82706.19, -187500.02, -187500.02, 0.000, 0.000, 0.000, 17:31:05.695
1, 34022.55, -82205.82, -187500.02, -187500.02, -187500.02, -82823.02, -187500.02, -187500.02, 0.000, 0.000, 0.000, 17:31:05.695
2, 34057.89, -82050.23, -187500.02, -187500.02, -187500.02, -82652.34, -187500.02, -187500.02, 0.000, 0.000, 0.000, 17:31:05.695
3, 34028.47, -81914.94, -187500.02, -187500.02, -187500.02, -82482.02, -187500.02, -187500.02, 0.000, 0.000, 0.000, 17:31:05.695
4, 33970.83, -82025.69, -187500.02, -187500.02, -187500.02, -82613.43, -187500.02, -187500.02, 0.000, 0.000, 0.000, 17:31:05.695
5, 34013.30, -82130.19, -187500.02, -187500.02, -187500.02, -82752.03, -187500.02, -187500.02, 0.000, 0.000, 0.000, 17:31:05.696
6, 34032.00, -82055.20, -187500.02, -187500.02, -187500.02, -82671.14, -187500.02, -187500.02, 0.000, 0.000, 0.000, 17:31:05.696
7, 34022.02, -81895.23, -187500.02, -187500.02, -187500.02, -82473.66, -187500.02, -187500.02, 0.152, 0.058, 1.002, 17:31:05.696
8, 33984.62, -82030.36, -187500.02, -187500.02, -187500.02, -82616.63, -187500.02, -187500.02, 0.000, 0.000, 0.000, 17:31:05.696
9, 33991.17, -82161.52, -187500.02, -187500.02, -187500.02, -82784.84, -187500.02, -187500.02, 0.000, 0.000, 0.000, 17:31:05.696
10, 34017.34, -82127.48, -187500.02, -187500.02, -187500.02, -82753.51, -187500.02, -187500.02, 0.000, 0.000, 0.000, 17:31:05.696
11, 34041.06, -81922.45, -187500.02, -187500.02, -187500.02, -82512.22, -187500.02, -187500.02, 0.000, 0.000, 0.000, 17:31:05.696
12, 33996.09, -81988.05, -187500.02, -187500.02, -187500.02, -82575.32, -187500.02, -187500.02, 0.000, 0.000, 0.000, 17:31:05.696
13, 33984.80, -82135.48, -187500.02, -187500.02, -187500.02, -82764.30, -187500.02, -187500.02, 0.000, 0.000, 0.000, 17:31:05.696
14, 34023.33, -82143.77, -187500.02, -187500.02, -187500.02, -82786.86, -187500.02, -187500.02, 0.000, 0.000, 0.000, 17:31:05.697
15, 34054.29, -81966.44, -187500.02, -187500.02, -187500.02, -82579.37, -187500.02, -187500.02, 0.000, 0.000, 0.000, 17:31:05.697
16, 34019.38, -82032.48, -187500.02, -187500.02, -187500.02, -82633.55, -187500.02, -187500.02, 0.000, 0.000, 0.000, 17:31:05.697
17, 34001.20, -82189.06, -187500.02, -187500.02, -187500.02, -82827.96, -187500.02, -187500.02, 0.150, 0.056, 1.000, 17:31:05.697
18, 34050.67, -82161.66, -187500.02, -187500.02, -187500.02, -82816.05, -187500.02, -187500.02, 0.000, 0.000, 0.000, 17:31:05.697
19, 34090.63, -81928.93, -187500.02, -187500.02, -187500.02, -82556.10, -187500.02, -187500.02, 0.000, 0.000, 0.000, 17:31:05.697
20, 34055.74, -81865.74, -187500.02, -187500.02, -187500.02, -82471.66, -187500.02, -187500.02, 0.000, 0.000, 0.000, 17:31:05.697
21, 34002.16, -82035.86, -187500.02, -187500.02, -187500.02, -82674.67, -187500.02, -187500.02, 0.000, 0.000, 0.000, 17:31:05.697
22, 34033.37, -82156.49, -187500.02, -187500.02, -187500.02, -82818.71, -187500.02, -187500.02, 0.000, 0.000, 0.000, 17:31:05.697
23, 34067.50, -81981.39, -187500.02, -187500.02, -187500.02, -82625.43, -187500.02, -187500.02, 0.000, 0.000, 0.000, 17:31:05.698
24, 34040.36, -81926.45, -187500.02, -187500.02, -187500.02, -82541.73, -187500.02, -187500.02, 0.000, 0.000, 0.000, 17:31:05.698
25, 33982.32, -82090.45, -187500.02, -187500.02, -187500.02, -82732.88, -187500.02, -187500.02, 0.000, 0.000, 0.000, 17:31:05.698
26, 33999.89, -82192.81, -187500.02, -187500.02, -187500.02, -82864.59, -187500.02, -187500.02, 0.000, 0.000, 0.000, 17:31:05.698
27, 34024.25, -82025.87, -187500.02, -187500.02, -187500.02, -82685.16, -187500.02, -187500.02, 0.148, 0.062, 1.002, 17:31:05.698
28, 34010.48, -81882.33, -187500.02, -187500.02, -187500.02, -82505.25, -187500.02, -187500.02, 0.000, 0.000, 0.000, 17:31:05.698
29, 33976.24, -82054.34, -187500.02, -187500.02, -187500.02, -82697.41, -187500.02, -187500.02, 0.000, 0.000, 0.000, 17:31:05.698
30, 33977.78, -82207.30, -187500.02, -187500.02, -187500.02, -82885.20, -187500.02, -187500.02, 0.000, 0.000, 0.000, 17:31:05.698
31, 33984.55, -82122.52, -187500.02, -187500.02, -187500.02, -82796.58, -187500.02, -187500.02, 0.000, 0.000, 0.000, 17:31:05.699
32, 33999.82, -81941.98, -187500.02, -187500.02, -187500.02, -82580.69, -187500.02, -187500.02, 0.000, 0.000, 0.000, 17:31:05.699
33, 33955.34, -82038.45, -187500.02, -187500.02, -187500.02, -82687.02, -187500.02, -187500.02, 0.000, 0.000, 0.000, 17:31:05.699
34, 33943.29, -82123.15, -187500.02, -187500.02, -187500.02, -82809.50, -187500.02, -187500.02, 0.000, 0.000, 0.000, 17:31:05.699
35, 33986.52, -82021.98, -187500.02, -187500.02, -187500.02, -82709.88, -187500.02, -187500.02, 0.000, 0.000, 0.000, 17:31:05.699
36, 34036.52, -81865.14, -187500.02, -187500.02, -187500.02, -82516.09, -187500.02, -187500.02, 0.000, 0.000, 0.000, 17:31:05.699
37, 34007.91, -81937.58, -187500.02, -187500.02, -187500.02, -82582.85, -187500.02, -187500.02, 0.148, 0.060, 0.998, 17:31:05.699
38, 33999.30, -82154.57, -187500.02, -187500.02, -187500.02, -82837.20, -187500.02, -187500.02, 0.000, 0.000, 0.000, 17:31:05.699
39, 34005.74, -82165.30, -187500.02, -187500.02, -187500.02, -82858.79, -187500.02, -187500.02, 0.000, 0.000, 0.000, 17:31:05.699
40, 34031.76, -81999.14, -187500.02, -187500.02, -187500.02, -82662.80, -187500.02, -187500.02, 0.000, 0.000, 0.000, 17:31:05.700
41, 34031.51, -82004.70, -187500.02, -187500.02, -187500.02, -82656.88, -187500.02, -187500.02, 0.000, 0.000, 0.000, 17:31:05.700
42, 34011.08, -82155.71, -187500.02, -187500.02, -187500.02, -82845.06, -187500.02, -187500.02, 0.000, 0.000, 0.000, 17:31:05.700
43, 34038.09, -82190.06, -187500.02, -187500.02, -187500.02, -82895.95, -187500.02, -187500.02, 0.000, 0.000, 0.000, 17:31:05.700
44, 34065.96, -81974.44, -187500.02, -187500.02, -187500.02, -82653.35, -187500.02, -187500.02, 0.000, 0.000, 0.000, 17:31:05.700
45, 34033.79, -81891.18, -187500.02, -187500.02, -187500.02, -82541.34, -187500.02, -187500.02, 0.000, 0.000, 0.000, 17:31:05.700
46, 34014.79, -82072.14, -187500.02, -187500.02, -187500.02, -82753.76, -187500.02, -187500.02, 0.000, 0.000, 0.000, 17:31:05.700
47, 34028.65, -82181.13, -187500.02, -187500.02, -187500.02, -82888.87, -187500.02, -187500.02, 0.150, 0.060, 1.002, 17:31:05.700
48, 34048.75, -82059.53, -187500.02, -187500.02, -187500.02, -82750.00, -187500.02, -187500.02, 0.000, 0.000, 0.000, 17:31:05.700
49, 34032.61, -81993.08, -187500.02, -187500.02, -187500.02, -82653.26, -187500.02, -187500.02, 0.000, 0.000, 0.000, 17:31:05.701
50, 33980.64, -82098.55, -187500.02, -187500.02, -187500.02, -82784.53, -187500.02, -187500.02, 0.000, 0.000, 0.000, 17:31:05.701
51, 34014.28, -82178.22, -187500.02, -187500.02, -187500.02, -82893.05, -187500.02, -187500.02, 0.000, 0.000, 0.000, 17:31:05.701
52, 34041.91, -82024.20, -187500.02, -187500.02, -187500.02, -82728.90, -187500.02, -187500.02, 0.000, 0.000, 0.000, 17:31:05.701
53, 34016.36, -81857.63, -187500.02, -187500.02, -187500.02, -82527.17, -187500.02, -187500.02, 0.000, 0.000, 0.000, 17:31:05.701
54, 33957.17, -81984.25, -187500.02, -187500.02, -187500.02, -82671.39, -187500.02, -187500.02, 0.000, 0.000, 0.000, 17:31:05.701
55, 33975.25, -82094.53, -187500.02, -187500.02, -187500.02, -82820.30, -187500.02, -187500.02, 0.000, 0.000, 0.000, 17:31:05.701
56, 34012.38, -82085.17, -187500.02, -187500.02, -187500.02, -82811.91, -187500.02, -187500.02, 0.000, 0.000, 0.000, 17:31:05.701
57, 34014.46, -81921.47, -187500.02, -187500.02, -187500.02, -82610.48, -187500.02, -187500.02, 0.146, 0.062, 1.000, 17:31:05.702
58, 33964.68, -81994.06, -187500.02, -187500.02, -187500.02, -82685.29, -187500.02, -187500.02, 0.000, 0.000, 0.000, 17:31:05.702
59, 33961.82, -82136.76, -187500.02, -187500.02, -187500.02, -82864.44, -187500.02, -187500.02, 0.000, 0.000, 0.000, 17:31:05.702
60, 33989.83, -82135.21, -187500.02, -187500.02, -187500.02, -82867.75, -187500.02, -187500.02, 0.000, 0.000, 0.000, 17:31:05.702
61, 33996.36, -81926.00, -187500.02, -187500.02, -187500.02, -82624.30, -187500.02, -187500.02, 0.000, 0.000, 0.000, 17:31:05.702
62, 33963.52, -81947.80, -187500.02, -187500.02, -187500.02, -82638.40, -187500.02, -187500.02, 0.000, 0.000, 0.000, 17:31:05.702
63, 33973.29, -82096.52, -187500.02, -187500.02, -187500.02, -82826.58, -187500.02, -187500.02, 0.000, 0.000, 0.000, 17:31:05.702
64, 34016.74, -82125.83, -187500.02, -187500.02, -187500.02, -82867.21, -187500.02, -187500.02, 0.000, 0.000, 0.000, 17:31:05.702
65, 34026.11, -81987.00, -187500.02, -187500.02, -187500.02, -82698.01, -187500.02, -187500.02, 0.000, 0.000, 0.000, 17:31:05.702
66, 33982.32, -82010.76, -187500.02, -187500.02, -187500.02, -82706.57, -187500.02, -187500.02, 0.000, 0.000, 0.000, 17:31:05.703
67, 33963.16, -82114.59, -187500.02, -187500.02, -187500.02, -82846.18, -187500.02, -187500.02, 0.146, 0.064, 1.000, 17:31:05.703
68, 34018.71, -82145.85, -187500.02, -187500.02, -187500.02, -82898.13, -187500.02, -187500.02, 0.000, 0.000, 0.000, 17:31:05.703
69, 34039.89, -81970.48, -187500.02, -187500.02, -187500.02, -82697.23, -187500.02, -187500.02, 0.000, 0.000, 0.000, 17:31:05.703
70, 34006.03, -81885.14, -187500.02, -187500.02, -187500.02, -82579.95, -187500.02, -187500.02, 0.000, 0.000, 0.000, 17:31:05.703
71, 33974.32, -82045.74, -187500.02, -187500.02, -187500.02, -82772.22, -187500.02, -187500.02, 0.000, 0.000, 0.000, 17:31:05.703
72, 33998.88, -82189.44, -187500.02, -187500.02, -187500.02, -82945.55, -187500.02, -187500.02, 0.000, 0.000, 0.000, 17:31:05.703
73, 34020.79, -82091.41, -187500.02, -187500.02, -187500.02, -82831.36, -187500.02, -187500.02, 0.000, 0.000, 0.000, 17:31:05.704
74, 34022.55, -81977.05, -187500.02, -187500.02, -187500.02, -82683.88, -187500.02, -187500.02, 0.000, 0.000, 0.000, 17:31:05.704
75, 33989.34, -82092.19, -187500.02, -187500.02, -187500.02, -82821.15, -187500.02, -187500.02, 0.000, 0.000, 0.000, 17:31:06.171
76, 34004.45, -82205.60, -187500.02, -187500.02, -187500.02, -82966.05, -187500.02, -187500.02, 0.148, 0.060, 1.006, 17:31:06.171
77, 34034.64, -82050.59, -187500.02, -187500.02, -187500.02, -82801.72, -187500.02, -187500.02, 0.000, 0.000, 0.000, 17:31:06.171
78, 34026.82, -81861.48, -187500.02, -187500.02, -187500.02, -82571.19, -187500.02, -187500.02, 0.000, 0.000, 0.000, 17:31:06.171
79, 33964.59, -81999.61, -187500.02, -187500.02, -187500.02, -82720.80, -187500.02, -187500.02, 0.000, 0.000, 0.000, 17:31:06.172
80, 33987.50, -82123.80, -187500.02, -187500.02, -187500.02, -82882.14, -187500.02, -187500.02, 0.000, 0.000, 0.000, 17:31:06.172
81, 34036.97, -82129.56, -187500.02, -187500.02, -187500.02, -82891.04, -187500.02, -187500.02, 0.000, 0.000, 0.000, 17:31:06.172
82, 34049.28, -81963.60, -187500.02, -187500.02, -187500.02, -82691.98, -187500.02, -187500.02, 0.000, 0.000, 0.000, 17:31:06.172
83, 33986.63, -82036.91, -187500.02, -187500.02, -187500.02, -82767.88, -187500.02, -187500.02, 0.000, 0.000, 0.000, 17:31:06.172
84, 33969.91, -82144.22, -187500.02, -187500.02, -187500.02, -82913.10, -187500.02, -187500.02, 0.000, 0.000, 0.000, 17:31:06.173
85, 33990.48, -82111.95, -187500.02, -187500.02, -187500.02, -82889.85, -187500.02, -187500.02, 0.000, 0.000, 0.000, 17:31:06.173
86, 34007.06, -81893.26, -187500.02, -187500.02, -187500.02, -82635.91, -187500.02, -187500.02, 0.152, 0.058, 1.000, 17:31:06.173
87, 33997.02, -81945.72, -187500.02, -187500.02, -187500.02, -82675.39, -187500.02, -187500.02, 0.000, 0.000, 0.000, 17:31:06.173
88, 33991.26, -82158.75, -187500.02, -187500.02, -187500.02, -82925.86, -187500.02, -187500.02, 0.000, 0.000, 0.000, 17:31:06.173
89, 34014.70, -82208.59, -187500.02, -187500.02, -187500.02, -82989.03, -187500.02, -187500.02, 0.000, 0.000, 0.000, 17:31:06.173
90, 34046.42, -82019.05, -187500.02, -187500.02, -187500.02, -82768.75, -187500.02, -187500.02, 0.000, 0.000, 0.000, 17:31:06.173
91, 34020.20, -81995.16, -187500.02, -187500.02, -187500.02, -82725.01, -187500.02, -187500.02, 0.000, 0.000, 0.000, 17:31:06.174
92, 34009.12, -82146.84, -187500.02, -187500.02, -187500.02, -82914.13, -187500.02, -187500.02, 0.000, 0.000, 0.000, 17:31:06.174
93, 34032.41, -82192.30, -187500.02, -187500.02, -187500.02, -82982.62, -187500.02, -187500.02, 0.000, 0.000, 0.000, 17:31:06.174
94, 34050.00, -81991.02, -187500.02, -187500.02, -187500.02, -82759.84, -187500.02, -187500.02, 0.000, 0.000, 0.000, 17:31:06.174
95, 34028.79, -81904.43, -187500.02, -187500.02, -187500.02, -82642.98, -187500.02, -187500.02, 0.000, 0.000, 0.000, 17:31:06.174
96, 33993.94, -82091.00, -187500.02, -187500.02, -187500.02, -82858.38, -187500.02, -187500.02, 0.148, 0.058, 1.000, 17:31:06.175
97, 34019.27, -82233.45, -187500.02, -187500.02, -187500.02, -83028.03, -187500.02, -187500.02, 0.000, 0.000, 0.000, 17:31:06.175
98, 34056.14, -82087.94, -187500.02, -187500.02, -187500.02, -82867.80, -187500.02, -187500.02, 0.000, 0.000, 0.000, 17:31:06.175
99, 34039.38, -81963.17, -187500.02, -187500.02, -187500.02, -82710.02, -187500.02, -187500.02, 0.000, 0.000, 0.000, 17:31:06.175
100, 34000.45, -82070.71, -187500.02, -187500.02, -187500.02, -82838.60, -187500.02, -187500.02, 0.000, 0.000, 0.000, 17:31:06.175
101, 34003.35, -82186.36, -187500.02, -187500.02, -187500.02, -82988.02, -187500.02, -187500.02, 0.000, 0.000, 0.000, 17:31:06.175
102, 34028.88, -82051.06, -187500.02, -187500.02, -187500.02, -82846.94, -187500.02, -187500.02, 0.000, 0.000, 0.000, 17:31:06.176
103, 34040.23, -81854.55, -187500.02, -187500.02, -187500.02, -82610.68, -187500.02, -187500.02, 0.000, 0.000, 0.000, 17:31:06.176
104, 33987.84, -82013.11, -187500.02, -187500.02, -187500.02, -82777.05, -187500.02, -187500.02, 0.000, 0.000, 0.000, 17:31:06.176
105, 33968.01, -82196.99, -187500.02, -187500.02, -187500.02, -82998.84, -187500.02, -187500.02, 0.000, 0.000, 0.000, 17:31:06.176
106, 33989.87, -82178.35, -187500.02, -187500.02, -187500.02, -82983.02, -187500.02, -187500.02, 0.150, 0.058, 1.002, 17:31:06.176
107, 34018.48, -82002.31, -187500.02, -187500.02, -187500.02, -82773.78, -187500.02, -187500.02, 0.000, 0.000, 0.000, 17:31:06.176
108, 33978.96, -82036.09, -187500.02, -187500.02, -187500.02, -82806.77, -187500.02, -187500.02, 0.000, 0.000, 0.000, 17:31:06.177
109, 33973.96, -82149.52, -187500.02, -187500.02, -187500.02, -82957.31, -187500.02, -187500.02, 0.000, 0.000, 0.000, 17:31:06.177
110, 33996.84, -82155.66, -187500.02, -187500.02, -187500.02, -82972.65, -187500.02, -187500.02, 0.000, 0.000, 0.000, 17:31:06.177
111, 34018.77, -81915.72, -187500.02, -187500.02, -187500.02, -82698.14, -187500.02, -187500.02, 0.000, 0.000, 0.000, 17:31:06.177
112, 33977.85, -81910.91, -187500.02, -187500.02, -187500.02, -82678.34, -187500.02, -187500.02, 0.000, 0.000, 0.000, 17:31:06.177
113, 33974.18, -82102.02, -187500.02, -187500.02, -187500.02, -82905.79, -187500.02, -187500.02, 0.000, 0.000, 0.000, 17:31:06.177
114, 34019.42, -82186.34, -187500.02, -187500.02, -187500.02, -83009.88, -187500.02, -187500.02, 0.000, 0.000, 0.000, 17:31:06.178
115, 34028.05, -82056.85, -187500.02, -187500.02, -187500.02, -82858.41, -187500.02, -187500.02, 0.000, 0.000, 0.000, 17:31:06.178
116, 34004.45, -82004.88, -187500.02, -187500.02, -187500.02, -82786.68, -187500.02, -187500.02, 0.154, 0.056, 1.004, 17:31:06.178
117, 33992.51, -82128.71, -187500.02, -187500.02, -187500.02, -82942.90, -187500.02, -187500.02, 0.000, 0.000, 0.000, 17:31:06.178
118, 34024.70, -82190.70, -187500.02, -187500.02, -187500.02, -83030.34, -187500.02, -187500.02, 0.000, 0.000, 0.000, 17:31:06.178
119, 34036.90, -82004.86, -187500.02, -187500.02, -187500.02, -82825.10, -187500.02, -187500.02, 0.000, 0.000, 0.000, 17:31:06.178
120, 34026.46, -81927.73, -187500.02, -187500.02, -187500.02, -82716.63, -187500.02, -187500.02, 0.000, 0.000, 0.000, 17:31:06.179
121, 34001.32, -82083.41, -187500.02, -187500.02, -187500.02, -82899.66, -187500.02, -187500.02, 0.000, 0.000, 0.000, 17:31:06.179
122, 34022.39, -82171.00, -187500.02, -187500.02, -187500.02, -83018.60, -187500.02, -187500.02, 0.000, 0.000, 0.000, 17:31:06.179
123, 34036.21, -82100.28, -187500.02, -187500.02, -187500.02, -82940.52, -187500.02, -187500.02, 0.000, 0.000, 0.000, 17:31:06.179
124, 34018.35, -82009.15, -187500.02, -187500.02, -187500.02, -82818.22, -187500.02, -187500.02, 0.000, 0.000, 0.000, 17:31:06.179
125, 33970.14, -82119.55, -187500.02, -187500.02, -187500.02, -82947.66, -187500.02, -187500.02, 0.000, 0.000, 0.000, 17:31:06.179
126, 33989.29, -82219.81, -187500.02, -187500.02, -187500.02, -83081.88, -187500.02, -187500.02, 0.152, 0.058, 1.004, 17:31:06.179
127, 34012.45, -82127.41, -187500.02, -187500.02, -187500.02, -82985.77, -187500.02, -187500.02, 0.000, 0.000, 0.000, 17:31:06.180
128, 34024.41, -81971.80, -187500.02, -187500.02, -187500.02, -82790.79, -187500.02, -187500.02, 0.000, 0.000, 0.000, 17:31:06.180
129, 33982.43, -82055.66, -187500.02, -187500.02, -187500.02, -82877.63, -187500.02, -187500.02, 0.000, 0.000, 0.000, 17:31:06.180
130, 33981.11, -82203.45, -187500.02, -187500.02, -187500.02, -83061.20, -187500.02, -187500.02, 0.000, 0.000, 0.000, 17:31:06.180
131, 34000.71, -82151.17, -187500.02, -187500.02, -187500.02, -83012.38, -187500.02, -187500.02, 0.000, 0.000, 0.000, 17:31:06.180
132, 34004.82, -81929.22, -187500.02, -187500.02, -187500.02, -82751.56, -187500.02, -187500.02, 0.000, 0.000, 0.000, 17:31:06.180
133, 33971.23, -82002.31, -187500.02, -187500.02, -187500.02, -82817.88, -187500.02, -187500.02, 0.000, 0.000, 0.000, 17:31:06.181
134, 33951.88, -82191.66, -187500.02, -187500.02, -187500.02, -83046.63, -187500.02, -187500.02, 0.000, 0.000, 0.000, 17:31:06.181
135, 33990.95, -82242.57, -187500.02, -187500.02, -187500.02, -83108.52, -187500.02, -187500.02, 0.148, 0.058, 1.006, 17:31:06.181
136, 34034.13, -82034.66, -187500.02, -187500.02, -187500.02, -82869.89, -187500.02, -187500.02, 0.000, 0.000, 0.000, 17:31:06.181
137, 34003.55, -82059.87, -187500.02, -187500.02, -187500.02, -82882.50, -187500.02, -187500.02, 0.000, 0.000, 0.000, 17:31:06.181
138, 33968.91, -82183.85, -187500.02, -187500.02, -187500.02, -83044.04, -187500.02, -187500.02, 0.000, 0.000, 0.000, 17:31:06.181
139, 33996.62, -82194.18, -187500.02, -187500.02, -187500.02, -83071.62, -187500.02, -187500.02, 0.000, 0.000, 0.000, 17:31:06.182
140, 34024.81, -81935.26, -187500.02, -187500.02, -187500.02, -82784.42, -187500.02, -187500.02, 0.000, 0.000, 0.000, 17:31:06.182
141, 34005.85, -81885.37, -187500.02, -187500.02, -187500.02, -82705.84, -187500.02, -187500.02, 0.000, 0.000, 0.000, 17:31:06.182
142, 33994.95, -82081.15, -187500.02, -187500.02, -187500.02, -82935.25, -187500.02, -187500.02, 0.000, 0.000, 0.000, 17:31:06.182
143, 34000.55, -82203.25, -187500.02, -187500.02, -187500.02, -83085.66, -187500.02, -187500.02, 0.000, 0.000, 0.000, 17:31:06.182
144, 34012.00, -82072.52, -187500.02, -187500.02, -187500.02, -82938.38, -187500.02, -187500.02, 0.000, 0.000, 0.000, 17:31:06.182
145, 34004.16, -81984.61, -187500.02, -187500.02, -187500.02, -82818.71, -187500.02, -187500.02, 0.144, 0.060, 1.008, 17:31:06.183
146, 33979.61, -82111.74, -187500.02, -187500.02, -187500.02, -82970.48, -187500.02, -187500.02, 0.000, 0.000, 0.000, 17:31:06.183
147, 34026.33, -82202.54, -187500.02, -187500.02, -187500.02, -83092.00, -187500.02, -187500.02, 0.000, 0.000, 0.000, 17:31:06.183
148, 34047.00, -82057.09, -187500.02, -187500.02, -187500.02, -82934.45, -187500.02, -187500.02, 0.000, 0.000, 0.000, 17:31:06.183
149, 34042.24, -81911.34, -187500.02, -187500.02, -187500.02, -82751.59, -187500.02, -187500.02, 0.000, 0.000, 0.000, 17:31:06.183
