%OpenBCI Raw EEG Data
%
%Sample Rate = 256.0 Hz
%First Column = SampleIndex
%Other Columns = EEG data in microvolts followed by dummy Data
1, 10000.00, -10000.00, -4369.06, -4051.10, 0.00, 0.00, 0.00, 0.00, 1.57, 1.64, 1.70
2, 10000.00, -10000.00, -4367.18, -4054.68, 0.00, 0.00, 0.00, 0.00, 1.57, 1.64, 1.70
3, 10000.00, -10000.00, -4369.01, -4055.56, 0.00, 0.00, 0.00, 0.00, 1.57, 1.64, 1.70
4, 10000.00, -10000.00, -4373.32, -4051.60, 0.00, 0.00, 0.00, 0.00, 1.57, 1.64, 1.70
5, 10000.00, -10000.00, -4367.05, -4058.24, 0.00, 0.00, 0.00, 0.00, 1.57, 1.64, 1.70
6, 10000.00, -10000.00, -4377.87, -4048.74, 0.00, 0.00, 0.00, 0.00, 1.57, 1.64, 1.70
7, 10000.00, -10000.00, -4398.01, -4035.07, 0.00, 0.00, 0.00, 0.00, 1.57, 1.64, 1.70
8, 10000.00, -10000.00, -4371.86, -4053.31, 0.00, 0.00, 0.00, 0.00, 1.57, 1.64, 1.70
9, 10000.00, -10000.00, -4363.15, -4065.05, 0.00, 0.00, 0.00, 0.00, 1.57, 1.64, 1.70
10, 10000.00, -10000.00, -4365.90, -4049.29, 0.00, 0.00, 0.00, 0.00, 1.57, 1.64, 1.70
11, 10000.00, -10000.00, -4363.49, -4070.80, 0.00, 0.00, 0.00, 0.00, 1.57, 1.64, 1.70
12, 10000.00, -10000.00, -4363.10, -4071.29, 0.00, 0.00, 0.00, 0.00, 1.57, 1.64, 1.70
13, 10000.00, -10000.00, -4365.90, -4071.87, 0.00, 0.00, 0.00, 0.00, 1.57, 1.64, 1.70
14, 10000.00, -10000.00, -4371.81, -4063.63, 0.00, 0.00, 0.00, 0.00, 1.57, 1.64, 1.70
15, 10000.00, -10000.00, -4372.91, -4064.63, 0.00, 0.00, 0.00, 0.00, 1.57, 1.64, 1.70
16, 10000.00, -10000.00, -4366.91, -4069.05, 0.00, 0.00, 0.00, 0.00, 1.57, 1.64, 1.70
17, 10000.00, -10000.00, -4361.66, -4069.07, 0.00, 0.00, 0.00, 0.00, 1.57, 1.64, 1.70
18, 10000.00, -10000.00, -4368.22, -4064.09, 0.00, 0.00, 0.00, 0.00, 1.57, 1.64, 1.70
19, 10000.00, -10000.00, -4368.97, -4062.55, 0.00, 0.00, 0.00, 0.00, 1.57, 1.64, 1.70
20, 10000.00, -10000.00, -4365.31, -4063.45, 0.00, 0.00, 0.00, 0.00, 1.57, 1.64, 1.70
21, 10000.00, -10000.00, -4380.39, -4053.40, 0.00, 0.00, 0.00, 0.00, 1.57, 1.64, 1.70
22, 10000.00, -10000.00, -4375.52, -4053.55, 0.00, 0.00, 0.00, 0.00, 1.57, 1.64, 1.70
23, 10000.00, -10000.00, -4368.51, -4059.74, 0.00, 0.00, 0.00, 0.00, 1.57, 1.64, 1.70
24, 10000.00, -10000.00, -4383.33, -4052.23, 0.00, 0.00, 0.00, 0.00, 1.57, 1.64, 1.70
25, 10000.00, -10000.00, -4384.68, -4049.00, 0.00, 0.00, 0.00, 0.00, 1.57, 1.64, 1.70
26, 10000.00, -10000.00, -4377.24, -4049.64, 0.00, 0.00, 0.00, 0.00, 1.57, 1.64, 1.70
27, 10000.00, -10000.00, -4376.83, -4054.39, 0.00, 0.00, 0.00, 0.00, 1.57, 1.64, 1.70
28, 10000.00, -10000.00, -4368.02, -4067.49, 0.00, 0.00, 0.00, 0.00, 1.57, 1.64, 1.70
29, 10000.00, -10000.00, -4374.48, -4059.53, 0.00, 0.00, 0.00, 0.00, 1.57, 1.64, 1.70
30, 10000.00, -10000.00, -4374.60, -4055.72, 0.00, 0.00, 0.00, 0.00, 1.57, 1.64, 1.70
31, 10000.00, -10000.00, -4376.56, -4055.81, 0.00, 0.00, 0.00, 0.00, 1.57, 1.64, 1.70
32, 10000.00, -10000.00, -4376.76, -4052.12, 0.00, 0.00, 0.00, 0.00, 1.57, 1.64, 1.70
33, 10000.00, -10000.00, -4377.14, -4046.38, 0.00, 0.00, 0.00, 0.00, 1.57, 1.64, 1.70
34, 10000.00, -10000.00, -4369.26, -4064.45, 0.00, 0.00, 0.00, 0.00, 1.57, 1.64, 1.70
35, 10000.00, -10000.00, -4363.71, -4069.70, 0.00, 0.00, 0.00, 0.00, 1.57, 1.64, 1.70
36, 10000.00, -10000.00, -4369.74, -4061.38, 0.00, 0.00, 0.00, 0.00, 1.57, 1.64, 1.70
37, 10000.00, -10000.00, -4363.67, -4069.06, 0.00, 0.00, 0.00, 0.00, 1.57, 1.64, 1.70
38, 10000.00, -10000.00, -4364.49, -4063.13, 0.00, 0.00, 0.00, 0.00, 1.57, 1.64, 1.70
39, 10000.00, -10000.00, -4369.43, -4062.31, 0.00, 0.00, 0.00, 0.00, 1.57, 1.64, 1.70
40, 10000.00, -10000.00, -4369.10, -4071.75, 0.00, 0.00, 0.00, 0.00, 1.57, 1.64, 1.70
41, 10000.00, -10000.00, -4369.01, -4070.19, 0.00, 0.00, 0.00, 0.00, 1.57, 1.64, 1.70
42, 10000.00, -10000.00, -4367.96, -4070.14, 0.00, 0.00, 0.00, 0.00, 1.57, 1.64, 1.70
43, 10000.00, -10000.00, -4364.74, -4074.77, 0.00, 0.00, 0.00, 0.00, 1.57, 1.64, 1.70
44, 10000.00, -10000.00, -4369.90, -4069.10, 0.00, 0.00, 0.00, 0.00, 1.57, 1.64, 1.70
45, 10000.00, -10000.00, -4369.45, -4068.16, 0.00, 0.00, 0.00, 0.00, 1.57, 1.64, 1.70
46, 10000.00, -10000.00, -4360.26, -4072.45, 0.00, 0.00, 0.00, 0.00, 1.57, 1.64, 1.70
47, 10000.00, -10000.00, -4366.02, -4067.37, 0.00, 0.00, 0.00, 0.00, 1.57, 1.64, 1.70
48, 10000.00, -10000.00, -4369.57, -4062.38, 0.00, 0.00, 0.00, 0.00, 1.57, 1.64, 1.70
49, 10000.00, -10000.00, -4364.36, -4067.14, 0.00, 0.00, 0.00, 0.00, 1.57, 1.64, 1.70
50, 10000.00, -10000.00, -4357.86, -4073.11, 0.00, 0.00, 0.00, 0.00, 1.57, 1.64, 1.70
51, 10000.00, -10000.00, -4362.51, -4074.17, 0.00, 0.00, 0.00, 0.00, 1.57, 1.64, 1.70
52, 10000.00, -10000.00, -4363.34, -4070.91, 0.00, 0.00, 0.00, 0.00, 1.57, 1.64, 1.70
53, 10000.00, -10000.00, -4365.66, -4063.58, 0.00, 0.00, 0.00, 0.00, 1.57, 1.64, 1.70
54, 10000.00, -10000.00, -4360.68, -4069.50, 0.00, 0.00, 0.00, 0.00, 1.57, 1.64, 1.70
55, 10000.00, -10000.00, -4373.16, -4064.86, 0.00, 0.00, 0.00, 0.00, 1.57, 1.64, 1.70
56, 10000.00, -10000.00, -4364.81, -4061.65, 0.00, 0.00, 0.00, 0.00, 1.57, 1.64, 1.70
57, 10000.00, -10000.00, -4357.76, -4076.97, 0.00, 0.00, 0.00, 0.00, 1.57, 1.64, 1.70
58, 10000.00, -10000.00, -4354.60, -4079.66, 0.00, 0.00, 0.00, 0.00, 1.57, 1.64, 1.70
59, 10000.00, -10000.00, -4351.50, -4077.96, 0.00, 0.00, 0.00, 0.00, 1.57, 1.64, 1.70
60, 10000.00, -10000.00, -4362.97, -4070.41, 0.00, 0.00, 0.00, 0.00, 1.57, 1.64, 1.70
61, 10000.00, -10000.00, -4369.19, -4059.81, 0.00, 0.00, 0.00, 0.00, 1.57, 1.64, 1.70
62, 10000.00, -10000.00, -4359.57, -4060.74, 0.00, 0.00, 0.00, 0.00, 1.57, 1.64, 1.70
63, 10000.00, -10000.00, -4368.94, -4064.83, 0.00, 0.00, 0.00, 0.00, 1.57, 1.64, 1.70
64, 10000.00, -10000.00, -4368.45, -4060.06, 0.00, 0.00, 0.00, 0.00, 1.57, 1.64, 1.70
65, 10000.00, -10000.00, -4366.09, -4068.16, 0.00, 0.00, 0.00, 0.00, 1.57, 1.64, 1.70
66, 10000.00, -10000.00, -4357.72, -4076.00, 0.00, 0.00, 0.00, 0.00, 1.57, 1.64, 1.70
67, 10000.00, -10000.00, -4363.33, -4072.28, 0.00, 0.00, 0.00, 0.00, 1.57, 1.64, 1.70
68, 10000.00, -10000.00, -4367.51, -4070.93, 0.00, 0.00, 0.00, 0.00, 1.57, 1.64, 1.70
69, 10000.00, -10000.00, -4374.58, -4063.68, 0.00, 0.00, 0.00, 0.00, 1.57, 1.64, 1.70
70, 10000.00, -10000.00, -4373.46, -4067.28, 0.00, 0.00, 0.00, 0.00, 1.57, 1.64, 1.70
71, 10000.00, -10000.00, -4374.07, -4064.56, 0.00, 0.00, 0.00, 0.00, 1.57, 1.64, 1.70
72, 10000.00, -10000.00, -4362.68, -4068.00, 0.00, 0.00, 0.00, 0.00, 1.57, 1.64, 1.70
73, 10000.00, -10000.00, -4361.71, -4077.75, 0.00, 0.00, 0.00, 0.00, 1.57, 1.64, 1.70
74, 10000.00, -10000.00, -4362.13, -4073.20, 0.00, 0.00, 0.00, 0.00, 1.57, 1.64, 1.70
75, 10000.00, -10000.00, -4364.36, -4072.66, 0.00, 0.00, 0.00, 0.00, 1.57, 1.64, 1.70
76, 10000.00, -10000.00, -4362.70, -4074.17, 0.00, 0.00, 0.00, 0.00, 1.57, 1.64, 1.70
77, 10000.00, -10000.00, -4366.31, -4072.89, 0.00, 0.00, 0.00, 0.00, 1.57, 1.64, 1.70
78, 10000.00, -10000.00, -4371.08, -4070.16, 0.00, 0.00, 0.00, 0.00, 1.57, 1.64, 1.70
79, 10000.00, -10000.00, -4366.27, -4072.90, 0.00, 0.00, 0.00, 0.00, 1.57, 1.64, 1.70
80, 10000.00, -10000.00, -4361.70, -4075.31, 0.00, 0.00, 0.00, 0.00, 1.57, 1.64, 1.70
81, 10000.00, -10000.00, -4366.66, -4074.39, 0.00, 0.00, 0.00, 0.00, 1.57, 1.64, 1.70
82, 10000.00, -10000.00, -4360.28, -4074.24, 0.00, 0.00, 0.00, 0.00, 1.57, 1.64, 1.70
83, 10000.00, -10000.00, -4360.61, -4076.43, 0.00, 0.00, 0.00, 0.00, 1.57, 1.64, 1.70
84, 10000.00, -10000.00, -4356.42, -4079.52, 0.00, 0.00, 0.00, 0.00, 1.57, 1.64, 1.70
85, 10000.00, -10000.00, -4359.71, -4078.03, 0.00, 0.00, 0.00, 0.00, 1.57, 1.64, 1.70
86, 10000.00, -10000.00, -4357.71, -4085.51, 0.00, 0.00, 0.00, 0.00, 1.57, 1.64, 1.70
87, 10000.00, -10000.00, -4357.47, -4075.94, 0.00, 0.00, 0.00, 0.00, 1.57, 1.64, 1.70
88, 10000.00, -10000.00, -4353.71, -4078.54, 0.00, 0.00, 0.00, 0.00, 1.57, 1.64, 1.70
89, 10000.00, -10000.00, -4349.19, -4077.73, 0.00, 0.00, 0.00, 0.00, 1.57, 1.64, 1.70
90, 10000.00, -10000.00, -4359.39, -4072.92, 0.00, 0.00, 0.00, 0.00, 1.57, 1.64, 1.70
91, 10000.00, -10000.00, -4377.63, -4052.77, 0.00, 0.00, 0.00, 0.00, 1.57, 1.64, 1.70
92, 10000.00, -10000.00, -4364.84, -4071.01, 0.00, 0.00, 0.00, 0.00, 1.57, 1.64, 1.70
93, 10000.00, -10000.00, -4364.99, -4076.29, 0.00, 0.00, 0.00, 0.00, 1.57, 1.64, 1.70
94, 10000.00, -10000.00, -4344.93, -4082.77, 0.00, 0.00, 0.00, 0.00, 1.57, 1.64, 1.70
95, 10000.00, -10000.00, -4350.59, -4079.61, 0.00, 0.00, 0.00, 0.00, 1.57, 1.64, 1.70
96, 10000.00, -10000.00, -4359.09, -4081.23, 0.00, 0.00, 0.00, 0.00, 1.57, 1.64, 1.70
97, 10000.00, -10000.00, -4351.51, -4082.73, 0.00, 0.00, 0.00, 0.00, 1.57, 1.64, 1.70
98, 10000.00, -10000.00, -4357.65, -4076.89, 0.00, 0.00, 0.00, 0.00, 1.57, 1.64, 1.70
99, 10000.00, -10000.00, -4364.66, -4065.09, 0.00, 0.00, 0.00, 0.00, 1.57, 1.64, 1.70
100, 10000.00, -10000.00, -4366.08, -4076.61, 0.00, 0.00, 0.00, 0.00, 1.57, 1.64, 1.70
101, 10000.00, -10000.00, -4365.31, -4076.44, 0.00, 0.00, 0.00, 0.00, 1.57, 1.64, 1.70
102, 10000.00, -10000.00, -4367.46, -4076.64, 0.00, 0.00, 0.00, 0.00, 1.57, 1.64, 1.70
103, 10000.00, -10000.00, -4367.59, -4073.11, 0.00, 0.00, 0.00, 0.00, 1.57, 1.64, 1.70
104, 10000.00, -10000.00, -4366.93, -4073.20, 0.00, 0.00, 0.00, 0.00, 1.57, 1.64, 1.70
105, 10000.00, -10000.00, -4362.77, -4074.31, 0.00, 0.00, 0.00, 0.00, 1.57, 1.64, 1.70
106, 10000.00, -10000.00, -4364.29, -4079.05, 0.00, 0.00, 0.00, 0.00, 1.57, 1.64, 1.70
107, 10000.00, -10000.00, -4357.45, -4085.17, 0.00, 0.00, 0.00, 0.00, 1.57, 1.64, 1.70
108, 10000.00, -10000.00, -4366.03, -4079.94, 0.00, 0.00, 0.00, 0.00, 1.57, 1.64, 1.70
109, 10000.00, -10000.00, -4365.33, -4075.98, 0.00, 0.00, 0.00, 0.00, 1.57, 1.64, 1.70
110, 10000.00, -10000.00, -4368.47, -4070.75, 0.00, 0.00, 0.00, 0.00, 1.57, 1.64, 1.70
111, 10000.00, -10000.00, -4367.46, -4071.00, 0.00, 0.00, 0.00, 0.00, 1.57, 1.64, 1.70
112, 10000.00, -10000.00, -4371.34, -4073.38, 0.00, 0.00, 0.00, 0.00, 1.57, 1.64, 1.70
113, 10000.00, -10000.00, -4371.86, -4071.03, 0.00, 0.00, 0.00, 0.00, 1.57, 1.64, 1.70
114, 10000.00, -10000.00, -4368.61, -4072.76, 0.00, 0.00, 0.00, 0.00, 1.57, 1.64, 1.70
115, 10000.00, -10000.00, -4368.60, -4070.33, 0.00, 0.00, 0.00, 0.00, 1.57, 1.64, 1.70
116, 10000.00, -10000.00, -4367.73, -4071.28, 0.00, 0.00, 0.00, 0.00, 1.57, 1.64, 1.70
117, 10000.00, -10000.00, -4381.15, -4050.08, 0.00, 0.00, 0.00, 0.00, 1.57, 1.64, 1.70
118, 10000.00, -10000.00, -4368.42, -4058.38, 0.00, 0.00, 0.00, 0.00, 1.57, 1.64, 1.70
119, 10000.00, -10000.00, -4356.10, -4089.72, 0.00, 0.00, 0.00, 0.00, 1.57, 1.64, 1.70
120, 10000.00, -10000.00, -4361.98, -4075.67, 0.00, 0.00, 0.00, 0.00, 1.57, 1.64, 1.70
121, 10000.00, -10000.00, -4357.48, -4069.95, 0.00, 0.00, 0.00, 0.00, 1.57, 1.64, 1.70
122, 10000.00, -10000.00, -4357.44, -4076.85, 0.00, 0.00, 0.00, 0.00, 1.57, 1.64, 1.70
123, 10000.00, -10000.00, -4357.77, -4088.38, 0.00, 0.00, 0.00, 0.00, 1.57, 1.64, 1.70
124, 10000.00, -10000.00, -4367.02, -4081.43, 0.00, 0.00, 0.00, 0.00, 1.57, 1.64, 1.70
125, 10000.00, -10000.00, -4374.78, -4072.96, 0.00, 0.00, 0.00, 0.00, 1.57, 1.64, 1.70
126, 10000.00, -10000.00, -4362.00, -4080.21, 0.00, 0.00, 0.00, 0.00, 1.57, 1.64, 1.70
127, 10000.00, -10000.00, -4351.45, -4086.29, 0.00, 0.00, 0.00, 0.00, 1.57, 1.64, 1.70
128, 10000.00, -10000.00, -4352.77, -4083.24, 0.00, 0.00, 0.00, 0.00, 1.57, 1.64, 1.70
129, 10000.00, -10000.00, -4360.15, -4077.76, 0.00, 0.00, 0.00, 0.00, 1.57, 1.64, 1.70
130, 10000.00, -10000.00, -4360.02, -4077.15, 0.00, 0.00, 0.00, 0.00, 1.57, 1.64, 1.70
131, 10000.00, -10000.00, -4364.89, -4074.81, 0.00, 0.00, 0.00, 0.00, 1.57, 1.64, 1.70
132, 10000.00, -10000.00, -4371.87, -4072.18, 0.00, 0.00, 0.00, 0.00, 1.57, 1.64, 1.70
133, 10000.00, -10000.00, -4375.24, -4063.81, 0.00, 0.00, 0.00, 0.00, 1.57, 1.64, 1.70
134, 10000.00, -10000.00, -4382.12, -4061.16, 0.00, 0.00, 0.00, 0.00, 1.57, 1.64, 1.70
135, 10000.00, -10000.00, -4377.36, -4061.93, 0.00, 0.00, 0.00, 0.00, 1.57, 1.64, 1.70
136, 10000.00, -10000.00, -4370.57, -4066.86, 0.00, 0.00, 0.00, 0.00, 1.57, 1.64, 1.70
137, 10000.00, -10000.00, -4366.62, -4067.84, 0.00, 0.00, 0.00, 0.00, 1.57, 1.64, 1.70
138, 10000.00, -10000.00, -4364.98, -4068.73, 0.00, 0.00, 0.00, 0.00, 1.57, 1.64, 1.70
139, 10000.00, -10000.00, -4369.11, -4065.69, 0.00, 0.00, 0.00, 0.00, 1.57, 1.64, 1.70
140, 10000.00, -10000.00, -4366.07, -4067.45, 0.00, 0.00, 0.00, 0.00, 1.57, 1.64, 1.70
141, 10000.00, -10000.00, -4362.02, -4067.62, 0.00, 0.00, 0.00, 0.00, 1.57, 1.64, 1.70
142, 10000.00, -10000.00, -4366.57, -4067.47, 0.00, 0.00, 0.00, 0.00, 1.57, 1.64, 1.70
143, 10000.00, -10000.00, -4356.95, -4074.42, 0.00, 0.00, 0.00, 0.00, 1.57, 1.64, 1.70
144, 10000.00, -10000.00, -4351.14, -4080.25, 0.00, 0.00, 0.00, 0.00, 1.57, 1.64, 1.70
145, 10000.00, -10000.00, -4355.75, -4073.71, 0.00, 0.00, 0.00, 0.00, 1.57, 1.64, 1.70
146, 10000.00, -10000.00, -4356.33, -4077.54, 0.00, 0.00, 0.00, 0.00, 1.57, 1.64, 1.70
147, 10000.00, -10000.00, -4360.98, -4084.47, 0.00, 0.00, 0.00, 0.00, 1.57, 1.64, 1.70
148, 10000.00, -10000.00, -4359.07, -4078.06, 0.00, 0.00, 0.00, 0.00, 1.57, 1.64, 1.70
149, 10000.00, -10000.00, -4367.77, -4070.85, 0.00, 0.00, 0.00, 0.00, 1.57, 1.64, 1.70
150, 10000.00, -10000.00, -4363.22, -4074.00, 0.00, 0.00, 0.00, 0.00, 1.57, 1.64, 1.70
151, 10000.00, -10000.00, -4364.79, -4080.87, 0.00, 0.00, 0.00, 0.00, 1.57, 1.64, 1.70
152, 10000.00, -10000.00, -4363.34, -4078.34, 0.00, 0.00, 0.00, 0.00, 1.57, 1.64, 1.70
153, 10000.00, -10000.00, -4363.21, -4076.27, 0.00, 0.00, 0.00, 0.00, 1.57, 1.64, 1.70
154, 10000.00, -10000.00, -4359.98, -4081.39, 0.00, 0.00, 0.00, 0.00, 1.57, 1.64, 1.70
155, 10000.00, -10000.00, -4360.57, -4074.92, 0.00, 0.00, 0.00, 0.00, 1.57, 1.64, 1.70
156, 10000.00, -10000.00, -4370.58, -4071.94, 0.00, 0.00, 0.00, 0.00, 1.57, 1.64, 1.70
157, 10000.00, -10000.00, -4369.65, -4076.69, 0.00, 0.00, 0.00, 0.00, 1.57, 1.64, 1.70
158, 10000.00, -10000.00, -4375.91, -4073.24, 0.00, 0.00, 0.00, 0.00, 1.57, 1.64, 1.70
159, 10000.00, -10000.00, -4373.57, -4072.28, 0.00, 0.00, 0.00, 0.00, 1.57, 1.64, 1.70
160, 10000.00, -10000.00, -4370.31, -4074.42, 0.00, 0.00, 0.00, 0.00, 1.57, 1.64, 1.70
161, 10000.00, -10000.00, -4368.90, -4072.72, 0.00, 0.00, 0.00, 0.00, 1.57, 1.64, 1.70
162, 10000.00, -10000.00, -4368.44, -4072.96, 0.00, 0.00, 0.00, 0.00, 1.57, 1.64, 1.70
163, 10000.00, -10000.00, -4357.74, -4080.13, 0.00, 0.00, 0.00, 0.00, 1.57, 1.64, 1.70
164, 10000.00, -10000.00, -4360.15, -4082.23, 0.00, 0.00, 0.00, 0.00, 1.57, 1.64, 1.70
165, 10000.00, -10000.00, -4362.65, -4078.39, 0.00, 0.00, 0.00, 0.00, 1.57, 1.64, 1.70
166, 10000.00, -10000.00, -4367.37, -4067.44, 0.00, 0.00, 0.00, 0.00, 1.57, 1.64, 1.70
167, 10000.00, -10000.00, -4370.74, -4075.01, 0.00, 0.00, 0.00, 0.00, 1.57, 1.64, 1.70
168, 10000.00, -10000.00, -4366.18, -4077.53, 0.00, 0.00, 0.00, 0.00, 1.57, 1.64, 1.70
169, 10000.00, -10000.00, -4372.50, -4069.81, 0.00, 0.00, 0.00, 0.00, 1.57, 1.64, 1.70
170, 10000.00, -10000.00, -4357.78, -4082.19, 0.00, 0.00, 0.00, 0.00, 1.57, 1.64, 1.70
171, 10000.00, -10000.00, -4381.34, -4061.72, 0.00, 0.00, 0.00, 0.00, 1.57, 1.64, 1.70
172, 10000.00, -10000.00, -4383.45, -4056.97, 0.00, 0.00, 0.00, 0.00, 1.57, 1.64, 1.70
173, 10000.00, -10000.00, -4380.18, -4058.47, 0.00, 0.00, 0.00, 0.00, 1.57, 1.64, 1.70
174, 10000.00, -10000.00, -4375.63, -4061.24, 0.00, 0.00, 0.00, 0.00, 1.57, 1.64, 1.70
175, 10000.00, -10000.00, -4375.42, -4054.17, 0.00, 0.00, 0.00, 0.00, 1.57, 1.64, 1.70
176, 10000.00, -10000.00, -4376.37, -4051.43, 0.00, 0.00, 0.00, 0.00, 1.57, 1.64, 1.70
177, 10000.00, -10000.00, -4374.77, -4072.68, 0.00, 0.00, 0.00, 0.00, 1.57, 1.64, 1.70
178, 10000.00, -10000.00, -4372.10, -4079.23, 0.00, 0.00, 0.00, 0.00, 1.57, 1.64, 1.70
179, 10000.00, -10000.00, -4375.93, -4073.67, 0.00, 0.00, 0.00, 0.00, 1.57, 1.64, 1.70
180, 10000.00, -10000.00, -4371.37, -4075.64, 0.00, 0.00, 0.00, 0.00, 1.57, 1.64, 1.70
181, 10000.00, -10000.00, -4364.93, -4079.87, 0.00, 0.00, 0.00, 0.00, 1.57, 1.64, 1.70
182, 10000.00, -10000.00, -4370.49, -4071.93, 0.00, 0.00, 0.00, 0.00, 1.57, 1.64, 1.70
183, 10000.00, -10000.00, -4366.66, -4074.68, 0.00, 0.00, 0.00, 0.00, 1.57, 1.64, 1.70
184, 10000.00, -10000.00, -4359.33, -4088.80, 0.00, 0.00, 0.00, 0.00, 1.57, 1.64, 1.70
185, 10000.00, -10000.00, -4367.82, -4081.33, 0.00, 0.00, 0.00, 0.00, 1.57, 1.64, 1.70
186, 10000.00, -10000.00, -4360.11, -4085.04, 0.00, 0.00, 0.00, 0.00, 1.57, 1.64, 1.70
187, 10000.00, -10000.00, -4354.42, -4083.76, 0.00, 0.00, 0.00, 0.00, 1.57, 1.64, 1.70
188, 10000.00, -10000.00, -4358.57, -4093.45, 0.00, 0.00, 0.00, 0.00, 1.57, 1.64, 1.70
189, 10000.00, -10000.00, -4359.41, -4083.90, 0.00, 0.00, 0.00, 0.00, 1.57, 1.64, 1.70
190, 10000.00, -10000.00, -4362.07, -4084.57, 0.00, 0.00, 0.00, 0.00, 1.57, 1.64, 1.70
191, 10000.00, -10000.00, -4358.82, -4085.76, 0.00, 0.00, 0.00, 0.00, 1.57, 1.64, 1.70
192, 10000.00, -10000.00, -4357.92, -4091.76, 0.00, 0.00, 0.00, 0.00, 1.57, 1.64, 1.70
193, 10000.00, -10000.00, -4366.98, -4085.10, 0.00, 0.00, 0.00, 0.00, 1.57, 1.64, 1.70
194, 10000.00, -10000.00, -4365.07, -4085.58, 0.00, 0.00, 0.00, 0.00, 1.57, 1.64, 1.70
195, 10000.00, -10000.00, -4355.66, -4091.05, 0.00, 0.00, 0.00, 0.00, 1.57, 1.64, 1.70
196, 10000.00, -10000.00, -4360.00, -4085.02, 0.00, 0.00, 0.00, 0.00, 1.57, 1.64, 1.70
197, 10000.00, -10000.00, -4358.63, -4089.52, 0.00, 0.00, 0.00, 0.00, 1.57, 1.64, 1.70
198, 10000.00, -10000.00, -4359.49, -4086.89, 0.00, 0.00, 0.00, 0.00, 1.57, 1.64, 1.70
199, 10000.00, -10000.00, -4364.42, -4083.66, 0.00, 0.00, 0.00, 0.00, 1.57, 1.64, 1.70
200, 10000.00, -10000.00, -4365.41, -4082.39, 0.00, 0.00, 0.00, 0.00, 1.57, 1.64, 1.70
201, 10000.00, -10000.00, -4361.09, -4081.11, 0.00, 0.00, 0.00, 0.00, 1.57, 1.64, 1.70
202, 10000.00, -10000.00, -4360.37, -4073.55, 0.00, 0.00, 0.00, 0.00, 1.57, 1.64, 1.70
203, 10000.00, -10000.00, -4360.25, -4093.55, 0.00, 0.00, 0.00, 0.00, 1.57, 1.64, 1.70
204, 10000.00, -10000.00, -4366.69, -4084.90, 0.00, 0.00, 0.00, 0.00, 1.57, 1.64, 1.70
205, 10000.00, -10000.00, -4368.29, -4080.54, 0.00, 0.00, 0.00, 0.00, 1.57, 1.64, 1.70
206, 10000.00, -10000.00, -4370.84, -4084.80, 0.00, 0.00, 0.00, 0.00, 1.57, 1.64, 1.70
207, 10000.00, -10000.00, -4363.07, -4090.60, 0.00, 0.00, 0.00, 0.00, 1.57, 1.64, 1.70
208, 10000.00, -10000.00, -4362.96, -4082.87, 0.00, 0.00, 0.00, 0.00, 1.57, 1.64, 1.70
209, 10000.00, -10000.00, -4341.01, -4097.12, 0.00, 0.00, 0.00, 0.00, 1.57, 1.64, 1.70
210, 10000.00, -10000.00, -4345.51, -4097.62, 0.00, 0.00, 0.00, 0.00, 1.57, 1.64, 1.70
211, 10000.00, -10000.00, -4382.15, -4066.63, 0.00, 0.00, 0.00, 0.00, 1.57, 1.64, 1.70
212, 10000.00, -10000.00, -4365.73, -4077.08, 0.00, 0.00, 0.00, 0.00, 1.57, 1.64, 1.70
213, 10000.00, -10000.00, -4343.48, -4104.96, 0.00, 0.00, 0.00, 0.00, 1.57, 1.64, 1.70
214, 10000.00, -10000.00, -4341.02, -4101.18, 0.00, 0.00, 0.00, 0.00, 1.57, 1.64, 1.70
215, 10000.00, -10000.00, -4376.13, -4075.80, 0.00, 0.00, 0.00, 0.00, 1.57, 1.64, 1.70
216, 10000.00, -10000.00, -4363.94, -4086.29, 0.00, 0.00, 0.00, 0.00, 1.57, 1.64, 1.70
217, 10000.00, -10000.00, -4343.54, -4095.79, 0.00, 0.00, 0.00, 0.00, 1.57, 1.64, 1.70
218, 10000.00, -10000.00, -4347.52, -4096.09, 0.00, 0.00, 0.00, 0.00, 1.57, 1.64, 1.70
219, 10000.00, -10000.00, -4343.96, -4099.04, 0.00, 0.00, 0.00, 0.00, 1.57, 1.64, 1.70
220, 10000.00, -10000.00, -4322.54, -4124.71, 0.00, 0.00, 0.00, 0.00, 1.57, 1.64, 1.70
221, 10000.00, -10000.00, -4356.65, -4093.09, 0.00, 0.00, 0.00, 0.00, 1.57, 1.64, 1.70
222, 10000.00, -10000.00, -4351.76, -4091.17, 0.00, 0.00, 0.00, 0.00, 1.57, 1.64, 1.70
223, 10000.00, -10000.00, -4357.06, -4087.47, 0.00, 0.00, 0.00, 0.00, 1.57, 1.64, 1.70
224, 10000.00, -10000.00, -4352.13, -4096.64, 0.00, 0.00, 0.00, 0.00, 1.57, 1.64, 1.70
225, 10000.00, -10000.00, -4359.65, -4074.44, 0.00, 0.00, 0.00, 0.00, 1.57, 1.64, 1.70
226, 10000.00, -10000.00, -4338.34, -4102.99, 0.00, 0.00, 0.00, 0.00, 1.57, 1.64, 1.70
227, 10000.00, -10000.00, -4364.00, -4083.03, 0.00, 0.00, 0.00, 0.00, 1.57, 1.64, 1.70
228, 10000.00, -10000.00, -4354.80, -4093.48, 0.00, 0.00, 0.00, 0.00, 1.57, 1.64, 1.70
229, 10000.00, -10000.00, -4360.94, -4081.01, 0.00, 0.00, 0.00, 0.00, 1.57, 1.64, 1.70
230, 10000.00, -10000.00, -4350.28, -4094.05, 0.00, 0.00, 0.00, 0.00, 1.57, 1.64, 1.70
231, 10000.00, -10000.00, -4338.14, -4109.51, 0.00, 0.00, 0.00, 0.00, 1.57, 1.64, 1.70
232, 10000.00, -10000.00, -4355.31, -4091.05, 0.00, 0.00, 0.00, 0.00, 1.57, 1.64, 1.70
233, 10000.00, -10000.00, -4351.31, -4094.70, 0.00, 0.00, 0.00, 0.00, 1.57, 1.64, 1.70
234, 10000.00, -10000.00, -4344.95, -4095.57, 0.00, 0.00, 0.00, 0.00, 1.57, 1.64, 1.70
235, 10000.00, -10000.00, -4354.97, -4088.10, 0.00, 0.00, 0.00, 0.00, 1.57, 1.64, 1.70
236, 10000.00, -10000.00, -4353.45, -4088.15, 0.00, 0.00, 0.00, 0.00, 1.57, 1.64, 1.70
237, 10000.00, -10000.00, -4358.48, -4087.94, 0.00, 0.00, 0.00, 0.00, 1.57, 1.64, 1.70
238, 10000.00, -10000.00, -4348.46, -4094.18, 0.00, 0.00, 0.00, 0.00, 1.57, 1.64, 1.70
239, 10000.00, -10000.00, -4350.34, -4085.65, 0.00, 0.00, 0.00, 0.00, 1.57, 1.64, 1.70
240, 10000.00, -10000.00, -4360.35, -4082.10, 0.00, 0.00, 0.00, 0.00, 1.57, 1.64, 1.70
241, 10000.00, -10000.00, -4359.05, -4079.15, 0.00, 0.00, 0.00, 0.00, 1.57, 1.64, 1.70
242, 10000.00, -10000.00, -4355.07, -4078.67, 0.00, 0.00, 0.00, 0.00, 1.57, 1.64, 1.70
243, 10000.00, -10000.00, -4340.31, -4093.32, 0.00, 0.00, 0.00, 0.00, 1.57, 1.64, 1.70
244, 10000.00, -10000.00, -4353.73, -4080.81, 0.00, 0.00, 0.00, 0.00, 1.57, 1.64, 1.70
245, 10000.00, -10000.00, -4356.32, -4081.01, 0.00, 0.00, 0.00, 0.00, 1.57, 1.64, 1.70
246, 10000.00, -10000.00, -4350.45, -4086.53, 0.00, 0.00, 0.00, 0.00, 1.57, 1.64, 1.70
247, 10000.00, -10000.00, -4362.05, -4071.67, 0.00, 0.00, 0.00, 0.00, 1.57, 1.64, 1.70
248, 10000.00, -10000.00, -4340.52, -4096.74, 0.00, 0.00, 0.00, 0.00, 1.57, 1.64, 1.70
249, 10000.00, -10000.00, -4357.42, -4075.73, 0.00, 0.00, 0.00, 0.00, 1.57, 1.64, 1.70
250, 10000.00, -10000.00, -4336.50, -4096.61, 0.00, 0.00, 0.00, 0.00, 1.57, 1.64, 1.70
251, 10000.00, -10000.00, -4355.97, -4081.49, 0.00, 0.00, 0.00, 0.00, 1.57, 1.64, 1.70
252, 10000.00, -10000.00, -4350.95, -4088.91, 0.00, 0.00, 0.00, 0.00, 1.57, 1.64, 1.70
253, 10000.00, -10000.00, -4357.06, -4081.30, 0.00, 0.00, 0.00, 0.00, 1.57, 1.64, 1.70
254, 10000.00, -10000.00, -4344.60, -4102.83, 0.00, 0.00, 0.00, 0.00, 1.57, 1.64, 1.70
255, 10000.00, -10000.00, -4333.67, -4110.85, 0.00, 0.00, 0.00, 0.00, 1.57, 1.64, 1.70
0, 10000.00, -10000.00, -4349.07, -4099.81, 0.00, 0.00, 0.00, 0.00, 1.57, 1.64, 1.70
1, 10000.00, -10000.00, -4347.63, -4085.86, 0.00, 0.00, 0.00, 0.00, 1.57, 1.64, 1.70
2, 10000.00, -10000.00, -4348.29, -4101.05, 0.00, 0.00, 0.00, 0.00, 1.57, 1.64, 1.70
3, 10000.00, -10000.00, -4325.33, -4112.93, 0.00, 0.00, 0.00, 0.00, 1.57, 1.64, 1.70
4, 10000.00, -10000.00, -4344.81, -4104.16, 0.00, 0.00, 0.00, 0.00, 1.57, 1.64, 1.70
5, 10000.00, -10000.00, -4350.67, -4101.29, 0.00, 0.00, 0.00, 0.00, 1.57, 1.64, 1.70
6, 10000.00, -10000.00, -4349.86, -4101.27, 0.00, 0.00, 0.00, 0.00, 1.57, 1.64, 1.70
7, 10000.00, -10000.00, -4335.33, -4112.15, 0.00, 0.00, 0.00, 0.00, 1.57, 1.64, 1.70
8, 10000.00, -10000.00, -4339.97, -4106.42, 0.00, 0.00, 0.00, 0.00, 1.57, 1.64, 1.70
9, 10000.00, -10000.00, -4318.26, -4125.51, 0.00, 0.00, 0.00, 0.00, 1.57, 1.64, 1.70
10, 10000.00, -10000.00, -4351.79, -4094.89, 0.00, 0.00, 0.00, 0.00, 1.57, 1.64, 1.70
11, 10000.00, -10000.00, -4349.01, -4096.92, 0.00, 0.00, 0.00, 0.00, 1.57, 1.64, 1.70
12, 10000.00, -10000.00, -4341.06, -4104.10, 0.00, 0.00, 0.00, 0.00, 1.57, 1.64, 1.70
13, 10000.00, -10000.00, -4329.91, -4115.14, 0.00, 0.00, 0.00, 0.00, 1.57, 1.64, 1.70
14, 10000.00, -10000.00, -4332.87, -4112.30, 0.00, 0.00, 0.00, 0.00, 1.57, 1.64, 1.70
15, 10000.00, -10000.00, -4333.02, -4117.44, 0.00, 0.00, 0.00, 0.00, 1.57, 1.64, 1.70
16, 10000.00, -10000.00, -4353.29, -4099.85, 0.00, 0.00, 0.00, 0.00, 1.57, 1.64, 1.70
17, 10000.00, -10000.00, -4343.63, -4100.36, 0.00, 0.00, 0.00, 0.00, 1.57, 1.64, 1.70
18, 10000.00, -10000.00, -4329.33, -4113.78, 0.00, 0.00, 0.00, 0.00, 1.57, 1.64, 1.70
19, 10000.00, -10000.00, -4348.61, -4098.52, 0.00, 0.00, 0.00, 0.00, 1.57, 1.64, 1.70
20, 10000.00, -10000.00, -4331.04, -4110.15, 0.00, 0.00, 0.00, 0.00, 1.57, 1.64, 1.70
21, 10000.00, -10000.00, -4338.85, -4104.58, 0.00, 0.00, 0.00, 0.00, 1.57, 1.64, 1.70
22, 10000.00, -10000.00, -4340.54, -4091.99, 0.00, 0.00, 0.00, 0.00, 1.57, 1.64, 1.70
23, 10000.00, -10000.00, -4342.95, -4103.66, 0.00, 0.00, 0.00, 0.00, 1.57, 1.64, 1.70
24, 10000.00, -10000.00, -4336.96, -4103.77, 0.00, 0.00, 0.00, 0.00, 1.57, 1.64, 1.70
25, 10000.00, -10000.00, -4325.24, -4119.28, 0.00, 0.00, 0.00, 0.00, 1.57, 1.64, 1.70
26, 10000.00, -10000.00, -4347.12, -4102.67, 0.00, 0.00, 0.00, 0.00, 1.57, 1.64, 1.70
27, 10000.00, -10000.00, -4341.33, -4106.22, 0.00, 0.00, 0.00, 0.00, 1.57, 1.64, 1.70
28, 10000.00, -10000.00, -4337.62, -4108.92, 0.00, 0.00, 0.00, 0.00, 1.57, 1.64, 1.70
29, 10000.00, -10000.00, -4336.44, -4111.59, 0.00, 0.00, 0.00, 0.00, 1.57, 1.64, 1.70
30, 10000.00, -10000.00, -4324.89, -4122.96, 0.00, 0.00, 0.00, 0.00, 1.57, 1.64, 1.70
31, 10000.00, -10000.00, -4358.77, -4087.48, 0.00, 0.00, 0.00, 0.00, 1.57, 1.64, 1.70
32, 10000.00, -10000.00, -4323.92, -4112.90, 0.00, 0.00, 0.00, 0.00, 1.57, 1.64, 1.70
33, 10000.00, -10000.00, -4322.94, -4120.49, 0.00, 0.00, 0.00, 0.00, 1.57, 1.64, 1.70
34, 10000.00, -10000.00, -4329.82, -4119.94, 0.00, 0.00, 0.00, 0.00, 1.57, 1.64, 1.70
35, 10000.00, -10000.00, -4323.39, -4121.49, 0.00, 0.00, 0.00, 0.00, 1.57, 1.64, 1.70
36, 10000.00, -10000.00, -4336.34, -4112.98, 0.00, 0.00, 0.00, 0.00, 1.57, 1.64, 1.70
37, 10000.00, -10000.00, -4332.20, -4112.77, 0.00, 0.00, 0.00, 0.00, 1.57, 1.64, 1.70
38, 10000.00, -10000.00, -4334.91, -4112.71, 0.00, 0.00, 0.00, 0.00, 1.57, 1.64, 1.70
39, 10000.00, -10000.00, -4324.50, -4115.82, 0.00, 0.00, 0.00, 0.00, 1.57, 1.64, 1.70
40, 10000.00, -10000.00, -4330.48, -4111.55, 0.00, 0.00, 0.00, 0.00, 1.57, 1.64, 1.70
41, 10000.00, -10000.00, -4326.11, -4111.85, 0.00, 0.00, 0.00, 0.00, 1.57, 1.64, 1.70
42, 10000.00, -10000.00, -4329.06, -4109.99, 0.00, 0.00, 0.00, 0.00, 1.57, 1.64, 1.70
43, 10000.00, -10000.00, -4343.35, -4096.08, 0.00, 0.00, 0.00, 0.00, 1.57, 1.64, 1.70
44, 10000.00, -10000.00, -4347.96, -4093.46, 0.00, 0.00, 0.00, 0.00, 1.57, 1.64, 1.70
45, 10000.00, -10000.00, -4340.40, -4102.57, 0.00, 0.00, 0.00, 0.00, 1.57, 1.64, 1.70
46, 10000.00, -10000.00, -4330.20, -4111.24, 0.00, 0.00, 0.00, 0.00, 1.57, 1.64, 1.70
47, 10000.00, -10000.00, -4334.54, -4105.77, 0.00, 0.00, 0.00, 0.00, 1.57, 1.64, 1.70
48, 10000.00, -10000.00, -4336.22, -4107.14, 0.00, 0.00, 0.00, 0.00, 1.57, 1.64, 1.70
49, 10000.00, -10000.00, -4322.49, -4121.48, 0.00, 0.00, 0.00, 0.00, 1.57, 1.64, 1.70
50, 10000.00, -10000.00, -4331.43, -4109.15, 0.00, 0.00, 0.00, 0.00, 1.57, 1.64, 1.70
51, 10000.00, -10000.00, -4336.60, -4106.70, 0.00, 0.00, 0.00, 0.00, 1.57, 1.64, 1.70
52, 10000.00, -10000.00, -4343.04, -4100.94, 0.00, 0.00, 0.00, 0.00, 1.57, 1.64, 1.70
53, 10000.00, -10000.00, -4330.41, -4109.79, 0.00, 0.00, 0.00, 0.00, 1.57, 1.64, 1.70
54, 10000.00, -10000.00, -4340.25, -4098.96, 0.00, 0.00, 0.00, 0.00, 1.57, 1.64, 1.70
55, 10000.00, -10000.00, -4339.43, -4095.62, 0.00, 0.00, 0.00, 0.00, 1.57, 1.64, 1.70
56, 10000.00, -10000.00, -4345.33, -4100.39, 0.00, 0.00, 0.00, 0.00, 1.57, 1.64, 1.70
57, 10000.00, -10000.00, -4327.18, -4110.20, 0.00, 0.00, 0.00, 0.00, 1.57, 1.64, 1.70
58, 10000.00, -10000.00, -4313.43, -4130.03, 0.00, 0.00, 0.00, 0.00, 1.57, 1.64, 1.70
59, 10000.00, -10000.00, -4343.61, -4095.14, 0.00, 0.00, 0.00, 0.00, 1.57, 1.64, 1.70
60, 10000.00, -10000.00, -4342.09, -4105.69, 0.00, 0.00, 0.00, 0.00, 1.57, 1.64, 1.70
61, 10000.00, -10000.00, -4345.85, -4103.82, 0.00, 0.00, 0.00, 0.00, 1.57, 1.64, 1.70
62, 10000.00, -10000.00, -4330.07, -4107.39, 0.00, 0.00, 0.00, 0.00, 1.57, 1.64, 1.70
63, 10000.00, -10000.00, -4321.90, -4117.06, 0.00, 0.00, 0.00, 0.00, 1.57, 1.64, 1.70
64, 10000.00, -10000.00, -4336.47, -4103.97, 0.00, 0.00, 0.00, 0.00, 1.57, 1.64, 1.70
65, 10000.00, -10000.00, -4344.99, -4093.26, 0.00, 0.00, 0.00, 0.00, 1.57, 1.64, 1.70
66, 10000.00, -10000.00, -4330.31, -4104.90, 0.00, 0.00, 0.00, 0.00, 1.57, 1.64, 1.70
67, 10000.00, -10000.00, -4328.91, -4113.05, 0.00, 0.00, 0.00, 0.00, 1.57, 1.64, 1.70
68, 10000.00, -10000.00, -4343.51, -4104.28, 0.00, 0.00, 0.00, 0.00, 1.57, 1.64, 1.70
69, 10000.00, -10000.00, -4330.20, -4118.49, 0.00, 0.00, 0.00, 0.00, 1.57, 1.64, 1.70
70, 10000.00, -10000.00, -4337.71, -4101.37, 0.00, 0.00, 0.00, 0.00, 1.57, 1.64, 1.70
71, 10000.00, -10000.00, -4327.50, -4109.81, 0.00, 0.00, 0.00, 0.00, 1.57, 1.64, 1.70
72, 10000.00, -10000.00, -4331.50, -4100.35, 0.00, 0.00, 0.00, 0.00, 1.57, 1.64, 1.70
73, 10000.00, -10000.00, -4335.55, -4101.36, 0.00, 0.00, 0.00, 0.00, 1.57, 1.64, 1.70
74, 10000.00, -10000.00, -4325.63, -4110.79, 0.00, 0.00, 0.00, 0.00, 1.57, 1.64, 1.70
75, 10000.00, -10000.00, -4335.36, -4097.43, 0.00, 0.00, 0.00, 0.00, 1.57, 1.64, 1.70
76, 10000.00, -10000.00, -4322.00, -4114.74, 0.00, 0.00, 0.00, 0.00, 1.57, 1.64, 1.70
77, 10000.00, -10000.00, -4330.22, -4112.58, 0.00, 0.00, 0.00, 0.00, 1.57, 1.64, 1.70
78, 10000.00, -10000.00, -4334.50, -4109.18, 0.00, 0.00, 0.00, 0.00, 1.57, 1.64, 1.70
79, 10000.00, -10000.00, -4326.11, -4115.77, 0.00, 0.00, 0.00, 0.00, 1.57, 1.64, 1.70
80, 10000.00, -10000.00, -4329.48, -4111.79, 0.00, 0.00, 0.00, 0.00, 1.57, 1.64, 1.70
81, 10000.00, -10000.00, -4329.10, -4113.49, 0.00, 0.00, 0.00, 0.00, 1.57, 1.64, 1.70
82, 10000.00, -10000.00, -4323.75, -4121.27, 0.00, 0.00, 0.00, 0.00, 1.57, 1.64, 1.70
83, 10000.00, -10000.00, -4332.67, -4110.81, 0.00, 0.00, 0.00, 0.00, 1.57, 1.64, 1.70
84, 10000.00, -10000.00, -4332.04, -4111.71, 0.00, 0.00, 0.00, 0.00, 1.57, 1.64, 1.70
85, 10000.00, -10000.00, -4335.02, -4105.20, 0.00, 0.00, 0.00, 0.00, 1.57, 1.64, 1.70
86, 10000.00, -10000.00, -4327.19, -4111.81, 0.00, 0.00, 0.00, 0.00, 1.57, 1.64, 1.70
87, 10000.00, -10000.00, -4322.80, -4115.39, 0.00, 0.00, 0.00, 0.00, 1.57, 1.64, 1.70
88, 10000.00, -10000.00, -4317.88, -4126.63, 0.00, 0.00, 0.00, 0.00, 1.57, 1.64, 1.70
89, 10000.00, -10000.00, -4316.12, -4127.14, 0.00, 0.00, 0.00, 0.00, 1.57, 1.64, 1.70
90, 10000.00, -10000.00, -4345.15, -4100.17, 0.00, 0.00, 0.00, 0.00, 1.57, 1.64, 1.70
91, 10000.00, -10000.00, -4327.15, -4113.38, 0.00, 0.00, 0.00, 0.00, 1.57, 1.64, 1.70
92, 10000.00, -10000.00, -4332.09, -4106.12, 0.00, 0.00, 0.00, 0.00, 1.57, 1.64, 1.70
93, 10000.00, -10000.00, -4326.37, -4115.05, 0.00, 0.00, 0.00, 0.00, 1.57, 1.64, 1.70
94, 10000.00, -10000.00, -4298.42, -4142.15, 0.00, 0.00, 0.00, 0.00, 1.57, 1.64, 1.70
95, 10000.00, -10000.00, -4327.76, -4113.85, 0.00, 0.00, 0.00, 0.00, 1.57, 1.64, 1.70
96, 10000.00, -10000.00, -4319.61, -4122.32, 0.00, 0.00, 0.00, 0.00, 1.57, 1.64, 1.70
97, 10000.00, -10000.00, -4323.97, -4123.89, 0.00, 0.00, 0.00, 0.00, 1.57, 1.64, 1.70
98, 10000.00, -10000.00, -4316.09, -4129.01, 0.00, 0.00, 0.00, 0.00, 1.57, 1.64, 1.70
99, 10000.00, -10000.00, -4316.84, -4129.02, 0.00, 0.00, 0.00, 0.00, 1.57, 1.64, 1.70
100, 10000.00, -10000.00, -4328.22, -4117.13, 0.00, 0.00, 0.00, 0.00, 1.57, 1.64, 1.70
101, 10000.00, -10000.00, -4326.77, -4125.44, 0.00, 0.00, 0.00, 0.00, 1.57, 1.64, 1.70
102, 10000.00, -10000.00, -4332.29, -4116.03, 0.00, 0.00, 0.00, 0.00, 1.57, 1.64, 1.70
103, 10000.00, -10000.00, -4312.89, -4128.38, 0.00, 0.00, 0.00, 0.00, 1.57, 1.64, 1.70
104, 10000.00, -10000.00, -4299.10, -4144.05, 0.00, 0.00, 0.00, 0.00, 1.57, 1.64, 1.70
105, 10000.00, -10000.00, -4337.63, -4112.55, 0.00, 0.00, 0.00, 0.00, 1.57, 1.64, 1.70
106, 10000.00, -10000.00, -4328.77, -4120.64, 0.00, 0.00, 0.00, 0.00, 1.57, 1.64, 1.70
107, 10000.00, -10000.00, -4320.22, -4121.86, 0.00, 0.00, 0.00, 0.00, 1.57, 1.64, 1.70
108, 10000.00, -10000.00, -4323.96, -4121.44, 0.00, 0.00, 0.00, 0.00, 1.57, 1.64, 1.70
109, 10000.00, -10000.00, -4324.95, -4123.54, 0.00, 0.00, 0.00, 0.00, 1.57, 1.64, 1.70
110, 10000.00, -10000.00, -4302.61, -4142.18, 0.00, 0.00, 0.00, 0.00, 1.57, 1.64, 1.70
111, 10000.00, -10000.00, -4325.26, -4115.66, 0.00, 0.00, 0.00, 0.00, 1.57, 1.64, 1.70
112, 10000.00, -10000.00, -4322.29, -4119.67, 0.00, 0.00, 0.00, 0.00, 1.57, 1.64, 1.70
113, 10000.00, -10000.00, -4309.94, -4128.59, 0.00, 0.00, 0.00, 0.00, 1.57, 1.64, 1.70
114, 10000.00, -10000.00, -4303.12, -4143.53, 0.00, 0.00, 0.00, 0.00, 1.57, 1.64, 1.70
115, 10000.00, -10000.00, -4318.99, -4133.20, 0.00, 0.00, 0.00, 0.00, 1.57, 1.64, 1.70
116, 10000.00, -10000.00, -4321.49, -4130.56, 0.00, 0.00, 0.00, 0.00, 1.57, 1.64, 1.70
117, 10000.00, -10000.00, -4327.91, -4118.04, 0.00, 0.00, 0.00, 0.00, 1.57, 1.64, 1.70
118, 10000.00, -10000.00, -4328.05, -4121.75, 0.00, 0.00, 0.00, 0.00, 1.57, 1.64, 1.70
119, 10000.00, -10000.00, -4327.77, -4122.07, 0.00, 0.00, 0.00, 0.00, 1.57, 1.64, 1.70
120, 10000.00, -10000.00, -4325.19, -4122.31, 0.00, 0.00, 0.00, 0.00, 1.57, 1.64, 1.70
121, 10000.00, -10000.00, -4324.48, -4119.83, 0.00, 0.00, 0.00, 0.00, 1.57, 1.64, 1.70
122, 10000.00, -10000.00, -4325.37, -4122.01, 0.00, 0.00, 0.00, 0.00, 1.57, 1.64, 1.70
123, 10000.00, -10000.00, -4299.96, -4146.89, 0.00, 0.00, 0.00, 0.00, 1.57, 1.64, 1.70
124, 10000.00, -10000.00, -4337.53, -4112.51, 0.00, 0.00, 0.00, 0.00, 1.57, 1.64, 1.70
125, 10000.00, -10000.00, -4323.00, -4119.79, 0.00, 0.00, 0.00, 0.00, 1.57, 1.64, 1.70
126, 10000.00, -10000.00, -4328.86, -4121.42, 0.00, 0.00, 0.00, 0.00, 1.57, 1.64, 1.70
127, 10000.00, -10000.00, -4315.14, -4128.46, 0.00, 0.00, 0.00, 0.00, 1.57, 1.64, 1.70
128, 10000.00, -10000.00, -4322.91, -4126.42, 0.00, 0.00, 0.00, 0.00, 1.57, 1.64, 1.70
129, 10000.00, -10000.00, -4327.36, -4127.58, 0.00, 0.00, 0.00, 0.00, 1.57, 1.64, 1.70
130, 10000.00, -10000.00, -4318.46, -4129.86, 0.00, 0.00, 0.00, 0.00, 1.57, 1.64, 1.70
131, 10000.00, -10000.00, -4331.08, -4118.35, 0.00, 0.00, 0.00, 0.00, 1.57, 1.64, 1.70
132, 10000.00, -10000.00, -4325.57, -4119.19, 0.00, 0.00, 0.00, 0.00, 1.57, 1.64, 1.70
133, 10000.00, -10000.00, -4325.98, -4121.18, 0.00, 0.00, 0.00, 0.00, 1.57, 1.64, 1.70
134, 10000.00, -10000.00, -4324.96, -4124.45, 0.00, 0.00, 0.00, 0.00, 1.57, 1.64, 1.70
135, 10000.00, -10000.00, -4308.00, -4134.22, 0.00, 0.00, 0.00, 0.00, 1.57, 1.64, 1.70
136, 10000.00, -10000.00, -4313.02, -4127.32, 0.00, 0.00, 0.00, 0.00, 1.57, 1.64, 1.70
137, 10000.00, -10000.00, -4276.09, -4165.76, 0.00, 0.00, 0.00, 0.00, 1.57, 1.64, 1.70
138, 10000.00, -10000.00, -4321.67, -4122.85, 0.00, 0.00, 0.00, 0.00, 1.57, 1.64, 1.70
139, 10000.00, -10000.00, -4320.43, -4119.67, 0.00, 0.00, 0.00, 0.00, 1.57, 1.64, 1.70
140, 10000.00, -10000.00, -4325.68, -4122.08, 0.00, 0.00, 0.00, 0.00, 1.57, 1.64, 1.70
141, 10000.00, -10000.00, -4308.58, -4139.51, 0.00, 0.00, 0.00, 0.00, 1.57, 1.64, 1.70
142, 10000.00, -10000.00, -4307.71, -4140.61, 0.00, 0.00, 0.00, 0.00, 1.57, 1.64, 1.70
143, 10000.00, -10000.00, -4329.24, -4114.53, 0.00, 0.00, 0.00, 0.00, 1.57, 1.64, 1.70
144, 10000.00, -10000.00, -4326.94, -4113.69, 0.00, 0.00, 0.00, 0.00, 1.57, 1.64, 1.70
145, 10000.00, -10000.00, -4313.70, -4129.21, 0.00, 0.00, 0.00, 0.00, 1.57, 1.64, 1.70
146, 10000.00, -10000.00, -4320.06, -4120.35, 0.00, 0.00, 0.00, 0.00, 1.57, 1.64, 1.70
147, 10000.00, -10000.00, -4320.63, -4113.31, 0.00, 0.00, 0.00, 0.00, 1.57, 1.64, 1.70
148, 10000.00, -10000.00, -4330.06, -4107.85, 0.00, 0.00, 0.00, 0.00, 1.57, 1.64, 1.70
149, 10000.00, -10000.00, -4333.99, -4112.42, 0.00, 0.00, 0.00, 0.00, 1.57, 1.64, 1.70
150, 10000.00, -10000.00, -4326.31, -4122.71, 0.00, 0.00, 0.00, 0.00, 1.57, 1.64, 1.70
151, 10000.00, -10000.00, -4324.05, -4120.47, 0.00, 0.00, 0.00, 0.00, 1.57, 1.64, 1.70
152, 10000.00, -10000.00, -4323.43, -4120.39, 0.00, 0.00, 0.00, 0.00, 1.57, 1.64, 1.70
153, 10000.00, -10000.00, -4323.80, -4126.49, 0.00, 0.00, 0.00, 0.00, 1.57, 1.64, 1.70
154, 10000.00, -10000.00, -4313.33, -4131.04, 0.00, 0.00, 0.00, 0.00, 1.57, 1.64, 1.70
155, 10000.00, -10000.00, -4325.88, -4118.02, 0.00, 0.00, 0.00, 0.00, 1.57, 1.64, 1.70
156, 10000.00, -10000.00, -4320.36, -4127.21, 0.00, 0.00, 0.00, 0.00, 1.57, 1.64, 1.70
157, 10000.00, -10000.00, -4314.15, -4131.86, 0.00, 0.00, 0.00, 0.00, 1.57, 1.64, 1.70
158, 10000.00, -10000.00, -4321.74, -4124.02, 0.00, 0.00, 0.00, 0.00, 1.57, 1.64, 1.70
159, 10000.00, -10000.00, -4308.26, -4139.59, 0.00, 0.00, 0.00, 0.00, 1.57, 1.64, 1.70
160, 10000.00, -10000.00, -4313.40, -4133.31, 0.00, 0.00, 0.00, 0.00, 1.57, 1.64, 1.70
161, 10000.00, -10000.00, -4317.86, -4128.43, 0.00, 0.00, 0.00, 0.00, 1.57, 1.64, 1.70
162, 10000.00, -10000.00, -4321.88, -4125.88, 0.00, 0.00, 0.00, 0.00, 1.57, 1.64, 1.70
163, 10000.00, -10000.00, -4318.49, -4125.40, 0.00, 0.00, 0.00, 0.00, 1.57, 1.64, 1.70
164, 10000.00, -10000.00, -4333.38, -4099.27, 0.00, 0.00, 0.00, 0.00, 1.57, 1.64, 1.70
165, 10000.00, -10000.00, -4320.72, -4137.40, 0.00, 0.00, 0.00, 0.00, 1.57, 1.64, 1.70
166, 10000.00, -10000.00, -4306.74, -4149.80, 0.00, 0.00, 0.00, 0.00, 1.57, 1.64, 1.70
167, 10000.00, -10000.00, -4325.83, -4132.34, 0.00, 0.00, 0.00, 0.00, 1.57, 1.64, 1.70
168, 10000.00, -10000.00, -4326.89, -4128.36, 0.00, 0.00, 0.00, 0.00, 1.57, 1.64, 1.70
169, 10000.00, -10000.00, -4323.10, -4129.37, 0.00, 0.00, 0.00, 0.00, 1.57, 1.64, 1.70
170, 10000.00, -10000.00, -4322.02, -4124.48, 0.00, 0.00, 0.00, 0.00, 1.57, 1.64, 1.70
171, 10000.00, -10000.00, -4318.67, -4125.35, 0.00, 0.00, 0.00, 0.00, 1.57, 1.64, 1.70
172, 10000.00, -10000.00, -4324.71, -4122.90, 0.00, 0.00, 0.00, 0.00, 1.57, 1.64, 1.70
173, 10000.00, -10000.00, -4312.93, -4138.02, 0.00, 0.00, 0.00, 0.00, 1.57, 1.64, 1.70
174, 10000.00, -10000.00, -4341.94, -4110.12, 0.00, 0.00, 0.00, 0.00, 1.57, 1.64, 1.70
175, 10000.00, -10000.00, -4332.51, -4121.18, 0.00, 0.00, 0.00, 0.00, 1.57, 1.64, 1.70
176, 10000.00, -10000.00, -4320.03, -4133.61, 0.00, 0.00, 0.00, 0.00, 1.57, 1.64, 1.70
177, 10000.00, -10000.00, -4320.66, -4132.77, 0.00, 0.00, 0.00, 0.00, 1.57, 1.64, 1.70
178, 10000.00, -10000.00, -4343.61, -4111.64, 0.00, 0.00, 0.00, 0.00, 1.57, 1.64, 1.70
179, 10000.00, -10000.00, -4333.74, -4122.28, 0.00, 0.00, 0.00, 0.00, 1.57, 1.64, 1.70
180, 10000.00, -10000.00, -4332.05, -4113.31, 0.00, 0.00, 0.00, 0.00, 1.57, 1.64, 1.70
181, 10000.00, -10000.00, -4327.63, -4126.03, 0.00, 0.00, 0.00, 0.00, 1.57, 1.64, 1.70
182, 10000.00, -10000.00, -4314.81, -4144.75, 0.00, 0.00, 0.00, 0.00, 1.57, 1.64, 1.70
183, 10000.00, -10000.00, -4321.44, -4139.27, 0.00, 0.00, 0.00, 0.00, 1.57, 1.64, 1.70
184, 10000.00, -10000.00, -4329.33, -4129.53, 0.00, 0.00, 0.00, 0.00, 1.57, 1.64, 1.70
185, 10000.00, -10000.00, -4307.96, -4147.47, 0.00, 0.00, 0.00, 0.00, 1.57, 1.64, 1.70
186, 10000.00, -10000.00, -4316.71, -4128.91, 0.00, 0.00, 0.00, 0.00, 1.57, 1.64, 1.70
187, 10000.00, -10000.00, -4315.38, -4129.02, 0.00, 0.00, 0.00, 0.00, 1.57, 1.64, 1.70
188, 10000.00, -10000.00, -4298.75, -4145.74, 0.00, 0.00, 0.00, 0.00, 1.57, 1.64, 1.70
189, 10000.00, -10000.00, -4322.93, -4123.51, 0.00, 0.00, 0.00, 0.00, 1.57, 1.64, 1.70
190, 10000.00, -10000.00, -4315.92, -4132.48, 0.00, 0.00, 0.00, 0.00, 1.57, 1.64, 1.70
191, 10000.00, -10000.00, -4325.81, -4118.26, 0.00, 0.00, 0.00, 0.00, 1.57, 1.64, 1.70
192, 10000.00, -10000.00, -4313.41, -4137.91, 0.00, 0.00, 0.00, 0.00, 1.57, 1.64, 1.70
193, 10000.00, -10000.00, -4327.82, -4121.35, 0.00, 0.00, 0.00, 0.00, 1.57, 1.64, 1.70
194, 10000.00, -10000.00, -4308.20, -4136.10, 0.00, 0.00, 0.00, 0.00, 1.57, 1.64, 1.70
195, 10000.00, -10000.00, -4311.26, -4134.94, 0.00, 0.00, 0.00, 0.00, 1.57, 1.64, 1.70
196, 10000.00, -10000.00, -4316.61, -4129.73, 0.00, 0.00, 0.00, 0.00, 1.57, 1.64, 1.70
197, 10000.00, -10000.00, -4324.75, -4122.85, 0.00, 0.00, 0.00, 0.00, 1.57, 1.64, 1.70
198, 10000.00, -10000.00, -4312.13, -4139.81, 0.00, 0.00, 0.00, 0.00, 1.57, 1.64, 1.70
199, 10000.00, -10000.00, -4317.34, -4129.63, 0.00, 0.00, 0.00, 0.00, 1.57, 1.64, 1.70
200, 10000.00, -10000.00, -4316.96, -4131.77, 0.00, 0.00, 0.00, 0.00, 1.57, 1.64, 1.70
201, 10000.00, -10000.00, -4313.92, -4134.63, 0.00, 0.00, 0.00, 0.00, 1.57, 1.64, 1.70
202, 10000.00, -10000.00, -4321.12, -4134.50, 0.00, 0.00, 0.00, 0.00, 1.57, 1.64, 1.70
203, 10000.00, -10000.00, -4293.77, -4158.24, 0.00, 0.00, 0.00, 0.00, 1.57, 1.64, 1.70
204, 10000.00, -10000.00, -4338.77, -4116.79, 0.00, 0.00, 0.00, 0.00, 1.57, 1.64, 1.70
205, 10000.00, -10000.00, -4308.31, -4140.19, 0.00, 0.00, 0.00, 0.00, 1.57, 1.64, 1.70
206, 10000.00, -10000.00, -4311.73, -4137.72, 0.00, 0.00, 0.00, 0.00, 1.57, 1.64, 1.70
207, 10000.00, -10000.00, -4324.75, -4130.61, 0.00, 0.00, 0.00, 0.00, 1.57, 1.64, 1.70
208, 10000.00, -10000.00, -4326.54, -4126.11, 0.00, 0.00, 0.00, 0.00, 1.57, 1.64, 1.70
209, 10000.00, -10000.00, -4316.82, -4137.42, 0.00, 0.00, 0.00, 0.00, 1.57, 1.64, 1.70
210, 10000.00, -10000.00, -4334.31, -4125.95, 0.00, 0.00, 0.00, 0.00, 1.57, 1.64, 1.70
211, 10000.00, -10000.00, -4307.65, -4150.58, 0.00, 0.00, 0.00, 0.00, 1.57, 1.64, 1.70
212, 10000.00, -10000.00, -4325.66, -4135.75, 0.00, 0.00, 0.00, 0.00, 1.57, 1.64, 1.70
213, 10000.00, -10000.00, -4318.41, -4127.93, 0.00, 0.00, 0.00, 0.00, 1.57, 1.64, 1.70
214, 10000.00, -10000.00, -4311.40, -4131.60, 0.00, 0.00, 0.00, 0.00, 1.57, 1.64, 1.70
215, 10000.00, -10000.00, -4309.00, -4148.53, 0.00, 0.00, 0.00, 0.00, 1.57, 1.64, 1.70
216, 10000.00, -10000.00, -4307.01, -4144.28, 0.00, 0.00, 0.00, 0.00, 1.57, 1.64, 1.70
217, 10000.00, -10000.00, -4317.28, -4130.97, 0.00, 0.00, 0.00, 0.00, 1.57, 1.64, 1.70
218, 10000.00, -10000.00, -4319.30, -4139.93, 0.00, 0.00, 0.00, 0.00, 1.57, 1.64, 1.70
219, 10000.00, -10000.00, -4312.82, -4142.53, 0.00, 0.00, 0.00, 0.00, 1.57, 1.64, 1.70
220, 10000.00, -10000.00, -4293.34, -4157.65, 0.00, 0.00, 0.00, 0.00, 1.57, 1.64, 1.70
221, 10000.00, -10000.00, -4329.16, -4127.37, 0.00, 0.00, 0.00, 0.00, 1.57, 1.64, 1.70
222, 10000.00, -10000.00, -4305.01, -4138.87, 0.00, 0.00, 0.00, 0.00, 1.57, 1.64, 1.70
223, 10000.00, -10000.00, -4310.01, -4144.68, 0.00, 0.00, 0.00, 0.00, 1.57, 1.64, 1.70
224, 10000.00, -10000.00, -4310.86, -4138.37, 0.00, 0.00, 0.00, 0.00, 1.57, 1.64, 1.70
225, 10000.00, -10000.00, -4329.06, -4119.53, 0.00, 0.00, 0.00, 0.00, 1.57, 1.64, 1.70
226, 10000.00, -10000.00, -4311.82, -4147.09, 0.00, 0.00, 0.00, 0.00, 1.57, 1.64, 1.70
227, 10000.00, -10000.00, -4307.21, -4143.62, 0.00, 0.00, 0.00, 0.00, 1.57, 1.64, 1.70
228, 10000.00, -10000.00, -4327.22, -4119.38, 0.00, 0.00, 0.00, 0.00, 1.57, 1.64, 1.70
229, 10000.00, -10000.00, -4324.76, -4123.09, 0.00, 0.00, 0.00, 0.00, 1.57, 1.64, 1.70
230, 10000.00, -10000.00, -4321.49, -4123.84, 0.00, 0.00, 0.00, 0.00, 1.57, 1.64, 1.70
231, 10000.00, -10000.00, -4306.97, -4130.26, 0.00, 0.00, 0.00, 0.00, 1.57, 1.64, 1.70
232, 10000.00, -10000.00, -4313.91, -4136.43, 0.00, 0.00, 0.00, 0.00, 1.57, 1.64, 1.70
233, 10000.00, -10000.00, -4334.58, -4116.21, 0.00, 0.00, 0.00, 0.00, 1.57, 1.64, 1.70
234, 10000.00, -10000.00, -4325.61, -4123.52, 0.00, 0.00, 0.00, 0.00, 1.57, 1.64, 1.70
235, 10000.00, -10000.00, -4335.13, -4118.20, 0.00, 0.00, 0.00, 0.00, 1.57, 1.64, 1.70
236, 10000.00, -10000.00, -4306.85, -4137.79, 0.00, 0.00, 0.00, 0.00, 1.57, 1.64, 1.70
237, 10000.00, -10000.00, -4324.00, -4122.66, 0.00, 0.00, 0.00, 0.00, 1.57, 1.64, 1.70
238, 10000.00, -10000.00, -4314.42, -4131.52, 0.00, 0.00, 0.00, 0.00, 1.57, 1.64, 1.70
239, 10000.00, -10000.00, -4327.41, -4125.04, 0.00, 0.00, 0.00, 0.00, 1.57, 1.64, 1.70
240, 10000.00, -10000.00, -4316.21, -4131.78, 0.00, 0.00, 0.00, 0.00, 1.57, 1.64, 1.70
241, 10000.00, -10000.00, -4319.38, -4130.90, 0.00, 0.00, 0.00, 0.00, 1.57, 1.64, 1.70
242, 10000.00, -10000.00, -4318.85, -4131.90, 0.00, 0.00, 0.00, 0.00, 1.57, 1.64, 1.70
243, 10000.00, -10000.00, -4310.01, -4145.01, 0.00, 0.00, 0.00, 0.00, 1.57, 1.64, 1.70
244, 10000.00, -10000.00, -4327.49, -4131.07, 0.00, 0.00, 0.00, 0.00, 1.57, 1.64, 1.70
245, 10000.00, -10000.00, -4325.20, -4132.44, 0.00, 0.00, 0.00, 0.00, 1.57, 1.64, 1.70
246, 10000.00, -10000.00, -4329.68, -4131.15, 0.00, 0.00, 0.00, 0.00, 1.57, 1.64, 1.70
247, 10000.00, -10000.00, -4317.71, -4144.86, 0.00, 0.00, 0.00, 0.00, 1.57, 1.64, 1.70
248, 10000.00, -10000.00, -4311.42, -4143.30, 0.00, 0.00, 0.00, 0.00, 1.57, 1.64, 1.70
249, 10000.00, -10000.00, -4311.83, -4141.81, 0.00, 0.00, 0.00, 0.00, 1.57, 1.64, 1.70
250, 10000.00, -10000.00, -4312.15, -4148.29, 0.00, 0.00, 0.00, 0.00, 1.57, 1.64, 1.70
251, 10000.00, -10000.00, -4327.10, -4127.05, 0.00, 0.00, 0.00, 0.00, 1.57, 1.64, 1.70
252, 10000.00, -10000.00, -4312.83, -4144.48, 0.00, 0.00, 0.00, 0.00, 1.57, 1.64, 1.70
253, 10000.00, -10000.00, -4300.37, -4151.75, 0.00, 0.00, 0.00, 0.00, 1.57, 1.64, 1.70
254, 10000.00, -10000.00, -4322.94, -4140.30, 0.00, 0.00, 0.00, 0.00, 1.57, 1.64, 1.70
255, 10000.00, -10000.00, -4310.08, -4150.08, 0.00, 0.00, 0.00, 0.00, 1.57, 1.64, 1.70
0, 10000.00, -10000.00, -4305.26, -4148.46, 0.00, 0.00, 0.00, 0.00, 1.57, 1.64, 1.70
1, 10000.00, -10000.00, -4316.50, -4137.88, 0.00, 0.00, 0.00, 0.00, 1.57, 1.64, 1.70
2, 10000.00, -10000.00, -4275.34, -4182.50, 0.00, 0.00, 0.00, 0.00, 1.57, 1.64, 1.70
3, 10000.00, -10000.00, -4313.65, -4140.58, 0.00, 0.00, 0.00, 0.00, 1.57, 1.64, 1.70
4, 10000.00, -10000.00, -4321.53, -4135.89, 0.00, 0.00, 0.00, 0.00, 1.57, 1.64, 1.70
5, 10000.00, -10000.00, -4313.99, -4144.01, 0.00, 0.00, 0.00, 0.00, 1.57, 1.64, 1.70
6, 10000.00, -10000.00, -4310.71, -4150.47, 0.00, 0.00, 0.00, 0.00, 1.57, 1.64, 1.70
7, 10000.00, -10000.00, -4311.04, -4147.66, 0.00, 0.00, 0.00, 0.00, 1.57, 1.64, 1.70
8, 10000.00, -10000.00, -4320.73, -4142.20, 0.00, 0.00, 0.00, 0.00, 1.57, 1.64, 1.70
9, 10000.00, -10000.00, -4316.87, -4143.77, 0.00, 0.00, 0.00, 0.00, 1.57, 1.64, 1.70
10, 10000.00, -10000.00, -4312.32, -4140.99, 0.00, 0.00, 0.00, 0.00, 1.57, 1.64, 1.70
11, 10000.00, -10000.00, -4324.57, -4123.00, 0.00, 0.00, 0.00, 0.00, 1.57, 1.64, 1.70
12, 10000.00, -10000.00, -4316.37, -4141.38, 0.00, 0.00, 0.00, 0.00, 1.57, 1.64, 1.70
13, 10000.00, -10000.00, -4304.98, -4150.52, 0.00, 0.00, 0.00, 0.00, 1.57, 1.64, 1.70
14, 10000.00, -10000.00, -4314.34, -4139.54, 0.00, 0.00, 0.00, 0.00, 1.57, 1.64, 1.70
15, 10000.00, -10000.00, -4320.94, -4134.60, 0.00, 0.00, 0.00, 0.00, 1.57, 1.64, 1.70
16, 10000.00, -10000.00, -4313.40, -4141.04, 0.00, 0.00, 0.00, 0.00, 1.57, 1.64, 1.70
17, 10000.00, -10000.00, -4314.73, -4143.70, 0.00, 0.00, 0.00, 0.00, 1.57, 1.64, 1.70
18, 10000.00, -10000.00, -4314.72, -4145.21, 0.00, 0.00, 0.00, 0.00, 1.57, 1.64, 1.70
19, 10000.00, -10000.00, -4313.54, -4146.04, 0.00, 0.00, 0.00, 0.00, 1.57, 1.64, 1.70
20, 10000.00, -10000.00, -4316.74, -4146.79, 0.00, 0.00, 0.00, 0.00, 1.57, 1.64, 1.70
21, 10000.00, -10000.00, -4297.03, -4158.25, 0.00, 0.00, 0.00, 0.00, 1.57, 1.64, 1.70
22, 10000.00, -10000.00, -4328.05, -4120.48, 0.00, 0.00, 0.00, 0.00, 1.57, 1.64, 1.70
23, 10000.00, -10000.00, -4310.97, -4148.19, 0.00, 0.00, 0.00, 0.00, 1.57, 1.64, 1.70
24, 10000.00, -10000.00, -4309.43, -4145.19, 0.00, 0.00, 0.00, 0.00, 1.57, 1.64, 1.70
25, 10000.00, -10000.00, -4301.61, -4161.04, 0.00, 0.00, 0.00, 0.00, 1.57, 1.64, 1.70
26, 10000.00, -10000.00, -4293.56, -4168.35, 0.00, 0.00, 0.00, 0.00, 1.57, 1.64, 1.70
27, 10000.00, -10000.00, -4303.11, -4154.02, 0.00, 0.00, 0.00, 0.00, 1.57, 1.64, 1.70
28, 10000.00, -10000.00, -4303.80, -4160.01, 0.00, 0.00, 0.00, 0.00, 1.57, 1.64, 1.70
29, 10000.00, -10000.00, -4318.00, -4148.68, 0.00, 0.00, 0.00, 0.00, 1.57, 1.64, 1.70
30, 10000.00, -10000.00, -4306.16, -4156.35, 0.00, 0.00, 0.00, 0.00, 1.57, 1.64, 1.70
31, 10000.00, -10000.00, -4304.93, -4159.06, 0.00, 0.00, 0.00, 0.00, 1.57, 1.64, 1.70
32, 10000.00, -10000.00, -4295.94, -4163.54, 0.00, 0.00, 0.00, 0.00, 1.57, 1.64, 1.70
33, 10000.00, -10000.00, -4294.80, -4162.73, 0.00, 0.00, 0.00, 0.00, 1.57, 1.64, 1.70
34, 10000.00, -10000.00, -4302.25, -4160.46, 0.00, 0.00, 0.00, 0.00, 1.57, 1.64, 1.70
35, 10000.00, -10000.00, -4297.77, -4169.52, 0.00, 0.00, 0.00, 0.00, 1.57, 1.64, 1.70
36, 10000.00, -10000.00, -4306.09, -4160.91, 0.00, 0.00, 0.00, 0.00, 1.57, 1.64, 1.70
37, 10000.00, -10000.00, -4304.94, -4153.90, 0.00, 0.00, 0.00, 0.00, 1.57, 1.64, 1.70
38, 10000.00, -10000.00, -4317.09, -4153.93, 0.00, 0.00, 0.00, 0.00, 1.57, 1.64, 1.70
39, 10000.00, -10000.00, -4301.13, -4155.75, 0.00, 0.00, 0.00, 0.00, 1.57, 1.64, 1.70
40, 10000.00, -10000.00, -4300.24, -4155.38, 0.00, 0.00, 0.00, 0.00, 1.57, 1.64, 1.70
41, 10000.00, -10000.00, -4297.76, -4163.87, 0.00, 0.00, 0.00, 0.00, 1.57, 1.64, 1.70
42, 10000.00, -10000.00, -4305.73, -4161.58, 0.00, 0.00, 0.00, 0.00, 1.57, 1.64, 1.70
43, 10000.00, -10000.00, -4292.35, -4170.70, 0.00, 0.00, 0.00, 0.00, 1.57, 1.64, 1.70
44, 10000.00, -10000.00, -4293.04, -4172.45, 0.00, 0.00, 0.00, 0.00, 1.57, 1.64, 1.70
45, 10000.00, -10000.00, -4307.14, -4158.19, 0.00, 0.00, 0.00, 0.00, 1.57, 1.64, 1.70
46, 10000.00, -10000.00, -4305.47, -4162.03, 0.00, 0.00, 0.00, 0.00, 1.57, 1.64, 1.70
47, 10000.00, -10000.00, -4293.91, -4172.25, 0.00, 0.00, 0.00, 0.00, 1.57, 1.64, 1.70
48, 10000.00, -10000.00, -4313.67, -4150.15, 0.00, 0.00, 0.00, 0.00, 1.57, 1.64, 1.70
49, 10000.00, -10000.00, -4312.97, -4153.67, 0.00, 0.00, 0.00, 0.00, 1.57, 1.64, 1.70
50, 10000.00, -10000.00, -4306.42, -4154.84, 0.00, 0.00, 0.00, 0.00, 1.57, 1.64, 1.70
51, 10000.00, -10000.00, -4297.10, -4165.88, 0.00, 0.00, 0.00, 0.00, 1.57, 1.64, 1.70
52, 10000.00, -10000.00, -4296.21, -4165.12, 0.00, 0.00, 0.00, 0.00, 1.57, 1.64, 1.70
53, 10000.00, -10000.00, -4297.69, -4166.88, 0.00, 0.00, 0.00, 0.00, 1.57, 1.64, 1.70
54, 10000.00, -10000.00, -4304.45, -4158.93, 0.00, 0.00, 0.00, 0.00, 1.57, 1.64, 1.70
55, 10000.00, -10000.00, -4314.83, -4152.77, 0.00, 0.00, 0.00, 0.00, 1.57, 1.64, 1.70
56, 10000.00, -10000.00, -4301.02, -4163.73, 0.00, 0.00, 0.00, 0.00, 1.57, 1.64, 1.70
57, 10000.00, -10000.00, -4295.20, -4168.59, 0.00, 0.00, 0.00, 0.00, 1.57, 1.64, 1.70
58, 10000.00, -10000.00, -4327.66, -4136.60, 0.00, 0.00, 0.00, 0.00, 1.57, 1.64, 1.70
59, 10000.00, -10000.00, -4310.35, -4152.97, 0.00, 0.00, 0.00, 0.00, 1.57, 1.64, 1.70
60, 10000.00, -10000.00, -4306.91, -4151.54, 0.00, 0.00, 0.00, 0.00, 1.57, 1.64, 1.70
61, 10000.00, -10000.00, -4297.22, -4161.98, 0.00, 0.00, 0.00, 0.00, 1.57, 1.64, 1.70
62, 10000.00, -10000.00, -4300.02, -4159.85, 0.00, 0.00, 0.00, 0.00, 1.57, 1.64, 1.70
63, 10000.00, -10000.00, -4301.71, -4158.61, 0.00, 0.00, 0.00, 0.00, 1.57, 1.64, 1.70
64, 10000.00, -10000.00, -4297.44, -4159.86, 0.00, 0.00, 0.00, 0.00, 1.57, 1.64, 1.70
65, 10000.00, -10000.00, -4283.21, -4174.62, 0.00, 0.00, 0.00, 0.00, 1.57, 1.64, 1.70
66, 10000.00, -10000.00, -4310.25, -4150.00, 0.00, 0.00, 0.00, 0.00, 1.57, 1.64, 1.70
67, 10000.00, -10000.00, -4320.06, -4143.19, 0.00, 0.00, 0.00, 0.00, 1.57, 1.64, 1.70
68, 10000.00, -10000.00, -4302.87, -4151.71, 0.00, 0.00, 0.00, 0.00, 1.57, 1.64, 1.70
69, 10000.00, -10000.00, -4308.27, -4150.64, 0.00, 0.00, 0.00, 0.00, 1.57, 1.64, 1.70
70, 10000.00, -10000.00, -4307.61, -4149.69, 0.00, 0.00, 0.00, 0.00, 1.57, 1.64, 1.70
71, 10000.00, -10000.00, -4317.15, -4151.20, 0.00, 0.00, 0.00, 0.00, 1.57, 1.64, 1.70
72, 10000.00, -10000.00, -4302.62, -4158.76, 0.00, 0.00, 0.00, 0.00, 1.57, 1.64, 1.70
73, 10000.00, -10000.00, -4312.00, -4159.80, 0.00, 0.00, 0.00, 0.00, 1.57, 1.64, 1.70
74, 10000.00, -10000.00, -4309.76, -4153.73, 0.00, 0.00, 0.00, 0.00, 1.57, 1.64, 1.70
75, 10000.00, -10000.00, -4310.27, -4155.05, 0.00, 0.00, 0.00, 0.00, 1.57, 1.64, 1.70
76, 10000.00, -10000.00, -4311.85, -4156.33, 0.00, 0.00, 0.00, 0.00, 1.57, 1.64, 1.70
77, 10000.00, -10000.00, -4300.11, -4169.12, 0.00, 0.00, 0.00, 0.00, 1.57, 1.64, 1.70
78, 10000.00, -10000.00, -4297.76, -4174.42, 0.00, 0.00, 0.00, 0.00, 1.57, 1.64, 1.70
79, 10000.00, -10000.00, -4305.58, -4163.92, 0.00, 0.00, 0.00, 0.00, 1.57, 1.64, 1.70
80, 10000.00, -10000.00, -4312.58, -4159.51, 0.00, 0.00, 0.00, 0.00, 1.57, 1.64, 1.70
81, 10000.00, -10000.00, -4306.20, -4165.92, 0.00, 0.00, 0.00, 0.00, 1.57, 1.64, 1.70
82, 10000.00, -10000.00, -4297.87, -4169.76, 0.00, 0.00, 0.00, 0.00, 1.57, 1.64, 1.70
83, 10000.00, -10000.00, -4297.14, -4170.12, 0.00, 0.00, 0.00, 0.00, 1.57, 1.64, 1.70
84, 10000.00, -10000.00, -4304.47, -4157.66, 0.00, 0.00, 0.00, 0.00, 1.57, 1.64, 1.70
85, 10000.00, -10000.00, -4299.51, -4167.42, 0.00, 0.00, 0.00, 0.00, 1.57, 1.64, 1.70
86, 10000.00, -10000.00, -4297.83, -4171.67, 0.00, 0.00, 0.00, 0.00, 1.57, 1.64, 1.70
87, 10000.00, -10000.00, -4295.38, -4171.31, 0.00, 0.00, 0.00, 0.00, 1.57, 1.64, 1.70
88, 10000.00, -10000.00, -4304.79, -4161.01, 0.00, 0.00, 0.00, 0.00, 1.57, 1.64, 1.70
89, 10000.00, -10000.00, -4306.78, -4154.88, 0.00, 0.00, 0.00, 0.00, 1.57, 1.64, 1.70
90, 10000.00, -10000.00, -4294.04, -4168.97, 0.00, 0.00, 0.00, 0.00, 1.57, 1.64, 1.70
91, 10000.00, -10000.00, -4300.21, -4164.26, 0.00, 0.00, 0.00, 0.00, 1.57, 1.64, 1.70
92, 10000.00, -10000.00, -4305.04, -4161.29, 0.00, 0.00, 0.00, 0.00, 1.57, 1.64, 1.70
93, 10000.00, -10000.00, -4305.46, -4157.34, 0.00, 0.00, 0.00, 0.00, 1.57, 1.64, 1.70
94, 10000.00, -10000.00, -4311.92, -4154.03, 0.00, 0.00, 0.00, 0.00, 1.57, 1.64, 1.70
95, 10000.00, -10000.00, -4292.66, -4169.94, 0.00, 0.00, 0.00, 0.00, 1.57, 1.64, 1.70
96, 10000.00, -10000.00, -4308.48, -4158.82, 0.00, 0.00, 0.00, 0.00, 1.57, 1.64, 1.70
97, 10000.00, -10000.00, -4310.63, -4157.73, 0.00, 0.00, 0.00, 0.00, 1.57, 1.64, 1.70
98, 10000.00, -10000.00, -4310.53, -4164.76, 0.00, 0.00, 0.00, 0.00, 1.57, 1.64, 1.70
99, 10000.00, -10000.00, -4304.58, -4157.93, 0.00, 0.00, 0.00, 0.00, 1.57, 1.64, 1.70
100, 10000.00, -10000.00, -4291.21, -4178.09, 0.00, 0.00, 0.00, 0.00, 1.57, 1.64, 1.70
101, 10000.00, -10000.00, -4306.73, -4162.02, 0.00, 0.00, 0.00, 0.00, 1.57, 1.64, 1.70
102, 10000.00, -10000.00, -4321.38, -4144.32, 0.00, 0.00, 0.00, 0.00, 1.57, 1.64, 1.70
103, 10000.00, -10000.00, -4310.53, -4156.93, 0.00, 0.00, 0.00, 0.00, 1.57, 1.64, 1.70
104, 10000.00, -10000.00, -4304.83, -4162.15, 0.00, 0.00, 0.00, 0.00, 1.57, 1.64, 1.70
105, 10000.00, -10000.00, -4305.03, -4162.89, 0.00, 0.00, 0.00, 0.00, 1.57, 1.64, 1.70
106, 10000.00, -10000.00, -4311.09, -4165.20, 0.00, 0.00, 0.00, 0.00, 1.57, 1.64, 1.70
107, 10000.00, -10000.00, -4309.83, -4163.84, 0.00, 0.00, 0.00, 0.00, 1.57, 1.64, 1.70
108, 10000.00, -10000.00, -4303.22, -4165.69, 0.00, 0.00, 0.00, 0.00, 1.57, 1.64, 1.70
109, 10000.00, -10000.00, -4305.59, -4162.35, 0.00, 0.00, 0.00, 0.00, 1.57, 1.64, 1.70
110, 10000.00, -10000.00, -4299.50, -4167.15, 0.00, 0.00, 0.00, 0.00, 1.57, 1.64, 1.70
111, 10000.00, -10000.00, -4294.76, -4165.34, 0.00, 0.00, 0.00, 0.00, 1.57, 1.64, 1.70
112, 10000.00, -10000.00, -4296.44, -4167.57, 0.00, 0.00, 0.00, 0.00, 1.57, 1.64, 1.70
113, 10000.00, -10000.00, -4312.93, -4150.77, 0.00, 0.00, 0.00, 0.00, 1.57, 1.64, 1.70
114, 10000.00, -10000.00, -4309.81, -4157.59, 0.00, 0.00, 0.00, 0.00, 1.57, 1.64, 1.70
115, 10000.00, -10000.00, -4306.28, -4156.93, 0.00, 0.00, 0.00, 0.00, 1.57, 1.64, 1.70
116, 10000.00, -10000.00, -4302.18, -4163.04, 0.00, 0.00, 0.00, 0.00, 1.57, 1.64, 1.70
117, 10000.00, -10000.00, -4301.05, -4161.10, 0.00, 0.00, 0.00, 0.00, 1.57, 1.64, 1.70
118, 10000.00, -10000.00, -4299.04, -4166.41, 0.00, 0.00, 0.00, 0.00, 1.57, 1.64, 1.70
119, 10000.00, -10000.00, -4278.72, -4184.48, 0.00, 0.00, 0.00, 0.00, 1.57, 1.64, 1.70
120, 10000.00, -10000.00, -4297.68, -4162.86, 0.00, 0.00, 0.00, 0.00, 1.57, 1.64, 1.70
121, 10000.00, -10000.00, -4311.50, -4154.76, 0.00, 0.00, 0.00, 0.00, 1.57, 1.64, 1.70
122, 10000.00, -10000.00, -4305.62, -4159.34, 0.00, 0.00, 0.00, 0.00, 1.57, 1.64, 1.70
123, 10000.00, -10000.00, -4296.48, -4168.55, 0.00, 0.00, 0.00, 0.00, 1.57, 1.64, 1.70
124, 10000.00, -10000.00, -4305.51, -4160.44, 0.00, 0.00, 0.00, 0.00, 1.57, 1.64, 1.70
125, 10000.00, -10000.00, -4308.65, -4155.84, 0.00, 0.00, 0.00, 0.00, 1.57, 1.64, 1.70
126, 10000.00, -10000.00, -4306.82, -4159.43, 0.00, 0.00, 0.00, 0.00, 1.57, 1.64, 1.70
127, 10000.00, -10000.00, -4303.28, -4166.00, 0.00, 0.00, 0.00, 0.00, 1.57, 1.64, 1.70
128, 10000.00, -10000.00, -4303.58, -4166.32, 0.00, 0.00, 0.00, 0.00, 1.57, 1.64, 1.70
129, 10000.00, -10000.00, -4309.31, -4154.74, 0.00, 0.00, 0.00, 0.00, 1.57, 1.64, 1.70
130, 10000.00, -10000.00, -4304.88, -4162.21, 0.00, 0.00, 0.00, 0.00, 1.57, 1.64, 1.70
131, 10000.00, -10000.00, -4291.77, -4170.66, 0.00, 0.00, 0.00, 0.00, 1.57, 1.64, 1.70
132, 10000.00, -10000.00, -4297.94, -4166.85, 0.00, 0.00, 0.00, 0.00, 1.57, 1.64, 1.70
133, 10000.00, -10000.00, -4303.69, -4158.55, 0.00, 0.00, 0.00, 0.00, 1.57, 1.64, 1.70
134, 10000.00, -10000.00, -4307.31, -4150.96, 0.00, 0.00, 0.00, 0.00, 1.57, 1.64, 1.70
135, 10000.00, -10000.00, -4306.15, -4161.57, 0.00, 0.00, 0.00, 0.00, 1.57, 1.64, 1.70
136, 10000.00, -10000.00, -4307.91, -4156.63, 0.00, 0.00, 0.00, 0.00, 1.57, 1.64, 1.70
137, 10000.00, -10000.00, -4320.20, -4151.07, 0.00, 0.00, 0.00, 0.00, 1.57, 1.64, 1.70
138, 10000.00, -10000.00, -4317.53, -4152.30, 0.00, 0.00, 0.00, 0.00, 1.57, 1.64, 1.70
139, 10000.00, -10000.00, -4314.13, -4155.46, 0.00, 0.00, 0.00, 0.00, 1.57, 1.64, 1.70
140, 10000.00, -10000.00, -4301.87, -4166.70, 0.00, 0.00, 0.00, 0.00, 1.57, 1.64, 1.70
141, 10000.00, -10000.00, -4300.79, -4163.93, 0.00, 0.00, 0.00, 0.00, 1.57, 1.64, 1.70
142, 10000.00, -10000.00, -4310.03, -4157.86, 0.00, 0.00, 0.00, 0.00, 1.57, 1.64, 1.70
143, 10000.00, -10000.00, -4307.15, -4163.75, 0.00, 0.00, 0.00, 0.00, 1.57, 1.64, 1.70
144, 10000.00, -10000.00, -4301.16, -4165.21, 0.00, 0.00, 0.00, 0.00, 1.57, 1.64, 1.70
145, 10000.00, -10000.00, -4278.78, -4186.50, 0.00, 0.00, 0.00, 0.00, 1.57, 1.64, 1.70
146, 10000.00, -10000.00, -4308.11, -4161.23, 0.00, 0.00, 0.00, 0.00, 1.57, 1.64, 1.70
147, 10000.00, -10000.00, -4309.41, -4164.12, 0.00, 0.00, 0.00, 0.00, 1.57, 1.64, 1.70
148, 10000.00, -10000.00, -4311.21, -4164.42, 0.00, 0.00, 0.00, 0.00, 1.57, 1.64, 1.70
149, 10000.00, -10000.00, -4293.32, -4170.08, 0.00, 0.00, 0.00, 0.00, 1.57, 1.64, 1.70
150, 10000.00, -10000.00, -4297.26, -4171.10, 0.00, 0.00, 0.00, 0.00, 1.57, 1.64, 1.70
151, 10000.00, -10000.00, -4288.85, -4177.30, 0.00, 0.00, 0.00, 0.00, 1.57, 1.64, 1.70
152, 10000.00, -10000.00, -4292.67, -4170.02, 0.00, 0.00, 0.00, 0.00, 1.57, 1.64, 1.70
153, 10000.00, -10000.00, -4305.90, -4154.78, 0.00, 0.00, 0.00, 0.00, 1.57, 1.64, 1.70
154, 10000.00, -10000.00, -4299.71, -4167.50, 0.00, 0.00, 0.00, 0.00, 1.57, 1.64, 1.70
155, 10000.00, -10000.00, -4294.49, -4174.31, 0.00, 0.00, 0.00, 0.00, 1.57, 1.64, 1.70
156, 10000.00, -10000.00, -4288.38, -4176.05, 0.00, 0.00, 0.00, 0.00, 1.57, 1.64, 1.70
157, 10000.00, -10000.00, -4293.03, -4165.21, 0.00, 0.00, 0.00, 0.00, 1.57, 1.64, 1.70
158, 10000.00, -10000.00, -4292.02, -4175.38, 0.00, 0.00, 0.00, 0.00, 1.57, 1.64, 1.70
159, 10000.00, -10000.00, -4295.77, -4172.77, 0.00, 0.00, 0.00, 0.00, 1.57, 1.64, 1.70
160, 10000.00, -10000.00, -4289.77, -4181.56, 0.00, 0.00, 0.00, 0.00, 1.57, 1.64, 1.70
161, 10000.00, -10000.00, -4300.62, -4172.26, 0.00, 0.00, 0.00, 0.00, 1.57, 1.64, 1.70
162, 10000.00, -10000.00, -4303.40, -4172.94, 0.00, 0.00, 0.00, 0.00, 1.57, 1.64, 1.70
163, 10000.00, -10000.00, -4303.37, -4168.74, 0.00, 0.00, 0.00, 0.00, 1.57, 1.64, 1.70
164, 10000.00, -10000.00, -4306.69, -4167.76, 0.00, 0.00, 0.00, 0.00, 1.57, 1.64, 1.70
165, 10000.00, -10000.00, -4299.86, -4175.17, 0.00, 0.00, 0.00, 0.00, 1.57, 1.64, 1.70
166, 10000.00, -10000.00, -4291.09, -4174.84, 0.00, 0.00, 0.00, 0.00, 1.57, 1.64, 1.70
167, 10000.00, -10000.00, -4311.60, -4163.78, 0.00, 0.00, 0.00, 0.00, 1.57, 1.64, 1.70
168, 10000.00, -10000.00, -4305.55, -4164.12, 0.00, 0.00, 0.00, 0.00, 1.57, 1.64, 1.70
169, 10000.00, -10000.00, -4294.13, -4176.83, 0.00, 0.00, 0.00, 0.00, 1.57, 1.64, 1.70
170, 10000.00, -10000.00, -4300.85, -4176.53, 0.00, 0.00, 0.00, 0.00, 1.57, 1.64, 1.70
171, 10000.00, -10000.00, -4287.53, -4186.82, 0.00, 0.00, 0.00, 0.00, 1.57, 1.64, 1.70
172, 10000.00, -10000.00, -4299.09, -4172.37, 0.00, 0.00, 0.00, 0.00, 1.57, 1.64, 1.70
173, 10000.00, -10000.00, -4297.51, -4170.95, 0.00, 0.00, 0.00, 0.00, 1.57, 1.64, 1.70
174, 10000.00, -10000.00, -4300.76, -4165.68, 0.00, 0.00, 0.00, 0.00, 1.57, 1.64, 1.70
175, 10000.00, -10000.00, -4300.34, -4169.15, 0.00, 0.00, 0.00, 0.00, 1.57, 1.64, 1.70
176, 10000.00, -10000.00, -4298.83, -4164.46, 0.00, 0.00, 0.00, 0.00, 1.57, 1.64, 1.70
177, 10000.00, -10000.00, -4301.59, -4162.31, 0.00, 0.00, 0.00, 0.00, 1.57, 1.64, 1.70
178, 10000.00, -10000.00, -4299.14, -4161.87, 0.00, 0.00, 0.00, 0.00, 1.57, 1.64, 1.70
179, 10000.00, -10000.00, -4294.90, -4173.69, 0.00, 0.00, 0.00, 0.00, 1.57, 1.64, 1.70
180, 10000.00, -10000.00, -4291.71, -4176.99, 0.00, 0.00, 0.00, 0.00, 1.57, 1.64, 1.70
181, 10000.00, -10000.00, -4302.71, -4168.34, 0.00, 0.00, 0.00, 0.00, 1.57, 1.64, 1.70
182, 10000.00, -10000.00, -4302.85, -4165.66, 0.00, 0.00, 0.00, 0.00, 1.57, 1.64, 1.70
183, 10000.00, -10000.00, -4293.17, -4175.51, 0.00, 0.00, 0.00, 0.00, 1.57, 1.64, 1.70
184, 10000.00, -10000.00, -4307.17, -4165.69, 0.00, 0.00, 0.00, 0.00, 1.57, 1.64, 1.70
185, 10000.00, -10000.00, -4287.23, -4186.63, 0.00, 0.00, 0.00, 0.00, 1.57, 1.64, 1.70
186, 10000.00, -10000.00, -4281.95, -4186.74, 0.00, 0.00, 0.00, 0.00, 1.57, 1.64, 1.70
187, 10000.00, -10000.00, -4304.55, -4168.12, 0.00, 0.00, 0.00, 0.00, 1.57, 1.64, 1.70
188, 10000.00, -10000.00, -4282.80, -4184.69, 0.00, 0.00, 0.00, 0.00, 1.57, 1.64, 1.70
189, 10000.00, -10000.00, -4290.48, -4177.44, 0.00, 0.00, 0.00, 0.00, 1.57, 1.64, 1.70
190, 10000.00, -10000.00, -4295.10, -4175.23, 0.00, 0.00, 0.00, 0.00, 1.57, 1.64, 1.70
191, 10000.00, -10000.00, -4291.19, -4174.08, 0.00, 0.00, 0.00, 0.00, 1.57, 1.64, 1.70
192, 10000.00, -10000.00, -4297.55, -4170.50, 0.00, 0.00, 0.00, 0.00, 1.57, 1.64, 1.70
193, 10000.00, -10000.00, -4295.51, -4182.19, 0.00, 0.00, 0.00, 0.00, 1.57, 1.64, 1.70
194, 10000.00, -10000.00, -4302.14, -4173.45, 0.00, 0.00, 0.00, 0.00, 1.57, 1.64, 1.70
195, 10000.00, -10000.00, -4302.87, -4172.88, 0.00, 0.00, 0.00, 0.00, 1.57, 1.64, 1.70
196, 10000.00, -10000.00, -4293.44, -4181.66, 0.00, 0.00, 0.00, 0.00, 1.57, 1.64, 1.70
197, 10000.00, -10000.00, -4290.13, -4181.94, 0.00, 0.00, 0.00, 0.00, 1.57, 1.64, 1.70
198, 10000.00, -10000.00, -4300.85, -4166.12, 0.00, 0.00, 0.00, 0.00, 1.57, 1.64, 1.70
199, 10000.00, -10000.00, -4301.20, -4159.41, 0.00, 0.00, 0.00, 0.00, 1.57, 1.64, 1.70
200, 10000.00, -10000.00, -4291.54, -4170.23, 0.00, 0.00, 0.00, 0.00, 1.57, 1.64, 1.70
201, 10000.00, -10000.00, -4291.15, -4174.33, 0.00, 0.00, 0.00, 0.00, 1.57, 1.64, 1.70
202, 10000.00, -10000.00, -4304.03, -4168.64, 0.00, 0.00, 0.00, 0.00, 1.57, 1.64, 1.70
203, 10000.00, -10000.00, -4289.43, -4173.28, 0.00, 0.00, 0.00, 0.00, 1.57, 1.64, 1.70
204, 10000.00, -10000.00, -4289.61, -4173.21, 0.00, 0.00, 0.00, 0.00, 1.57, 1.64, 1.70
205, 10000.00, -10000.00, -4290.02, -4174.54, 0.00, 0.00, 0.00, 0.00, 1.57, 1.64, 1.70
206, 10000.00, -10000.00, -4284.04, -4186.53, 0.00, 0.00, 0.00, 0.00, 1.57, 1.64, 1.70
207, 10000.00, -10000.00, -4309.07, -4155.19, 0.00, 0.00, 0.00, 0.00, 1.57, 1.64, 1.70
208, 10000.00, -10000.00, -4306.74, -4154.79, 0.00, 0.00, 0.00, 0.00, 1.57, 1.64, 1.70
209, 10000.00, -10000.00, -4305.23, -4155.75, 0.00, 0.00, 0.00, 0.00, 1.57, 1.64, 1.70
210, 10000.00, -10000.00, -4304.42, -4168.47, 0.00, 0.00, 0.00, 0.00, 1.57, 1.64, 1.70
211, 10000.00, -10000.00, -4292.99, -4179.91, 0.00, 0.00, 0.00, 0.00, 1.57, 1.64, 1.70
212, 10000.00, -10000.00, -4305.54, -4168.18, 0.00, 0.00, 0.00, 0.00, 1.57, 1.64, 1.70
213, 10000.00, -10000.00, -4303.54, -4168.72, 0.00, 0.00, 0.00, 0.00, 1.57, 1.64, 1.70
214, 10000.00, -10000.00, -4299.58, -4173.04, 0.00, 0.00, 0.00, 0.00, 1.57, 1.64, 1.70
215, 10000.00, -10000.00, -4301.61, -4169.73, 0.00, 0.00, 0.00, 0.00, 1.57, 1.64, 1.70
216, 10000.00, -10000.00, -4306.05, -4158.45, 0.00, 0.00, 0.00, 0.00, 1.57, 1.64, 1.70
217, 10000.00, -10000.00, -4307.39, -4158.36, 0.00, 0.00, 0.00, 0.00, 1.57, 1.64, 1.70
218, 10000.00, -10000.00, -4304.04, -4163.74, 0.00, 0.00, 0.00, 0.00, 1.57, 1.64, 1.70
219, 10000.00, -10000.00, -4310.68, -4158.20, 0.00, 0.00, 0.00, 0.00, 1.57, 1.64, 1.70
220, 10000.00, -10000.00, -4318.31, -4157.30, 0.00, 0.00, 0.00, 0.00, 1.57, 1.64, 1.70
221, 10000.00, -10000.00, -4302.72, -4165.05, 0.00, 0.00, 0.00, 0.00, 1.57, 1.64, 1.70
222, 10000.00, -10000.00, -4297.07, -4168.89, 0.00, 0.00, 0.00, 0.00, 1.57, 1.64, 1.70
223, 10000.00, -10000.00, -4293.43, -4170.70, 0.00, 0.00, 0.00, 0.00, 1.57, 1.64, 1.70
224, 10000.00, -10000.00, -4295.12, -4169.01, 0.00, 0.00, 0.00, 0.00, 1.57, 1.64, 1.70
225, 10000.00, -10000.00, -4303.73, -4165.69, 0.00, 0.00, 0.00, 0.00, 1.57, 1.64, 1.70
226, 10000.00, -10000.00, -4288.73, -4178.71, 0.00, 0.00, 0.00, 0.00, 1.57, 1.64, 1.70
227, 10000.00, -10000.00, -4301.11, -4174.86, 0.00, 0.00, 0.00, 0.00, 1.57, 1.64, 1.70
228, 10000.00, -10000.00, -4304.40, -4163.96, 0.00, 0.00, 0.00, 0.00, 1.57, 1.64, 1.70
229, 10000.00, -10000.00, -4299.77, -4163.00, 0.00, 0.00, 0.00, 0.00, 1.57, 1.64, 1.70
230, 10000.00, -10000.00, -4304.46, -4164.01, 0.00, 0.00, 0.00, 0.00, 1.57, 1.64, 1.70
231, 10000.00, -10000.00, -4291.16, -4188.41, 0.00, 0.00, 0.00, 0.00, 1.57, 1.64, 1.70
232, 10000.00, -10000.00, -4283.94, -4189.64, 0.00, 0.00, 0.00, 0.00, 1.57, 1.64, 1.70
233, 10000.00, -10000.00, -4287.99, -4191.53, 0.00, 0.00, 0.00, 0.00, 1.57, 1.64, 1.70
234, 10000.00, -10000.00, -4300.13, -4181.37, 0.00, 0.00, 0.00, 0.00, 1.57, 1.64, 1.70
235, 10000.00, -10000.00, -4294.13, -4184.15, 0.00, 0.00, 0.00, 0.00, 1.57, 1.64, 1.70
236, 10000.00, -10000.00, -4300.71, -4180.75, 0.00, 0.00, 0.00, 0.00, 1.57, 1.64, 1.70
237, 10000.00, -10000.00, -4290.97, -4183.73, 0.00, 0.00, 0.00, 0.00, 1.57, 1.64, 1.70
238, 10000.00, -10000.00, -4297.96, -4178.24, 0.00, 0.00, 0.00, 0.00, 1.57, 1.64, 1.70
239, 10000.00, -10000.00, -4294.06, -4185.11, 0.00, 0.00, 0.00, 0.00, 1.57, 1.64, 1.70
240, 10000.00, -10000.00, -4295.47, -4180.63, 0.00, 0.00, 0.00, 0.00, 1.57, 1.64, 1.70
241, 10000.00, -10000.00, -4296.48, -4179.18, 0.00, 0.00, 0.00, 0.00, 1.57, 1.64, 1.70
242, 10000.00, -10000.00, -4294.72, -4181.85, 0.00, 0.00, 0.00, 0.00, 1.57, 1.64, 1.70
243, 10000.00, -10000.00, -4290.96, -4178.35, 0.00, 0.00, 0.00, 0.00, 1.57, 1.64, 1.70
244, 10000.00, -10000.00, -4287.60, -4184.43, 0.00, 0.00, 0.00, 0.00, 1.57, 1.64, 1.70
245, 10000.00, -10000.00, -4290.57, -4186.40, 0.00, 0.00, 0.00, 0.00, 1.57, 1.64, 1.70
246, 10000.00, -10000.00, -4288.26, -4183.15, 0.00, 0.00, 0.00, 0.00, 1.57, 1.64, 1.70
247, 10000.00, -10000.00, -4282.29, -4190.66, 0.00, 0.00, 0.00, 0.00, 1.57, 1.64, 1.70
248, 10000.00, -10000.00, -4284.14, -4190.31, 0.00, 0.00, 0.00, 0.00, 1.57, 1.64, 1.70
249, 10000.00, -10000.00, -4284.54, -4192.52, 0.00, 0.00, 0.00, 0.00, 1.57, 1.64, 1.70
250, 10000.00, -10000.00, -4281.00, -4191.99, 0.00, 0.00, 0.00, 0.00, 1.57, 1.64, 1.70
251, 10000.00, -10000.00, -4295.82, -4174.63, 0.00, 0.00, 0.00, 0.00, 1.57, 1.64, 1.70
252, 10000.00, -10000.00, -4291.02, -4186.43, 0.00, 0.00, 0.00, 0.00, 1.57, 1.64, 1.70
253, 10000.00, -10000.00, -4296.60, -4180.89, 0.00, 0.00, 0.00, 0.00, 1.57, 1.64, 1.70
254, 10000.00, -10000.00, -4292.56, -4174.89, 0.00, 0.00, 0.00, 0.00, 1.57, 1.64, 1.70
255, 10000.00, -10000.00, -4287.61, -4184.74, 0.00, 0.00, 0.00, 0.00, 1.57, 1.64, 1.70
0, 10000.00, -10000.00, -4283.12, -4191.14, 0.00, 0.00, 0.00, 0.00, 1.57, 1.64, 1.70
1, 10000.00, -10000.00, -4294.94, -4171.42, 0.00, 0.00, 0.00, 0.00, 1.57, 1.64, 1.70
2, 10000.00, -10000.00, -4290.48, -4186.40, 0.00, 0.00, 0.00, 0.00, 1.57, 1.64, 1.70
3, 10000.00, -10000.00, -4290.19, -4190.69, 0.00, 0.00, 0.00, 0.00, 1.57, 1.64, 1.70
4, 10000.00, -10000.00, -4291.11, -4186.07, 0.00, 0.00, 0.00, 0.00, 1.57, 1.64, 1.70
5, 10000.00, -10000.00, -4299.24, -4179.45, 0.00, 0.00, 0.00, 0.00, 1.57, 1.64, 1.70
6, 10000.00, -10000.00, -4288.66, -4184.06, 0.00, 0.00, 0.00, 0.00, 1.57, 1.64, 1.70
7, 10000.00, -10000.00, -4294.58, -4182.45, 0.00, 0.00, 0.00, 0.00, 1.57, 1.64, 1.70
8, 10000.00, -10000.00, -4288.70, -4185.89, 0.00, 0.00, 0.00, 0.00, 1.57, 1.64, 1.70
9, 10000.00, -10000.00, -4297.34, -4188.98, 0.00, 0.00, 0.00, 0.00, 1.57, 1.64, 1.70
10, 10000.00, -10000.00, -4288.67, -4188.18, 0.00, 0.00, 0.00, 0.00, 1.57, 1.64, 1.70
11, 10000.00, -10000.00, -4278.33, -4196.15, 0.00, 0.00, 0.00, 0.00, 1.57, 1.64, 1.70
12, 10000.00, -10000.00, -4284.91, -4190.67, 0.00, 0.00, 0.00, 0.00, 1.57, 1.64, 1.70
13, 10000.00, -10000.00, -4287.53, -4179.46, 0.00, 0.00, 0.00, 0.00, 1.57, 1.64, 1.70
14, 10000.00, -10000.00, -4288.34, -4184.77, 0.00, 0.00, 0.00, 0.00, 1.57, 1.64, 1.70
15, 10000.00, -10000.00, -4279.88, -4195.21, 0.00, 0.00, 0.00, 0.00, 1.57, 1.64, 1.70
16, 10000.00, -10000.00, -4276.28, -4193.93, 0.00, 0.00, 0.00, 0.00, 1.57, 1.64, 1.70
17, 10000.00, -10000.00, -4274.25, -4200.77, 0.00, 0.00, 0.00, 0.00, 1.57, 1.64, 1.70
18, 10000.00, -10000.00, -4282.06, -4198.39, 0.00, 0.00, 0.00, 0.00, 1.57, 1.64, 1.70
19, 10000.00, -10000.00, -4285.37, -4193.74, 0.00, 0.00, 0.00, 0.00, 1.57, 1.64, 1.70
20, 10000.00, -10000.00, -4286.63, -4186.17, 0.00, 0.00, 0.00, 0.00, 1.57, 1.64, 1.70
21, 10000.00, -10000.00, -4270.17, -4209.89, 0.00, 0.00, 0.00, 0.00, 1.57, 1.64, 1.70
22, 10000.00, -10000.00, -4296.97, -4181.73, 0.00, 0.00, 0.00, 0.00, 1.57, 1.64, 1.70
23, 10000.00, -10000.00, -4283.80, -4185.23, 0.00, 0.00, 0.00, 0.00, 1.57, 1.64, 1.70
24, 10000.00, -10000.00, -4290.16, -4183.57, 0.00, 0.00, 0.00, 0.00, 1.57, 1.64, 1.70
25, 10000.00, -10000.00, -4281.80, -4191.63, 0.00, 0.00, 0.00, 0.00, 1.57, 1.64, 1.70
26, 10000.00, -10000.00, -4281.67, -4192.83, 0.00, 0.00, 0.00, 0.00, 1.57, 1.64, 1.70
27, 10000.00, -10000.00, -4282.39, -4193.38, 0.00, 0.00, 0.00, 0.00, 1.57, 1.64, 1.70
28, 10000.00, -10000.00, -4284.30, -4187.13, 0.00, 0.00, 0.00, 0.00, 1.57, 1.64, 1.70
29, 10000.00, -10000.00, -4282.47, -4196.05, 0.00, 0.00, 0.00, 0.00, 1.57, 1.64, 1.70
30, 10000.00, -10000.00, -4285.38, -4190.67, 0.00, 0.00, 0.00, 0.00, 1.57, 1.64, 1.70
31, 10000.00, -10000.00, -4292.00, -4189.88, 0.00, 0.00, 0.00, 0.00, 1.57, 1.64, 1.70
32, 10000.00, -10000.00, -4282.53, -4192.97, 0.00, 0.00, 0.00, 0.00, 1.57, 1.64, 1.70
33, 10000.00, -10000.00, -4287.16, -4184.32, 0.00, 0.00, 0.00, 0.00, 1.57, 1.64, 1.70
34, 10000.00, -10000.00, -4279.65, -4192.18, 0.00, 0.00, 0.00, 0.00, 1.57, 1.64, 1.70
35, 10000.00, -10000.00, -4278.01, -4198.21, 0.00, 0.00, 0.00, 0.00, 1.57, 1.64, 1.70
36, 10000.00, -10000.00, -4283.88, -4186.69, 0.00, 0.00, 0.00, 0.00, 1.57, 1.64, 1.70
37, 10000.00, -10000.00, -4285.14, -4184.54, 0.00, 0.00, 0.00, 0.00, 1.57, 1.64, 1.70
38, 10000.00, -10000.00, -4279.57, -4193.21, 0.00, 0.00, 0.00, 0.00, 1.57, 1.64, 1.70
39, 10000.00, -10000.00, -4276.81, -4195.62, 0.00, 0.00, 0.00, 0.00, 1.57, 1.64, 1.70
40, 10000.00, -10000.00, -4292.20, -4179.46, 0.00, 0.00, 0.00, 0.00, 1.57, 1.64, 1.70
41, 10000.00, -10000.00, -4286.10, -4185.63, 0.00, 0.00, 0.00, 0.00, 1.57, 1.64, 1.70
42, 10000.00, -10000.00, -4273.20, -4194.32, 0.00, 0.00, 0.00, 0.00, 1.57, 1.64, 1.70
43, 10000.00, -10000.00, -4271.56, -4202.57, 0.00, 0.00, 0.00, 0.00, 1.57, 1.64, 1.70
44, 10000.00, -10000.00, -4265.40, -4210.39, 0.00, 0.00, 0.00, 0.00, 1.57, 1.64, 1.70
45, 10000.00, -10000.00, -4278.72, -4194.58, 0.00, 0.00, 0.00, 0.00, 1.57, 1.64, 1.70
46, 10000.00, -10000.00, -4279.11, -4193.73, 0.00, 0.00, 0.00, 0.00, 1.57, 1.64, 1.70
47, 10000.00, -10000.00, -4279.99, -4193.47, 0.00, 0.00, 0.00, 0.00, 1.57, 1.64, 1.70
48, 10000.00, -10000.00, -4281.20, -4192.91, 0.00, 0.00, 0.00, 0.00, 1.57, 1.64, 1.70
49, 10000.00, -10000.00, -4283.44, -4191.14, 0.00, 0.00, 0.00, 0.00, 1.57, 1.64, 1.70
50, 10000.00, -10000.00, -4278.65, -4199.19, 0.00, 0.00, 0.00, 0.00, 1.57, 1.64, 1.70
51, 10000.00, -10000.00, -4291.15, -4185.19, 0.00, 0.00, 0.00, 0.00, 1.57, 1.64, 1.70
52, 10000.00, -10000.00, -4295.97, -4184.77, 0.00, 0.00, 0.00, 0.00, 1.57, 1.64, 1.70
53, 10000.00, -10000.00, -4283.60, -4193.22, 0.00, 0.00, 0.00, 0.00, 1.57, 1.64, 1.70
54, 10000.00, -10000.00, -4274.80, -4198.20, 0.00, 0.00, 0.00, 0.00, 1.57, 1.64, 1.70
55, 10000.00, -10000.00, -4288.30, -4183.11, 0.00, 0.00, 0.00, 0.00, 1.57, 1.64, 1.70
56, 10000.00, -10000.00, -4283.56, -4188.95, 0.00, 0.00, 0.00, 0.00, 1.57, 1.64, 1.70
57, 10000.00, -10000.00, -4284.92, -4191.06, 0.00, 0.00, 0.00, 0.00, 1.57, 1.64, 1.70
58, 10000.00, -10000.00, -4296.05, -4179.90, 0.00, 0.00, 0.00, 0.00, 1.57, 1.64, 1.70
59, 10000.00, -10000.00, -4287.21, -4191.44, 0.00, 0.00, 0.00, 0.00, 1.57, 1.64, 1.70
60, 10000.00, -10000.00, -4278.83, -4196.88, 0.00, 0.00, 0.00, 0.00, 1.57, 1.64, 1.70
61, 10000.00, -10000.00, -4290.58, -4187.15, 0.00, 0.00, 0.00, 0.00, 1.57, 1.64, 1.70
62, 10000.00, -10000.00, -4283.80, -4189.28, 0.00, 0.00, 0.00, 0.00, 1.57, 1.64, 1.70
63, 10000.00, -10000.00, -4277.53, -4200.95, 0.00, 0.00, 0.00, 0.00, 1.57, 1.64, 1.70
64, 10000.00, -10000.00, -4285.26, -4192.43, 0.00, 0.00, 0.00, 0.00, 1.57, 1.64, 1.70
65, 10000.00, -10000.00, -4287.35, -4189.49, 0.00, 0.00, 0.00, 0.00, 1.57, 1.64, 1.70
66, 10000.00, -10000.00, -4286.31, -4189.25, 0.00, 0.00, 0.00, 0.00, 1.57, 1.64, 1.70
67, 10000.00, -10000.00, -4280.47, -4187.95, 0.00, 0.00, 0.00, 0.00, 1.57, 1.64, 1.70
68, 10000.00, -10000.00, -4274.10, -4194.85, 0.00, 0.00, 0.00, 0.00, 1.57, 1.64, 1.70
69, 10000.00, -10000.00, -4283.66, -4188.21, 0.00, 0.00, 0.00, 0.00, 1.57, 1.64, 1.70
70, 10000.00, -10000.00, -4283.18, -4186.27, 0.00, 0.00, 0.00, 0.00, 1.57, 1.64, 1.70
71, 10000.00, -10000.00, -4275.76, -4194.53, 0.00, 0.00, 0.00, 0.00, 1.57, 1.64, 1.70
72, 10000.00, -10000.00, -4275.63, -4190.62, 0.00, 0.00, 0.00, 0.00, 1.57, 1.64, 1.70
73, 10000.00, -10000.00, -4274.98, -4190.12, 0.00, 0.00, 0.00, 0.00, 1.57, 1.64, 1.70
74, 10000.00, -10000.00, -4275.93, -4193.54, 0.00, 0.00, 0.00, 0.00, 1.57, 1.64, 1.70
75, 10000.00, -10000.00, -4287.62, -4179.39, 0.00, 0.00, 0.00, 0.00, 1.57, 1.64, 1.70
76, 10000.00, -10000.00, -4287.14, -4180.23, 0.00, 0.00, 0.00, 0.00, 1.57, 1.64, 1.70
77, 10000.00, -10000.00, -4283.30, -4187.30, 0.00, 0.00, 0.00, 0.00, 1.57, 1.64, 1.70
78, 10000.00, -10000.00, -4290.71, -4189.85, 0.00, 0.00, 0.00, 0.00, 1.57, 1.64, 1.70
79, 10000.00, -10000.00, -4294.81, -4185.30, 0.00, 0.00, 0.00, 0.00, 1.57, 1.64, 1.70
80, 10000.00, -10000.00, -4294.13, -4186.18, 0.00, 0.00, 0.00, 0.00, 1.57, 1.64, 1.70
81, 10000.00, -10000.00, -4279.58, -4192.35, 0.00, 0.00, 0.00, 0.00, 1.57, 1.64, 1.70
82, 10000.00, -10000.00, -4281.67, -4188.33, 0.00, 0.00, 0.00, 0.00, 1.57, 1.64, 1.70
83, 10000.00, -10000.00, -4273.93, -4201.52, 0.00, 0.00, 0.00, 0.00, 1.57, 1.64, 1.70
84, 10000.00, -10000.00, -4279.62, -4191.34, 0.00, 0.00, 0.00, 0.00, 1.57, 1.64, 1.70
85, 10000.00, -10000.00, -4285.94, -4194.89, 0.00, 0.00, 0.00, 0.00, 1.57, 1.64, 1.70
86, 10000.00, -10000.00, -4285.20, -4193.23, 0.00, 0.00, 0.00, 0.00, 1.57, 1.64, 1.70
87, 10000.00, -10000.00, -4275.52, -4196.58, 0.00, 0.00, 0.00, 0.00, 1.57, 1.64, 1.70
88, 10000.00, -10000.00, -4278.59, -4193.29, 0.00, 0.00, 0.00, 0.00, 1.57, 1.64, 1.70
89, 10000.00, -10000.00, -4281.71, -4195.11, 0.00, 0.00, 0.00, 0.00, 1.57, 1.64, 1.70
90, 10000.00, -10000.00, -4276.57, -4197.79, 0.00, 0.00, 0.00, 0.00, 1.57, 1.64, 1.70
91, 10000.00, -10000.00, -4274.35, -4196.94, 0.00, 0.00, 0.00, 0.00, 1.57, 1.64, 1.70
92, 10000.00, -10000.00, -4263.31, -4203.24, 0.00, 0.00, 0.00, 0.00, 1.57, 1.64, 1.70
93, 10000.00, -10000.00, -4269.75, -4198.96, 0.00, 0.00, 0.00, 0.00, 1.57, 1.64, 1.70
94, 10000.00, -10000.00, -4277.40, -4192.13, 0.00, 0.00, 0.00, 0.00, 1.57, 1.64, 1.70
95, 10000.00, -10000.00, -4282.10, -4190.40, 0.00, 0.00, 0.00, 0.00, 1.57, 1.64, 1.70
96, 10000.00, -10000.00, -4274.51, -4196.62, 0.00, 0.00, 0.00, 0.00, 1.57, 1.64, 1.70
97, 10000.00, -10000.00, -4279.36, -4192.71, 0.00, 0.00, 0.00, 0.00, 1.57, 1.64, 1.70
98, 10000.00, -10000.00, -4274.86, -4201.66, 0.00, 0.00, 0.00, 0.00, 1.57, 1.64, 1.70
99, 10000.00, -10000.00, -4267.76, -4199.06, 0.00, 0.00, 0.00, 0.00, 1.57, 1.64, 1.70
100, 10000.00, -10000.00, -4275.36, -4195.04, 0.00, 0.00, 0.00, 0.00, 1.57, 1.64, 1.70
101, 10000.00, -10000.00, -4272.53, -4201.89, 0.00, 0.00, 0.00, 0.00, 1.57, 1.64, 1.70
102, 10000.00, -10000.00, -4272.23, -4204.21, 0.00, 0.00, 0.00, 0.00, 1.57, 1.64, 1.70
103, 10000.00, -10000.00, -4265.92, -4208.00, 0.00, 0.00, 0.00, 0.00, 1.57, 1.64, 1.70
104, 10000.00, -10000.00, -4272.65, -4196.11, 0.00, 0.00, 0.00, 0.00, 1.57, 1.64, 1.70
105, 10000.00, -10000.00, -4268.10, -4207.95, 0.00, 0.00, 0.00, 0.00, 1.57, 1.64, 1.70
106, 10000.00, -10000.00, -4273.98, -4202.27, 0.00, 0.00, 0.00, 0.00, 1.57, 1.64, 1.70
107, 10000.00, -10000.00, -4277.96, -4203.07, 0.00, 0.00, 0.00, 0.00, 1.57, 1.64, 1.70
108, 10000.00, -10000.00, -4274.27, -4200.63, 0.00, 0.00, 0.00, 0.00, 1.57, 1.64, 1.70
109, 10000.00, -10000.00, -4272.84, -4201.02, 0.00, 0.00, 0.00, 0.00, 1.57, 1.64, 1.70
110, 10000.00, -10000.00, -4267.06, -4207.50, 0.00, 0.00, 0.00, 0.00, 1.57, 1.64, 1.70
111, 10000.00, -10000.00, -4277.76, -4197.55, 0.00, 0.00, 0.00, 0.00, 1.57, 1.64, 1.70
112, 10000.00, -10000.00, -4272.28, -4200.46, 0.00, 0.00, 0.00, 0.00, 1.57, 1.64, 1.70
113, 10000.00, -10000.00, -4275.74, -4196.09, 0.00, 0.00, 0.00, 0.00, 1.57, 1.64, 1.70
114, 10000.00, -10000.00, -4273.89, -4201.81, 0.00, 0.00, 0.00, 0.00, 1.57, 1.64, 1.70
115, 10000.00, -10000.00, -4280.96, -4197.87, 0.00, 0.00, 0.00, 0.00, 1.57, 1.64, 1.70
116, 10000.00, -10000.00, -4290.25, -4188.26, 0.00, 0.00, 0.00, 0.00, 1.57, 1.64, 1.70
117, 10000.00, -10000.00, -4292.63, -4188.39, 0.00, 0.00, 0.00, 0.00, 1.57, 1.64, 1.70
118, 10000.00, -10000.00, -4284.92, -4188.86, 0.00, 0.00, 0.00, 0.00, 1.57, 1.64, 1.70
119, 10000.00, -10000.00, -4264.10, -4209.00, 0.00, 0.00, 0.00, 0.00, 1.57, 1.64, 1.70
120, 10000.00, -10000.00, -4277.07, -4203.02, 0.00, 0.00, 0.00, 0.00, 1.57, 1.64, 1.70
121, 10000.00, -10000.00, -4269.37, -4203.19, 0.00, 0.00, 0.00, 0.00, 1.57, 1.64, 1.70
122, 10000.00, -10000.00, -4278.41, -4190.91, 0.00, 0.00, 0.00, 0.00, 1.57, 1.64, 1.70
123, 10000.00, -10000.00, -4279.15, -4194.21, 0.00, 0.00, 0.00, 0.00, 1.57, 1.64, 1.70
124, 10000.00, -10000.00, -4276.21, -4202.66, 0.00, 0.00, 0.00, 0.00, 1.57, 1.64, 1.70
125, 10000.00, -10000.00, -4281.08, -4194.46, 0.00, 0.00, 0.00, 0.00, 1.57, 1.64, 1.70
126, 10000.00, -10000.00, -4279.26, -4195.57, 0.00, 0.00, 0.00, 0.00, 1.57, 1.64, 1.70
127, 10000.00, -10000.00, -4278.35, -4201.10, 0.00, 0.00, 0.00, 0.00, 1.57, 1.64, 1.70
128, 10000.00, -10000.00, -4274.97, -4204.93, 0.00, 0.00, 0.00, 0.00, 1.57, 1.64, 1.70
129, 10000.00, -10000.00, -4276.56, -4196.70, 0.00, 0.00, 0.00, 0.00, 1.57, 1.64, 1.70
130, 10000.00, -10000.00, -4277.72, -4196.73, 0.00, 0.00, 0.00, 0.00, 1.57, 1.64, 1.70
131, 10000.00, -10000.00, -4274.06, -4203.32, 0.00, 0.00, 0.00, 0.00, 1.57, 1.64, 1.70
132, 10000.00, -10000.00, -4274.05, -4198.43, 0.00, 0.00, 0.00, 0.00, 1.57, 1.64, 1.70
133, 10000.00, -10000.00, -4276.67, -4197.43, 0.00, 0.00, 0.00, 0.00, 1.57, 1.64, 1.70
134, 10000.00, -10000.00, -4275.61, -4200.69, 0.00, 0.00, 0.00, 0.00, 1.57, 1.64, 1.70
135, 10000.00, -10000.00, -4276.66, -4197.26, 0.00, 0.00, 0.00, 0.00, 1.57, 1.64, 1.70
136, 10000.00, -10000.00, -4273.70, -4202.10, 0.00, 0.00, 0.00, 0.00, 1.57, 1.64, 1.70
137, 10000.00, -10000.00, -4275.64, -4199.19, 0.00, 0.00, 0.00, 0.00, 1.57, 1.64, 1.70
138, 10000.00, -10000.00, -4278.09, -4201.92, 0.00, 0.00, 0.00, 0.00, 1.57, 1.64, 1.70
139, 10000.00, -10000.00, -4280.07, -4197.03, 0.00, 0.00, 0.00, 0.00, 1.57, 1.64, 1.70
140, 10000.00, -10000.00, -4272.51, -4205.81, 0.00, 0.00, 0.00, 0.00, 1.57, 1.64, 1.70
141, 10000.00, -10000.00, -4273.09, -4204.33, 0.00, 0.00, 0.00, 0.00, 1.57, 1.64, 1.70
142, 10000.00, -10000.00, -4269.11, -4202.44, 0.00, 0.00, 0.00, 0.00, 1.57, 1.64, 1.70
143, 10000.00, -10000.00, -4273.23, -4196.15, 0.00, 0.00, 0.00, 0.00, 1.57, 1.64, 1.70
144, 10000.00, -10000.00, -4265.67, -4206.61, 0.00, 0.00, 0.00, 0.00, 1.57, 1.64, 1.70
145, 10000.00, -10000.00, -4268.00, -4206.91, 0.00, 0.00, 0.00, 0.00, 1.57, 1.64, 1.70
146, 10000.00, -10000.00, -4268.77, -4207.82, 0.00, 0.00, 0.00, 0.00, 1.57, 1.64, 1.70
147, 10000.00, -10000.00, -4273.59, -4200.12, 0.00, 0.00, 0.00, 0.00, 1.57, 1.64, 1.70
148, 10000.00, -10000.00, -4272.59, -4204.78, 0.00, 0.00, 0.00, 0.00, 1.57, 1.64, 1.70
149, 10000.00, -10000.00, -4266.08, -4210.39, 0.00, 0.00, 0.00, 0.00, 1.57, 1.64, 1.70
150, 10000.00, -10000.00, -4284.99, -4190.88, 0.00, 0.00, 0.00, 0.00, 1.57, 1.64, 1.70
151, 10000.00, -10000.00, -4290.76, -4182.52, 0.00, 0.00, 0.00, 0.00, 1.57, 1.64, 1.70
152, 10000.00, -10000.00, -4283.85, -4191.02, 0.00, 0.00, 0.00, 0.00, 1.57, 1.64, 1.70
153, 10000.00, -10000.00, -4276.99, -4195.32, 0.00, 0.00, 0.00, 0.00, 1.57, 1.64, 1.70
154, 10000.00, -10000.00, -4285.70, -4194.79, 0.00, 0.00, 0.00, 0.00, 1.57, 1.64, 1.70
155, 10000.00, -10000.00, -4275.98, -4198.08, 0.00, 0.00, 0.00, 0.00, 1.57, 1.64, 1.70
156, 10000.00, -10000.00, -4276.82, -4194.06, 0.00, 0.00, 0.00, 0.00, 1.57, 1.64, 1.70
157, 10000.00, -10000.00, -4272.66, -4194.38, 0.00, 0.00, 0.00, 0.00, 1.57, 1.64, 1.70
158, 10000.00, -10000.00, -4279.46, -4188.35, 0.00, 0.00, 0.00, 0.00, 1.57, 1.64, 1.70
159, 10000.00, -10000.00, -4275.37, -4193.58, 0.00, 0.00, 0.00, 0.00, 1.57, 1.64, 1.70
160, 10000.00, -10000.00, -4261.88, -4202.35, 0.00, 0.00, 0.00, 0.00, 1.57, 1.64, 1.70
161, 10000.00, -10000.00, -4267.58, -4194.81, 0.00, 0.00, 0.00, 0.00, 1.57, 1.64, 1.70
162, 10000.00, -10000.00, -4269.04, -4194.75, 0.00, 0.00, 0.00, 0.00, 1.57, 1.64, 1.70
163, 10000.00, -10000.00, -4266.01, -4189.75, 0.00, 0.00, 0.00, 0.00, 1.57, 1.64, 1.70
164, 10000.00, -10000.00, -4262.57, -4199.66, 0.00, 0.00, 0.00, 0.00, 1.57, 1.64, 1.70
165, 10000.00, -10000.00, -4265.47, -4199.63, 0.00, 0.00, 0.00, 0.00, 1.57, 1.64, 1.70
166, 10000.00, -10000.00, -4266.52, -4199.11, 0.00, 0.00, 0.00, 0.00, 1.57, 1.64, 1.70
167, 10000.00, -10000.00, -4264.52, -4197.03, 0.00, 0.00, 0.00, 0.00, 1.57, 1.64, 1.70
168, 10000.00, -10000.00, -4268.38, -4192.06, 0.00, 0.00, 0.00, 0.00, 1.57, 1.64, 1.70
169, 10000.00, -10000.00, -4263.84, -4201.88, 0.00, 0.00, 0.00, 0.00, 1.57, 1.64, 1.70
170, 10000.00, -10000.00, -4262.53, -4202.07, 0.00, 0.00, 0.00, 0.00, 1.57, 1.64, 1.70
171, 10000.00, -10000.00, -4273.79, -4195.32, 0.00, 0.00, 0.00, 0.00, 1.57, 1.64, 1.70
172, 10000.00, -10000.00, -4268.78, -4198.95, 0.00, 0.00, 0.00, 0.00, 1.57, 1.64, 1.70
173, 10000.00, -10000.00, -4267.36, -4203.22, 0.00, 0.00, 0.00, 0.00, 1.57, 1.64, 1.70
174, 10000.00, -10000.00, -4259.11, -4211.39, 0.00, 0.00, 0.00, 0.00, 1.57, 1.64, 1.70
175, 10000.00, -10000.00, -4269.06, -4206.34, 0.00, 0.00, 0.00, 0.00, 1.57, 1.64, 1.70
176, 10000.00, -10000.00, -4265.67, -4207.42, 0.00, 0.00, 0.00, 0.00, 1.57, 1.64, 1.70
177, 10000.00, -10000.00, -4258.15, -4212.65, 0.00, 0.00, 0.00, 0.00, 1.57, 1.64, 1.70
178, 10000.00, -10000.00, -4266.39, -4206.49, 0.00, 0.00, 0.00, 0.00, 1.57, 1.64, 1.70
179, 10000.00, -10000.00, -4269.53, -4202.78, 0.00, 0.00, 0.00, 0.00, 1.57, 1.64, 1.70
180, 10000.00, -10000.00, -4270.44, -4203.07, 0.00, 0.00, 0.00, 0.00, 1.57, 1.64, 1.70
181, 10000.00, -10000.00, -4265.25, -4206.56, 0.00, 0.00, 0.00, 0.00, 1.57, 1.64, 1.70
182, 10000.00, -10000.00, -4260.00, -4210.65, 0.00, 0.00, 0.00, 0.00, 1.57, 1.64, 1.70
183, 10000.00, -10000.00, -4260.39, -4209.30, 0.00, 0.00, 0.00, 0.00, 1.57, 1.64, 1.70
184, 10000.00, -10000.00, -4259.06, -4215.13, 0.00, 0.00, 0.00, 0.00, 1.57, 1.64, 1.70
185, 10000.00, -10000.00, -4254.27, -4214.57, 0.00, 0.00, 0.00, 0.00, 1.57, 1.64, 1.70
186, 10000.00, -10000.00, -4261.99, -4204.59, 0.00, 0.00, 0.00, 0.00, 1.57, 1.64, 1.70
187, 10000.00, -10000.00, -4257.08, -4213.13, 0.00, 0.00, 0.00, 0.00, 1.57, 1.64, 1.70
188, 10000.00, -10000.00, -4258.01, -4213.00, 0.00, 0.00, 0.00, 0.00, 1.57, 1.64, 1.70
189, 10000.00, -10000.00, -4252.54, -4217.35, 0.00, 0.00, 0.00, 0.00, 1.57, 1.64, 1.70
190, 10000.00, -10000.00, -4264.52, -4209.18, 0.00, 0.00, 0.00, 0.00, 1.57, 1.64, 1.70
191, 10000.00, -10000.00, -4259.82, -4205.74, 0.00, 0.00, 0.00, 0.00, 1.57, 1.64, 1.70
192, 10000.00, -10000.00, -4258.70, -4206.48, 0.00, 0.00, 0.00, 0.00, 1.57, 1.64, 1.70
193, 10000.00, -10000.00, -4259.69, -4207.63, 0.00, 0.00, 0.00, 0.00, 1.57, 1.64, 1.70
194, 10000.00, -10000.00, -4257.97, -4210.61, 0.00, 0.00, 0.00, 0.00, 1.57, 1.64, 1.70
195, 10000.00, -10000.00, -4266.48, -4201.51, 0.00, 0.00, 0.00, 0.00, 1.57, 1.64, 1.70
196, 10000.00, -10000.00, -4263.36, -4210.52, 0.00, 0.00, 0.00, 0.00, 1.57, 1.64, 1.70
197, 10000.00, -10000.00, -4275.56, -4197.29, 0.00, 0.00, 0.00, 0.00, 1.57, 1.64, 1.70
198, 10000.00, -10000.00, -4281.23, -4189.55, 0.00, 0.00, 0.00, 0.00, 1.57, 1.64, 1.70
199, 10000.00, -10000.00, -4273.28, -4193.21, 0.00, 0.00, 0.00, 0.00, 1.57, 1.64, 1.70
200, 10000.00, -10000.00, -4272.43, -4195.76, 0.00, 0.00, 0.00, 0.00, 1.57, 1.64, 1.70
201, 10000.00, -10000.00, -4259.34, -4205.79, 0.00, 0.00, 0.00, 0.00, 1.57, 1.64, 1.70
202, 10000.00, -10000.00, -4271.26, -4200.83, 0.00, 0.00, 0.00, 0.00, 1.57, 1.64, 1.70
203, 10000.00, -10000.00, -4270.27, -4198.91, 0.00, 0.00, 0.00, 0.00, 1.57, 1.64, 1.70
204, 10000.00, -10000.00, -4270.71, -4198.11, 0.00, 0.00, 0.00, 0.00, 1.57, 1.64, 1.70
205, 10000.00, -10000.00, -4266.78, -4211.13, 0.00, 0.00, 0.00, 0.00, 1.57, 1.64, 1.70
206, 10000.00, -10000.00, -4276.53, -4202.45, 0.00, 0.00, 0.00, 0.00, 1.57, 1.64, 1.70
207, 10000.00, -10000.00, -4273.57, -4202.05, 0.00, 0.00, 0.00, 0.00, 1.57, 1.64, 1.70
208, 10000.00, -10000.00, -4265.46, -4208.66, 0.00, 0.00, 0.00, 0.00, 1.57, 1.64, 1.70
209, 10000.00, -10000.00, -4260.25, -4211.98, 0.00, 0.00, 0.00, 0.00, 1.57, 1.64, 1.70
210, 10000.00, -10000.00, -4261.21, -4214.22, 0.00, 0.00, 0.00, 0.00, 1.57, 1.64, 1.70
211, 10000.00, -10000.00, -4266.07, -4207.48, 0.00, 0.00, 0.00, 0.00, 1.57, 1.64, 1.70
212, 10000.00, -10000.00, -4264.28, -4209.12, 0.00, 0.00, 0.00, 0.00, 1.57, 1.64, 1.70
213, 10000.00, -10000.00, -4267.98, -4207.76, 0.00, 0.00, 0.00, 0.00, 1.57, 1.64, 1.70
214, 10000.00, -10000.00, -4260.72, -4211.66, 0.00, 0.00, 0.00, 0.00, 1.57, 1.64, 1.70
215, 10000.00, -10000.00, -4259.81, -4207.14, 0.00, 0.00, 0.00, 0.00, 1.57, 1.64, 1.70
216, 10000.00, -10000.00, -4258.17, -4208.03, 0.00, 0.00, 0.00, 0.00, 1.57, 1.64, 1.70
217, 10000.00, -10000.00, -4249.96, -4211.72, 0.00, 0.00, 0.00, 0.00, 1.57, 1.64, 1.70
218, 10000.00, -10000.00, -4257.79, -4211.60, 0.00, 0.00, 0.00, 0.00, 1.57, 1.64, 1.70
219, 10000.00, -10000.00, -4264.81, -4205.00, 0.00, 0.00, 0.00, 0.00, 1.57, 1.64, 1.70
220, 10000.00, -10000.00, -4260.84, -4201.84, 0.00, 0.00, 0.00, 0.00, 1.57, 1.64, 1.70
221, 10000.00, -10000.00, -4241.70, -4227.92, 0.00, 0.00, 0.00, 0.00, 1.57, 1.64, 1.70
222, 10000.00, -10000.00, -4271.92, -4204.86, 0.00, 0.00, 0.00, 0.00, 1.57, 1.64, 1.70
223, 10000.00, -10000.00, -4273.02, -4204.27, 0.00, 0.00, 0.00, 0.00, 1.57, 1.64, 1.70
224, 10000.00, -10000.00, -4271.82, -4199.32, 0.00, 0.00, 0.00, 0.00, 1.57, 1.64, 1.70
225, 10000.00, -10000.00, -4265.74, -4208.76, 0.00, 0.00, 0.00, 0.00, 1.57, 1.64, 1.70
226, 10000.00, -10000.00, -4259.13, -4207.73, 0.00, 0.00, 0.00, 0.00, 1.57, 1.64, 1.70
227, 10000.00, -10000.00, -4267.61, -4205.62, 0.00, 0.00, 0.00, 0.00, 1.57, 1.64, 1.70
228, 10000.00, -10000.00, -4269.76, -4202.14, 0.00, 0.00, 0.00, 0.00, 1.57, 1.64, 1.70
229, 10000.00, -10000.00, -4271.78, -4201.39, 0.00, 0.00, 0.00, 0.00, 1.57, 1.64, 1.70
230, 10000.00, -10000.00, -4269.99, -4201.56, 0.00, 0.00, 0.00, 0.00, 1.57, 1.64, 1.70
231, 10000.00, -10000.00, -4275.33, -4188.95, 0.00, 0.00, 0.00, 0.00, 1.57, 1.64, 1.70
232, 10000.00, -10000.00, -4269.20, -4198.83, 0.00, 0.00, 0.00, 0.00, 1.57, 1.64, 1.70
233, 10000.00, -10000.00, -4269.46, -4207.73, 0.00, 0.00, 0.00, 0.00, 1.57, 1.64, 1.70
234, 10000.00, -10000.00, -4267.99, -4209.58, 0.00, 0.00, 0.00, 0.00, 1.57, 1.64, 1.70
235, 10000.00, -10000.00, -4269.94, -4202.67, 0.00, 0.00, 0.00, 0.00, 1.57, 1.64, 1.70
236, 10000.00, -10000.00, -4274.63, -4194.68, 0.00, 0.00, 0.00, 0.00, 1.57, 1.64, 1.70
237, 10000.00, -10000.00, -4271.65, -4196.75, 0.00, 0.00, 0.00, 0.00, 1.57, 1.64, 1.70
238, 10000.00, -10000.00, -4275.83, -4205.93, 0.00, 0.00, 0.00, 0.00, 1.57, 1.64, 1.70
239, 10000.00, -10000.00, -4270.65, -4204.96, 0.00, 0.00, 0.00, 0.00, 1.57, 1.64, 1.70
240, 10000.00, -10000.00, -4271.34, -4194.89, 0.00, 0.00, 0.00, 0.00, 1.57, 1.64, 1.70
241, 10000.00, -10000.00, -4276.29, -4201.89, 0.00, 0.00, 0.00, 0.00, 1.57, 1.64, 1.70
242, 10000.00, -10000.00, -4266.39, -4207.95, 0.00, 0.00, 0.00, 0.00, 1.57, 1.64, 1.70
243, 10000.00, -10000.00, -4268.26, -4208.65, 0.00, 0.00, 0.00, 0.00, 1.57, 1.64, 1.70
244, 10000.00, -10000.00, -4267.34, -4206.04, 0.00, 0.00, 0.00, 0.00, 1.57, 1.64, 1.70
245, 10000.00, -10000.00, -4277.97, -4195.58, 0.00, 0.00, 0.00, 0.00, 1.57, 1.64, 1.70
246, 10000.00, -10000.00, -4278.01, -4202.93, 0.00, 0.00, 0.00, 0.00, 1.57, 1.64, 1.70
247, 10000.00, -10000.00, -4277.78, -4202.63, 0.00, 0.00, 0.00, 0.00, 1.57, 1.64, 1.70
248, 10000.00, -10000.00, -4271.26, -4206.08, 0.00, 0.00, 0.00, 0.00, 1.57, 1.64, 1.70
249, 10000.00, -10000.00, -4267.59, -4212.73, 0.00, 0.00, 0.00, 0.00, 1.57, 1.64, 1.70
250, 10000.00, -10000.00, -4263.75, -4213.19, 0.00, 0.00, 0.00, 0.00, 1.57, 1.64, 1.70
251, 10000.00, -10000.00, -4269.83, -4206.33, 0.00, 0.00, 0.00, 0.00, 1.57, 1.64, 1.70
252, 10000.00, -10000.00, -4266.99, -4211.93, 0.00, 0.00, 0.00, 0.00, 1.57, 1.64, 1.70
253, 10000.00, -10000.00, -4259.72, -4213.91, 0.00, 0.00, 0.00, 0.00, 1.57, 1.64, 1.70
254, 10000.00, -10000.00, -4256.60, -4212.51, 0.00, 0.00, 0.00, 0.00, 1.57, 1.64, 1.70
255, 10000.00, -10000.00, -4266.97, -4203.72, 0.00, 0.00, 0.00, 0.00, 1.57, 1.64, 1.70
0, 10000.00, -10000.00, -4268.46, -4202.84, 0.00, 0.00, 0.00, 0.00, 1.57, 1.64, 1.70
1, 10000.00, -10000.00, -4265.84, -4202.38, 0.00, 0.00, 0.00, 0.00, 1.57, 1.64, 1.70
2, 10000.00, -10000.00, -4271.73, -4200.05, 0.00, 0.00, 0.00, 0.00, 1.57, 1.64, 1.70
3, 10000.00, -10000.00, -4272.33, -4196.91, 0.00, 0.00, 0.00, 0.00, 1.57, 1.64, 1.70
4, 10000.00, -10000.00, -4271.24, -4197.62, 0.00, 0.00, 0.00, 0.00, 1.57, 1.64, 1.70
5, 10000.00, -10000.00, -4264.71, -4203.79, 0.00, 0.00, 0.00, 0.00, 1.57, 1.64, 1.70
6, 10000.00, -10000.00, -4265.83, -4200.37, 0.00, 0.00, 0.00, 0.00, 1.57, 1.64, 1.70
7, 10000.00, -10000.00, -4262.39, -4206.85, 0.00, 0.00, 0.00, 0.00, 1.57, 1.64, 1.70
8, 10000.00, -10000.00, -4269.74, -4202.95, 0.00, 0.00, 0.00, 0.00, 1.57, 1.64, 1.70
9, 10000.00, -10000.00, -4268.19, -4200.29, 0.00, 0.00, 0.00, 0.00, 1.57, 1.64, 1.70
10, 10000.00, -10000.00, -4272.77, -4209.43, 0.00, 0.00, 0.00, 0.00, 1.57, 1.64, 1.70
11, 10000.00, -10000.00, -4279.28, -4207.41, 0.00, 0.00, 0.00, 0.00, 1.57, 1.64, 1.70
12, 10000.00, -10000.00, -4259.11, -4214.62, 0.00, 0.00, 0.00, 0.00, 1.57, 1.64, 1.70
13, 10000.00, -10000.00, -4265.04, -4208.32, 0.00, 0.00, 0.00, 0.00, 1.57, 1.64, 1.70
14, 10000.00, -10000.00, -4259.02, -4215.14, 0.00, 0.00, 0.00, 0.00, 1.57, 1.64, 1.70
15, 10000.00, -10000.00, -4256.53, -4219.75, 0.00, 0.00, 0.00, 0.00, 1.57, 1.64, 1.70
16, 10000.00, -10000.00, -4267.91, -4210.32, 0.00, 0.00, 0.00, 0.00, 1.57, 1.64, 1.70
17, 10000.00, -10000.00, -4271.50, -4210.04, 0.00, 0.00, 0.00, 0.00, 1.57, 1.64, 1.70
18, 10000.00, -10000.00, -4274.65, -4206.54, 0.00, 0.00, 0.00, 0.00, 1.57, 1.64, 1.70
19, 10000.00, -10000.00, -4282.67, -4200.92, 0.00, 0.00, 0.00, 0.00, 1.57, 1.64, 1.70
20, 10000.00, -10000.00, -4277.24, -4202.71, 0.00, 0.00, 0.00, 0.00, 1.57, 1.64, 1.70
21, 10000.00, -10000.00, -4277.19, -4203.13, 0.00, 0.00, 0.00, 0.00, 1.57, 1.64, 1.70
22, 10000.00, -10000.00, -4284.50, -4196.11, 0.00, 0.00, 0.00, 0.00, 1.57, 1.64, 1.70
23, 10000.00, -10000.00, -4266.57, -4202.62, 0.00, 0.00, 0.00, 0.00, 1.57, 1.64, 1.70
24, 10000.00, -10000.00, -4264.49, -4207.17, 0.00, 0.00, 0.00, 0.00, 1.57, 1.64, 1.70
25, 10000.00, -10000.00, -4269.15, -4206.91, 0.00, 0.00, 0.00, 0.00, 1.57, 1.64, 1.70
26, 10000.00, -10000.00, -4271.87, -4209.69, 0.00, 0.00, 0.00, 0.00, 1.57, 1.64, 1.70
27, 10000.00, -10000.00, -4260.87, -4216.62, 0.00, 0.00, 0.00, 0.00, 1.57, 1.64, 1.70
28, 10000.00, -10000.00, -4279.81, -4191.59, 0.00, 0.00, 0.00, 0.00, 1.57, 1.64, 1.70
29, 10000.00, -10000.00, -4269.84, -4206.15, 0.00, 0.00, 0.00, 0.00, 1.57, 1.64, 1.70
30, 10000.00, -10000.00, -4277.92, -4205.35, 0.00, 0.00, 0.00, 0.00, 1.57, 1.64, 1.70
31, 10000.00, -10000.00, -4267.87, -4211.52, 0.00, 0.00, 0.00, 0.00, 1.57, 1.64, 1.70
32, 10000.00, -10000.00, -4271.52, -4207.01, 0.00, 0.00, 0.00, 0.00, 1.57, 1.64, 1.70
33, 10000.00, -10000.00, -4273.70, -4204.95, 0.00, 0.00, 0.00, 0.00, 1.57, 1.64, 1.70
34, 10000.00, -10000.00, -4267.74, -4210.90, 0.00, 0.00, 0.00, 0.00, 1.57, 1.64, 1.70
35, 10000.00, -10000.00, -4270.72, -4208.35, 0.00, 0.00, 0.00, 0.00, 1.57, 1.64, 1.70
36, 10000.00, -10000.00, -4270.47, -4208.81, 0.00, 0.00, 0.00, 0.00, 1.57, 1.64, 1.70
37, 10000.00, -10000.00, -4266.56, -4209.11, 0.00, 0.00, 0.00, 0.00, 1.57, 1.64, 1.70
38, 10000.00, -10000.00, -4274.92, -4201.66, 0.00, 0.00, 0.00, 0.00, 1.57, 1.64, 1.70
39, 10000.00, -10000.00, -4260.56, -4220.98, 0.00, 0.00, 0.00, 0.00, 1.57, 1.64, 1.70
40, 10000.00, -10000.00, -4267.33, -4213.78, 0.00, 0.00, 0.00, 0.00, 1.57, 1.64, 1.70
41, 10000.00, -10000.00, -4269.40, -4214.49, 0.00, 0.00, 0.00, 0.00, 1.57, 1.64, 1.70
42, 10000.00, -10000.00, -4266.21, -4217.23, 0.00, 0.00, 0.00, 0.00, 1.57, 1.64, 1.70
43, 10000.00, -10000.00, -4262.42, -4223.43, 0.00, 0.00, 0.00, 0.00, 1.57, 1.64, 1.70
44, 10000.00, -10000.00, -4273.03, -4211.58, 0.00, 0.00, 0.00, 0.00, 1.57, 1.64, 1.70
45, 10000.00, -10000.00, -4270.51, -4200.41, 0.00, 0.00, 0.00, 0.00, 1.57, 1.64, 1.70
46, 10000.00, -10000.00, -4271.08, -4200.08, 0.00, 0.00, 0.00, 0.00, 1.57, 1.64, 1.70
47, 10000.00, -10000.00, -4271.91, -4215.55, 0.00, 0.00, 0.00, 0.00, 1.57, 1.64, 1.70
48, 10000.00, -10000.00, -4274.09, -4206.48, 0.00, 0.00, 0.00, 0.00, 1.57, 1.64, 1.70
49, 10000.00, -10000.00, -4276.60, -4203.60, 0.00, 0.00, 0.00, 0.00, 1.57, 1.64, 1.70
50, 10000.00, -10000.00, -4266.43, -4212.40, 0.00, 0.00, 0.00, 0.00, 1.57, 1.64, 1.70
51, 10000.00, -10000.00, -4260.85, -4215.96, 0.00, 0.00, 0.00, 0.00, 1.57, 1.64, 1.70
52, 10000.00, -10000.00, -4258.67, -4217.13, 0.00, 0.00, 0.00, 0.00, 1.57, 1.64, 1.70
53, 10000.00, -10000.00, -4262.16, -4214.40, 0.00, 0.00, 0.00, 0.00, 1.57, 1.64, 1.70
54, 10000.00, -10000.00, -4260.54, -4219.07, 0.00, 0.00, 0.00, 0.00, 1.57, 1.64, 1.70
55, 10000.00, -10000.00, -4252.68, -4225.54, 0.00, 0.00, 0.00, 0.00, 1.57, 1.64, 1.70
56, 10000.00, -10000.00, -4264.44, -4211.08, 0.00, 0.00, 0.00, 0.00, 1.57, 1.64, 1.70
57, 10000.00, -10000.00, -4249.52, -4223.04, 0.00, 0.00, 0.00, 0.00, 1.57, 1.64, 1.70
58, 10000.00, -10000.00, -4253.97, -4223.62, 0.00, 0.00, 0.00, 0.00, 1.57, 1.64, 1.70
59, 10000.00, -10000.00, -4254.06, -4221.94, 0.00, 0.00, 0.00, 0.00, 1.57, 1.64, 1.70
60, 10000.00, -10000.00, -4253.09, -4220.95, 0.00, 0.00, 0.00, 0.00, 1.57, 1.64, 1.70
61, 10000.00, -10000.00, -4249.59, -4229.95, 0.00, 0.00, 0.00, 0.00, 1.57, 1.64, 1.70
62, 10000.00, -10000.00, -4251.58, -4224.72, 0.00, 0.00, 0.00, 0.00, 1.57, 1.64, 1.70
63, 10000.00, -10000.00, -4252.40, -4218.83, 0.00, 0.00, 0.00, 0.00, 1.57, 1.64, 1.70
64, 10000.00, -10000.00, -4246.69, -4238.21, 0.00, 0.00, 0.00, 0.00, 1.57, 1.64, 1.70
65, 10000.00, -10000.00, -4245.63, -4234.93, 0.00, 0.00, 0.00, 0.00, 1.57, 1.64, 1.70
66, 10000.00, -10000.00, -4259.60, -4223.89, 0.00, 0.00, 0.00, 0.00, 1.57, 1.64, 1.70
67, 10000.00, -10000.00, -4257.44, -4216.33, 0.00, 0.00, 0.00, 0.00, 1.57, 1.64, 1.70
68, 10000.00, -10000.00, -4254.36, -4220.04, 0.00, 0.00, 0.00, 0.00, 1.57, 1.64, 1.70
69, 10000.00, -10000.00, -4248.60, -4225.39, 0.00, 0.00, 0.00, 0.00, 1.57, 1.64, 1.70
70, 10000.00, -10000.00, -4264.63, -4204.51, 0.00, 0.00, 0.00, 0.00, 1.57, 1.64, 1.70
71, 10000.00, -10000.00, -4270.15, -4196.51, 0.00, 0.00, 0.00, 0.00, 1.57, 1.64, 1.70
72, 10000.00, -10000.00, -4266.92, -4213.22, 0.00, 0.00, 0.00, 0.00, 1.57, 1.64, 1.70
73, 10000.00, -10000.00, -4257.31, -4216.77, 0.00, 0.00, 0.00, 0.00, 1.57, 1.64, 1.70
74, 10000.00, -10000.00, -4263.80, -4213.59, 0.00, 0.00, 0.00, 0.00, 1.57, 1.64, 1.70
75, 10000.00, -10000.00, -4260.25, -4215.89, 0.00, 0.00, 0.00, 0.00, 1.57, 1.64, 1.70
76, 10000.00, -10000.00, -4252.29, -4221.92, 0.00, 0.00, 0.00, 0.00, 1.57, 1.64, 1.70
77, 10000.00, -10000.00, -4246.55, -4227.87, 0.00, 0.00, 0.00, 0.00, 1.57, 1.64, 1.70
78, 10000.00, -10000.00, -4250.79, -4227.00, 0.00, 0.00, 0.00, 0.00, 1.57, 1.64, 1.70
79, 10000.00, -10000.00, -4252.36, -4223.71, 0.00, 0.00, 0.00, 0.00, 1.57, 1.64, 1.70
80, 10000.00, -10000.00, -4250.55, -4220.25, 0.00, 0.00, 0.00, 0.00, 1.57, 1.64, 1.70
81, 10000.00, -10000.00, -4248.09, -4221.78, 0.00, 0.00, 0.00, 0.00, 1.57, 1.64, 1.70
82, 10000.00, -10000.00, -4254.50, -4216.33, 0.00, 0.00, 0.00, 0.00, 1.57, 1.64, 1.70
83, 10000.00, -10000.00, -4260.02, -4208.07, 0.00, 0.00, 0.00, 0.00, 1.57, 1.64, 1.70
84, 10000.00, -10000.00, -4250.73, -4223.06, 0.00, 0.00, 0.00, 0.00, 1.57, 1.64, 1.70
85, 10000.00, -10000.00, -4258.08, -4216.94, 0.00, 0.00, 0.00, 0.00, 1.57, 1.64, 1.70
86, 10000.00, -10000.00, -4255.67, -4216.95, 0.00, 0.00, 0.00, 0.00, 1.57, 1.64, 1.70
87, 10000.00, -10000.00, -4244.55, -4227.79, 0.00, 0.00, 0.00, 0.00, 1.57, 1.64, 1.70
88, 10000.00, -10000.00, -4257.28, -4218.30, 0.00, 0.00, 0.00, 0.00, 1.57, 1.64, 1.70
89, 10000.00, -10000.00, -4258.89, -4217.03, 0.00, 0.00, 0.00, 0.00, 1.57, 1.64, 1.70
90, 10000.00, -10000.00, -4265.53, -4215.40, 0.00, 0.00, 0.00, 0.00, 1.57, 1.64, 1.70
91, 10000.00, -10000.00, -4264.68, -4207.94, 0.00, 0.00, 0.00, 0.00, 1.57, 1.64, 1.70
92, 10000.00, -10000.00, -4259.49, -4206.98, 0.00, 0.00, 0.00, 0.00, 1.57, 1.64, 1.70
93, 10000.00, -10000.00, -4247.31, -4232.60, 0.00, 0.00, 0.00, 0.00, 1.57, 1.64, 1.70
94, 10000.00, -10000.00, -4270.76, -4204.29, 0.00, 0.00, 0.00, 0.00, 1.57, 1.64, 1.70
95, 10000.00, -10000.00, -4264.85, -4210.66, 0.00, 0.00, 0.00, 0.00, 1.57, 1.64, 1.70
96, 10000.00, -10000.00, -4260.85, -4216.67, 0.00, 0.00, 0.00, 0.00, 1.57, 1.64, 1.70
97, 10000.00, -10000.00, -4257.12, -4219.22, 0.00, 0.00, 0.00, 0.00, 1.57, 1.64, 1.70
98, 10000.00, -10000.00, -4261.29, -4211.98, 0.00, 0.00, 0.00, 0.00, 1.57, 1.64, 1.70
99, 10000.00, -10000.00, -4260.20, -4216.34, 0.00, 0.00, 0.00, 0.00, 1.57, 1.64, 1.70
100, 10000.00, -10000.00, -4250.62, -4216.60, 0.00, 0.00, 0.00, 0.00, 1.57, 1.64, 1.70
101, 10000.00, -10000.00, -4249.31, -4219.04, 0.00, 0.00, 0.00, 0.00, 1.57, 1.64, 1.70
102, 10000.00, -10000.00, -4245.18, -4220.06, 0.00, 0.00, 0.00, 0.00, 1.57, 1.64, 1.70
103, 10000.00, -10000.00, -4240.09, -4226.70, 0.00, 0.00, 0.00, 0.00, 1.57, 1.64, 1.70
104, 10000.00, -10000.00, -4251.51, -4218.98, 0.00, 0.00, 0.00, 0.00, 1.57, 1.64, 1.70
105, 10000.00, -10000.00, -4251.22, -4222.61, 0.00, 0.00, 0.00, 0.00, 1.57, 1.64, 1.70
106, 10000.00, -10000.00, -4247.44, -4223.50, 0.00, 0.00, 0.00, 0.00, 1.57, 1.64, 1.70
107, 10000.00, -10000.00, -4244.60, -4233.71, 0.00, 0.00, 0.00, 0.00, 1.57, 1.64, 1.70
108, 10000.00, -10000.00, -4262.69, -4215.05, 0.00, 0.00, 0.00, 0.00, 1.57, 1.64, 1.70
109, 10000.00, -10000.00, -4265.11, -4214.75, 0.00, 0.00, 0.00, 0.00, 1.57, 1.64, 1.70
110, 10000.00, -10000.00, -4260.65, -4218.68, 0.00, 0.00, 0.00, 0.00, 1.57, 1.64, 1.70
111, 10000.00, -10000.00, -4266.06, -4217.58, 0.00, 0.00, 0.00, 0.00, 1.57, 1.64, 1.70
112, 10000.00, -10000.00, -4259.18, -4221.80, 0.00, 0.00, 0.00, 0.00, 1.57, 1.64, 1.70
113, 10000.00, -10000.00, -4262.56, -4222.53, 0.00, 0.00, 0.00, 0.00, 1.57, 1.64, 1.70
114, 10000.00, -10000.00, -4266.74, -4219.71, 0.00, 0.00, 0.00, 0.00, 1.57, 1.64, 1.70
115, 10000.00, -10000.00, -4266.11, -4217.60, 0.00, 0.00, 0.00, 0.00, 1.57, 1.64, 1.70
116, 10000.00, -10000.00, -4275.23, -4207.10, 0.00, 0.00, 0.00, 0.00, 1.57, 1.64, 1.70
117, 10000.00, -10000.00, -4268.05, -4216.20, 0.00, 0.00, 0.00, 0.00, 1.57, 1.64, 1.70
118, 10000.00, -10000.00, -4274.45, -4211.10, 0.00, 0.00, 0.00, 0.00, 1.57, 1.64, 1.70
119, 10000.00, -10000.00, -4267.55, -4211.02, 0.00, 0.00, 0.00, 0.00, 1.57, 1.64, 1.70
120, 10000.00, -10000.00, -4263.62, -4213.28, 0.00, 0.00, 0.00, 0.00, 1.57, 1.64, 1.70
121, 10000.00, -10000.00, -4272.11, -4203.57, 0.00, 0.00, 0.00, 0.00, 1.57, 1.64, 1.70
122, 10000.00, -10000.00, -4267.56, -4213.95, 0.00, 0.00, 0.00, 0.00, 1.57, 1.64, 1.70
123, 10000.00, -10000.00, -4275.61, -4202.92, 0.00, 0.00, 0.00, 0.00, 1.57, 1.64, 1.70
124, 10000.00, -10000.00, -4268.33, -4213.94, 0.00, 0.00, 0.00, 0.00, 1.57, 1.64, 1.70
125, 10000.00, -10000.00, -4266.55, -4213.11, 0.00, 0.00, 0.00, 0.00, 1.57, 1.64, 1.70
126, 10000.00, -10000.00, -4267.41, -4212.37, 0.00, 0.00, 0.00, 0.00, 1.57, 1.64, 1.70
127, 10000.00, -10000.00, -4267.00, -4209.79, 0.00, 0.00, 0.00, 0.00, 1.57, 1.64, 1.70
128, 10000.00, -10000.00, -4259.19, -4224.77, 0.00, 0.00, 0.00, 0.00, 1.57, 1.64, 1.70
129, 10000.00, -10000.00, -4267.62, -4213.81, 0.00, 0.00, 0.00, 0.00, 1.57, 1.64, 1.70
130, 10000.00, -10000.00, -4267.42, -4211.36, 0.00, 0.00, 0.00, 0.00, 1.57, 1.64, 1.70
131, 10000.00, -10000.00, -4269.45, -4207.42, 0.00, 0.00, 0.00, 0.00, 1.57, 1.64, 1.70
132, 10000.00, -10000.00, -4266.07, -4213.47, 0.00, 0.00, 0.00, 0.00, 1.57, 1.64, 1.70
133, 10000.00, -10000.00, -4263.35, -4214.69, 0.00, 0.00, 0.00, 0.00, 1.57, 1.64, 1.70
134, 10000.00, -10000.00, -4268.29, -4205.75, 0.00, 0.00, 0.00, 0.00, 1.57, 1.64, 1.70
135, 10000.00, -10000.00, -4270.71, -4212.63, 0.00, 0.00, 0.00, 0.00, 1.57, 1.64, 1.70
136, 10000.00, -10000.00, -4272.64, -4212.13, 0.00, 0.00, 0.00, 0.00, 1.57, 1.64, 1.70
137, 10000.00, -10000.00, -4284.96, -4197.60, 0.00, 0.00, 0.00, 0.00, 1.57, 1.64, 1.70
138, 10000.00, -10000.00, -4289.89, -4194.64, 0.00, 0.00, 0.00, 0.00, 1.57, 1.64, 1.70
139, 10000.00, -10000.00, -4280.93, -4205.31, 0.00, 0.00, 0.00, 0.00, 1.57, 1.64, 1.70
140, 10000.00, -10000.00, -4288.69, -4197.13, 0.00, 0.00, 0.00, 0.00, 1.57, 1.64, 1.70
141, 10000.00, -10000.00, -4291.02, -4199.60, 0.00, 0.00, 0.00, 0.00, 1.57, 1.64, 1.70
142, 10000.00, -10000.00, -4286.22, -4200.44, 0.00, 0.00, 0.00, 0.00, 1.57, 1.64, 1.70
143, 10000.00, -10000.00, -4269.75, -4200.94, 0.00, 0.00, 0.00, 0.00, 1.57, 1.64, 1.70
144, 10000.00, -10000.00, -4259.17, -4212.79, 0.00, 0.00, 0.00, 0.00, 1.57, 1.64, 1.70
145, 10000.00, -10000.00, -4271.53, -4204.96, 0.00, 0.00, 0.00, 0.00, 1.57, 1.64, 1.70
146, 10000.00, -10000.00, -4260.01, -4219.66, 0.00, 0.00, 0.00, 0.00, 1.57, 1.64, 1.70
147, 10000.00, -10000.00, -4264.37, -4211.65, 0.00, 0.00, 0.00, 0.00, 1.57, 1.64, 1.70
148, 10000.00, -10000.00, -4262.62, -4215.81, 0.00, 0.00, 0.00, 0.00, 1.57, 1.64, 1.70
149, 10000.00, -10000.00, -4265.28, -4209.99, 0.00, 0.00, 0.00, 0.00, 1.57, 1.64, 1.70
150, 10000.00, -10000.00, -4247.74, -4225.75, 0.00, 0.00, 0.00, 0.00, 1.57, 1.64, 1.70
151, 10000.00, -10000.00, -4264.12, -4208.10, 0.00, 0.00, 0.00, 0.00, 1.57, 1.64, 1.70
152, 10000.00, -10000.00, -4256.14, -4224.91, 0.00, 0.00, 0.00, 0.00, 1.57, 1.64, 1.70
153, 10000.00, -10000.00, -4258.73, -4221.16, 0.00, 0.00, 0.00, 0.00, 1.57, 1.64, 1.70
154, 10000.00, -10000.00, -4260.44, -4221.82, 0.00, 0.00, 0.00, 0.00, 1.57, 1.64, 1.70
155, 10000.00, -10000.00, -4257.65, -4224.95, 0.00, 0.00, 0.00, 0.00, 1.57, 1.64, 1.70
156, 10000.00, -10000.00, -4262.67, -4217.88, 0.00, 0.00, 0.00, 0.00, 1.57, 1.64, 1.70
157, 10000.00, -10000.00, -4270.67, -4211.63, 0.00, 0.00, 0.00, 0.00, 1.57, 1.64, 1.70
158, 10000.00, -10000.00, -4266.70, -4217.55, 0.00, 0.00, 0.00, 0.00, 1.57, 1.64, 1.70
159, 10000.00, -10000.00, -4269.56, -4211.16, 0.00, 0.00, 0.00, 0.00, 1.57, 1.64, 1.70
160, 10000.00, -10000.00, -4266.03, -4217.57, 0.00, 0.00, 0.00, 0.00, 1.57, 1.64, 1.70
161, 10000.00, -10000.00, -4272.43, -4209.25, 0.00, 0.00, 0.00, 0.00, 1.57, 1.64, 1.70
162, 10000.00, -10000.00, -4273.62, -4214.82, 0.00, 0.00, 0.00, 0.00, 1.57, 1.64, 1.70
163, 10000.00, -10000.00, -4273.60, -4216.95, 0.00, 0.00, 0.00, 0.00, 1.57, 1.64, 1.70
164, 10000.00, -10000.00, -4266.99, -4216.82, 0.00, 0.00, 0.00, 0.00, 1.57, 1.64, 1.70
165, 10000.00, -10000.00, -4265.35, -4208.67, 0.00, 0.00, 0.00, 0.00, 1.57, 1.64, 1.70
166, 10000.00, -10000.00, -4262.32, -4215.82, 0.00, 0.00, 0.00, 0.00, 1.57, 1.64, 1.70
167, 10000.00, -10000.00, -4265.76, -4214.23, 0.00, 0.00, 0.00, 0.00, 1.57, 1.64, 1.70
168, 10000.00, -10000.00, -4265.25, -4210.41, 0.00, 0.00, 0.00, 0.00, 1.57, 1.64, 1.70
169, 10000.00, -10000.00, -4262.86, -4213.90, 0.00, 0.00, 0.00, 0.00, 1.57, 1.64, 1.70
170, 10000.00, -10000.00, -4269.89, -4202.78, 0.00, 0.00, 0.00, 0.00, 1.57, 1.64, 1.70
171, 10000.00, -10000.00, -4255.29, -4217.78, 0.00, 0.00, 0.00, 0.00, 1.57, 1.64, 1.70
172, 10000.00, -10000.00, -4253.11, -4215.01, 0.00, 0.00, 0.00, 0.00, 1.57, 1.64, 1.70
173, 10000.00, -10000.00, -4252.31, -4217.96, 0.00, 0.00, 0.00, 0.00, 1.57, 1.64, 1.70
174, 10000.00, -10000.00, -4244.89, -4234.32, 0.00, 0.00, 0.00, 0.00, 1.57, 1.64, 1.70
175, 10000.00, -10000.00, -4259.16, -4215.88, 0.00, 0.00, 0.00, 0.00, 1.57, 1.64, 1.70
176, 10000.00, -10000.00, -4253.72, -4215.68, 0.00, 0.00, 0.00, 0.00, 1.57, 1.64, 1.70
177, 10000.00, -10000.00, -4243.23, -4229.69, 0.00, 0.00, 0.00, 0.00, 1.57, 1.64, 1.70
178, 10000.00, -10000.00, -4241.95, -4238.07, 0.00, 0.00, 0.00, 0.00, 1.57, 1.64, 1.70
179, 10000.00, -10000.00, -4244.12, -4236.52, 0.00, 0.00, 0.00, 0.00, 1.57, 1.64, 1.70
180, 10000.00, -10000.00, -4244.15, -4235.12, 0.00, 0.00, 0.00, 0.00, 1.57, 1.64, 1.70
181, 10000.00, -10000.00, -4245.98, -4230.48, 0.00, 0.00, 0.00, 0.00, 1.57, 1.64, 1.70
182, 10000.00, -10000.00, -4251.82, -4224.41, 0.00, 0.00, 0.00, 0.00, 1.57, 1.64, 1.70
183, 10000.00, -10000.00, -4246.36, -4230.20, 0.00, 0.00, 0.00, 0.00, 1.57, 1.64, 1.70
184, 10000.00, -10000.00, -4243.08, -4234.21, 0.00, 0.00, 0.00, 0.00, 1.57, 1.64, 1.70
185, 10000.00, -10000.00, -4242.89, -4234.56, 0.00, 0.00, 0.00, 0.00, 1.57, 1.64, 1.70
186, 10000.00, -10000.00, -4248.43, -4229.81, 0.00, 0.00, 0.00, 0.00, 1.57, 1.64, 1.70
187, 10000.00, -10000.00, -4252.90, -4228.19, 0.00, 0.00, 0.00, 0.00, 1.57, 1.64, 1.70
188, 10000.00, -10000.00, -4255.26, -4226.33, 0.00, 0.00, 0.00, 0.00, 1.57, 1.64, 1.70
189, 10000.00, -10000.00, -4254.51, -4225.10, 0.00, 0.00, 0.00, 0.00, 1.57, 1.64, 1.70
190, 10000.00, -10000.00, -4254.88, -4224.46, 0.00, 0.00, 0.00, 0.00, 1.57, 1.64, 1.70
191, 10000.00, -10000.00, -4258.68, -4220.19, 0.00, 0.00, 0.00, 0.00, 1.57, 1.64, 1.70
192, 10000.00, -10000.00, -4249.96, -4215.70, 0.00, 0.00, 0.00, 0.00, 1.57, 1.64, 1.70
193, 10000.00, -10000.00, -4252.32, -4223.75, 0.00, 0.00, 0.00, 0.00, 1.57, 1.64, 1.70
194, 10000.00, -10000.00, -4254.54, -4226.87, 0.00, 0.00, 0.00, 0.00, 1.57, 1.64, 1.70
195, 10000.00, -10000.00, -4225.65, -4252.20, 0.00, 0.00, 0.00, 0.00, 1.57, 1.64, 1.70
196, 10000.00, -10000.00, -4254.12, -4220.81, 0.00, 0.00, 0.00, 0.00, 1.57, 1.64, 1.70
197, 10000.00, -10000.00, -4252.86, -4232.91, 0.00, 0.00, 0.00, 0.00, 1.57, 1.64, 1.70
198, 10000.00, -10000.00, -4249.37, -4230.82, 0.00, 0.00, 0.00, 0.00, 1.57, 1.64, 1.70
199, 10000.00, -10000.00, -4250.26, -4230.06, 0.00, 0.00, 0.00, 0.00, 1.57, 1.64, 1.70
200, 10000.00, -10000.00, -4254.32, -4228.16, 0.00, 0.00, 0.00, 0.00, 1.57, 1.64, 1.70
201, 10000.00, -10000.00, -4252.86, -4229.78, 0.00, 0.00, 0.00, 0.00, 1.57, 1.64, 1.70
202, 10000.00, -10000.00, -4254.68, -4226.77, 0.00, 0.00, 0.00, 0.00, 1.57, 1.64, 1.70
203, 10000.00, -10000.00, -4251.59, -4231.42, 0.00, 0.00, 0.00, 0.00, 1.57, 1.64, 1.70
204, 10000.00, -10000.00, -4251.08, -4235.39, 0.00, 0.00, 0.00, 0.00, 1.57, 1.64, 1.70
205, 10000.00, -10000.00, -4250.09, -4237.34, 0.00, 0.00, 0.00, 0.00, 1.57, 1.64, 1.70
206, 10000.00, -10000.00, -4260.84, -4224.78, 0.00, 0.00, 0.00, 0.00, 1.57, 1.64, 1.70
207, 10000.00, -10000.00, -4261.34, -4223.57, 0.00, 0.00, 0.00, 0.00, 1.57, 1.64, 1.70
208, 10000.00, -10000.00, -4259.02, -4222.09, 0.00, 0.00, 0.00, 0.00, 1.57, 1.64, 1.70
209, 10000.00, -10000.00, -4267.82, -4221.05, 0.00, 0.00, 0.00, 0.00, 1.57, 1.64, 1.70
210, 10000.00, -10000.00, -4257.26, -4225.25, 0.00, 0.00, 0.00, 0.00, 1.57, 1.64, 1.70
211, 10000.00, -10000.00, -4256.69, -4223.42, 0.00, 0.00, 0.00, 0.00, 1.57, 1.64, 1.70
212, 10000.00, -10000.00, -4252.76, -4232.01, 0.00, 0.00, 0.00, 0.00, 1.57, 1.64, 1.70
213, 10000.00, -10000.00, -4262.78, -4225.80, 0.00, 0.00, 0.00, 0.00, 1.57, 1.64, 1.70
214, 10000.00, -10000.00, -4260.87, -4223.23, 0.00, 0.00, 0.00, 0.00, 1.57, 1.64, 1.70
215, 10000.00, -10000.00, -4270.20, -4221.39, 0.00, 0.00, 0.00, 0.00, 1.57, 1.64, 1.70
216, 10000.00, -10000.00, -4257.98, -4226.83, 0.00, 0.00, 0.00, 0.00, 1.57, 1.64, 1.70
217, 10000.00, -10000.00, -4255.87, -4233.42, 0.00, 0.00, 0.00, 0.00, 1.57, 1.64, 1.70
218, 10000.00, -10000.00, -4252.84, -4239.47, 0.00, 0.00, 0.00, 0.00, 1.57, 1.64, 1.70
219, 10000.00, -10000.00, -4257.54, -4231.59, 0.00, 0.00, 0.00, 0.00, 1.57, 1.64, 1.70
220, 10000.00, -10000.00, -4240.79, -4233.71, 0.00, 0.00, 0.00, 0.00, 1.57, 1.64, 1.70
221, 10000.00, -10000.00, -4242.37, -4240.22, 0.00, 0.00, 0.00, 0.00, 1.57, 1.64, 1.70
222, 10000.00, -10000.00, -4244.33, -4241.92, 0.00, 0.00, 0.00, 0.00, 1.57, 1.64, 1.70
223, 10000.00, -10000.00, -4242.27, -4233.42, 0.00, 0.00, 0.00, 0.00, 1.57, 1.64, 1.70
224, 10000.00, -10000.00, -4239.70, -4233.68, 0.00, 0.00, 0.00, 0.00, 1.57, 1.64, 1.70
225, 10000.00, -10000.00, -4237.09, -4244.83, 0.00, 0.00, 0.00, 0.00, 1.57, 1.64, 1.70
226, 10000.00, -10000.00, -4236.93, -4244.69, 0.00, 0.00, 0.00, 0.00, 1.57, 1.64, 1.70
227, 10000.00, -10000.00, -4232.32, -4257.56, 0.00, 0.00, 0.00, 0.00, 1.57, 1.64, 1.70
228, 10000.00, -10000.00, -4242.14, -4247.21, 0.00, 0.00, 0.00, 0.00, 1.57, 1.64, 1.70
229, 10000.00, -10000.00, -4246.81, -4242.13, 0.00, 0.00, 0.00, 0.00, 1.57, 1.64, 1.70
230, 10000.00, -10000.00, -4243.96, -4239.22, 0.00, 0.00, 0.00, 0.00, 1.57, 1.64, 1.70
231, 10000.00, -10000.00, -4243.57, -4242.96, 0.00, 0.00, 0.00, 0.00, 1.57, 1.64, 1.70
232, 10000.00, -10000.00, -4253.10, -4232.72, 0.00, 0.00, 0.00, 0.00, 1.57, 1.64, 1.70
233, 10000.00, -10000.00, -4260.95, -4225.80, 0.00, 0.00, 0.00, 0.00, 1.57, 1.64, 1.70
234, 10000.00, -10000.00, -4265.11, -4221.09, 0.00, 0.00, 0.00, 0.00, 1.57, 1.64, 1.70
235, 10000.00, -10000.00, -4265.77, -4221.73, 0.00, 0.00, 0.00, 0.00, 1.57, 1.64, 1.70
236, 10000.00, -10000.00, -4263.72, -4220.48, 0.00, 0.00, 0.00, 0.00, 1.57, 1.64, 1.70
237, 10000.00, -10000.00, -4255.63, -4226.51, 0.00, 0.00, 0.00, 0.00, 1.57, 1.64, 1.70
238, 10000.00, -10000.00, -4251.48, -4236.86, 0.00, 0.00, 0.00, 0.00, 1.57, 1.64, 1.70
239, 10000.00, -10000.00, -4239.21, -4244.71, 0.00, 0.00, 0.00, 0.00, 1.57, 1.64, 1.70
240, 10000.00, -10000.00, -4250.61, -4233.21, 0.00, 0.00, 0.00, 0.00, 1.57, 1.64, 1.70
241, 10000.00, -10000.00, -4251.99, -4232.74, 0.00, 0.00, 0.00, 0.00, 1.57, 1.64, 1.70
242, 10000.00, -10000.00, -4252.62, -4231.66, 0.00, 0.00, 0.00, 0.00, 1.57, 1.64, 1.70
243, 10000.00, -10000.00, -4243.46, -4244.35, 0.00, 0.00, 0.00, 0.00, 1.57, 1.64, 1.70
244, 10000.00, -10000.00, -4245.26, -4237.54, 0.00, 0.00, 0.00, 0.00, 1.57, 1.64, 1.70
245, 10000.00, -10000.00, -4240.64, -4235.01, 0.00, 0.00, 0.00, 0.00, 1.57, 1.64, 1.70
246, 10000.00, -10000.00, -4228.75, -4243.40, 0.00, 0.00, 0.00, 0.00, 1.57, 1.64, 1.70
247, 10000.00, -10000.00, -4227.30, -4259.31, 0.00, 0.00, 0.00, 0.00, 1.57, 1.64, 1.70
248, 10000.00, -10000.00, -4231.25, -4253.84, 0.00, 0.00, 0.00, 0.00, 1.57, 1.64, 1.70
249, 10000.00, -10000.00, -4235.29, -4247.50, 0.00, 0.00, 0.00, 0.00, 1.57, 1.64, 1.70
250, 10000.00, -10000.00, -4236.34, -4244.25, 0.00, 0.00, 0.00, 0.00, 1.57, 1.64, 1.70
251, 10000.00, -10000.00, -4240.74, -4236.78, 0.00, 0.00, 0.00, 0.00, 1.57, 1.64, 1.70
252, 10000.00, -10000.00, -4237.15, -4247.94, 0.00, 0.00, 0.00, 0.00, 1.57, 1.64, 1.70
253, 10000.00, -10000.00, -4228.08, -4251.89, 0.00, 0.00, 0.00, 0.00, 1.57, 1.64, 1.70
254, 10000.00, -10000.00, -4240.14, -4240.91, 0.00, 0.00, 0.00, 0.00, 1.57, 1.64, 1.70
255, 10000.00, -10000.00, -4245.77, -4235.89, 0.00, 0.00, 0.00, 0.00, 1.57, 1.64, 1.70
0, 10000.00, -10000.00, -4257.27, -4218.75, 0.00, 0.00, 0.00, 0.00, 1.57, 1.64, 1.70
1, 10000.00, -10000.00, -4249.76, -4229.71, 0.00, 0.00, 0.00, 0.00, 1.57, 1.64, 1.70
2, 10000.00, -10000.00, -4246.78, -4235.00, 0.00, 0.00, 0.00, 0.00, 1.57, 1.64, 1.70
3, 10000.00, -10000.00, -4258.23, -4225.89, 0.00, 0.00, 0.00, 0.00, 1.57, 1.64, 1.70
4, 10000.00, -10000.00, -4243.83, -4234.48, 0.00, 0.00, 0.00, 0.00, 1.57, 1.64, 1.70
5, 10000.00, -10000.00, -4236.15, -4244.07, 0.00, 0.00, 0.00, 0.00, 1.57, 1.64, 1.70
6, 10000.00, -10000.00, -4240.75, -4236.96, 0.00, 0.00, 0.00, 0.00, 1.57, 1.64, 1.70
7, 10000.00, -10000.00, -4243.83, -4238.08, 0.00, 0.00, 0.00, 0.00, 1.57, 1.64, 1.70
8, 10000.00, -10000.00, -4236.13, -4247.26, 0.00, 0.00, 0.00, 0.00, 1.57, 1.64, 1.70
9, 10000.00, -10000.00, -4232.48, -4245.44, 0.00, 0.00, 0.00, 0.00, 1.57, 1.64, 1.70
10, 10000.00, -10000.00, -4227.56, -4250.97, 0.00, 0.00, 0.00, 0.00, 1.57, 1.64, 1.70
11, 10000.00, -10000.00, -4229.99, -4247.38, 0.00, 0.00, 0.00, 0.00, 1.57, 1.64, 1.70
12, 10000.00, -10000.00, -4226.97, -4254.16, 0.00, 0.00, 0.00, 0.00, 1.57, 1.64, 1.70
13, 10000.00, -10000.00, -4226.28, -4256.73, 0.00, 0.00, 0.00, 0.00, 1.57, 1.64, 1.70
14, 10000.00, -10000.00, -4238.30, -4240.52, 0.00, 0.00, 0.00, 0.00, 1.57, 1.64, 1.70
15, 10000.00, -10000.00, -4239.60, -4245.72, 0.00, 0.00, 0.00, 0.00, 1.57, 1.64, 1.70
16, 10000.00, -10000.00, -4237.25, -4242.67, 0.00, 0.00, 0.00, 0.00, 1.57, 1.64, 1.70
17, 10000.00, -10000.00, -4243.57, -4238.12, 0.00, 0.00, 0.00, 0.00, 1.57, 1.64, 1.70
18, 10000.00, -10000.00, -4250.17, -4237.19, 0.00, 0.00, 0.00, 0.00, 1.57, 1.64, 1.70
19, 10000.00, -10000.00, -4250.40, -4241.32, 0.00, 0.00, 0.00, 0.00, 1.57, 1.64, 1.70
20, 10000.00, -10000.00, -4249.91, -4239.53, 0.00, 0.00, 0.00, 0.00, 1.57, 1.64, 1.70
21, 10000.00, -10000.00, -4240.63, -4242.75, 0.00, 0.00, 0.00, 0.00, 1.57, 1.64, 1.70
22, 10000.00, -10000.00, -4246.55, -4235.09, 0.00, 0.00, 0.00, 0.00, 1.57, 1.64, 1.70
23, 10000.00, -10000.00, -4256.69, -4222.14, 0.00, 0.00, 0.00, 0.00, 1.57, 1.64, 1.70
24, 10000.00, -10000.00, -4249.73, -4237.20, 0.00, 0.00, 0.00, 0.00, 1.57, 1.64, 1.70
25, 10000.00, -10000.00, -4248.04, -4234.50, 0.00, 0.00, 0.00, 0.00, 1.57, 1.64, 1.70
26, 10000.00, -10000.00, -4241.78, -4242.41, 0.00, 0.00, 0.00, 0.00, 1.57, 1.64, 1.70
27, 10000.00, -10000.00, -4247.94, -4232.16, 0.00, 0.00, 0.00, 0.00, 1.57, 1.64, 1.70
28, 10000.00, -10000.00, -4253.53, -4233.94, 0.00, 0.00, 0.00, 0.00, 1.57, 1.64, 1.70
29, 10000.00, -10000.00, -4262.15, -4226.28, 0.00, 0.00, 0.00, 0.00, 1.57, 1.64, 1.70
30, 10000.00, -10000.00, -4232.46, -4242.28, 0.00, 0.00, 0.00, 0.00, 1.57, 1.64, 1.70
31, 10000.00, -10000.00, -4237.46, -4242.44, 0.00, 0.00, 0.00, 0.00, 1.57, 1.64, 1.70
32, 10000.00, -10000.00, -4242.12, -4239.88, 0.00, 0.00, 0.00, 0.00, 1.57, 1.64, 1.70
33, 10000.00, -10000.00, -4244.28, -4238.59, 0.00, 0.00, 0.00, 0.00, 1.57, 1.64, 1.70
34, 10000.00, -10000.00, -4241.63, -4241.88, 0.00, 0.00, 0.00, 0.00, 1.57, 1.64, 1.70
35, 10000.00, -10000.00, -4242.33, -4239.47, 0.00, 0.00, 0.00, 0.00, 1.57, 1.64, 1.70
36, 10000.00, -10000.00, -4246.56, -4232.91, 0.00, 0.00, 0.00, 0.00, 1.57, 1.64, 1.70
37, 10000.00, -10000.00, -4239.64, -4239.63, 0.00, 0.00, 0.00, 0.00, 1.57, 1.64, 1.70
38, 10000.00, -10000.00, -4240.18, -4246.14, 0.00, 0.00, 0.00, 0.00, 1.57, 1.64, 1.70
39, 10000.00, -10000.00, -4245.16, -4237.47, 0.00, 0.00, 0.00, 0.00, 1.57, 1.64, 1.70
40, 10000.00, -10000.00, -4240.69, -4238.02, 0.00, 0.00, 0.00, 0.00, 1.57, 1.64, 1.70
41, 10000.00, -10000.00, -4239.97, -4240.71, 0.00, 0.00, 0.00, 0.00, 1.57, 1.64, 1.70
42, 10000.00, -10000.00, -4239.61, -4243.73, 0.00, 0.00, 0.00, 0.00, 1.57, 1.64, 1.70
43, 10000.00, -10000.00, -4249.08, -4237.56, 0.00, 0.00, 0.00, 0.00, 1.57, 1.64, 1.70
44, 10000.00, -10000.00, -4256.27, -4224.37, 0.00, 0.00, 0.00, 0.00, 1.57, 1.64, 1.70
45, 10000.00, -10000.00, -4245.78, -4234.45, 0.00, 0.00, 0.00, 0.00, 1.57, 1.64, 1.70
46, 10000.00, -10000.00, -4252.62, -4234.03, 0.00, 0.00, 0.00, 0.00, 1.57, 1.64, 1.70
47, 10000.00, -10000.00, -4253.60, -4232.92, 0.00, 0.00, 0.00, 0.00, 1.57, 1.64, 1.70
48, 10000.00, -10000.00, -4230.99, -4251.83, 0.00, 0.00, 0.00, 0.00, 1.57, 1.64, 1.70
49, 10000.00, -10000.00, -4251.24, -4227.85, 0.00, 0.00, 0.00, 0.00, 1.57, 1.64, 1.70
50, 10000.00, -10000.00, -4244.04, -4239.64, 0.00, 0.00, 0.00, 0.00, 1.57, 1.64, 1.70
51, 10000.00, -10000.00, -4243.87, -4234.82, 0.00, 0.00, 0.00, 0.00, 1.57, 1.64, 1.70
52, 10000.00, -10000.00, -4243.40, -4239.39, 0.00, 0.00, 0.00, 0.00, 1.57, 1.64, 1.70
53, 10000.00, -10000.00, -4233.66, -4255.36, 0.00, 0.00, 0.00, 0.00, 1.57, 1.64, 1.70
54, 10000.00, -10000.00, -4223.75, -4261.67, 0.00, 0.00, 0.00, 0.00, 1.57, 1.64, 1.70
55, 10000.00, -10000.00, -4238.70, -4247.95, 0.00, 0.00, 0.00, 0.00, 1.57, 1.64, 1.70
56, 10000.00, -10000.00, -4237.97, -4244.65, 0.00, 0.00, 0.00, 0.00, 1.57, 1.64, 1.70
57, 10000.00, -10000.00, -4229.07, -4252.70, 0.00, 0.00, 0.00, 0.00, 1.57, 1.64, 1.70
58, 10000.00, -10000.00, -4232.19, -4252.34, 0.00, 0.00, 0.00, 0.00, 1.57, 1.64, 1.70
59, 10000.00, -10000.00, -4233.15, -4249.31, 0.00, 0.00, 0.00, 0.00, 1.57, 1.64, 1.70
60, 10000.00, -10000.00, -4235.05, -4249.02, 0.00, 0.00, 0.00, 0.00, 1.57, 1.64, 1.70
61, 10000.00, -10000.00, -4234.13, -4251.62, 0.00, 0.00, 0.00, 0.00, 1.57, 1.64, 1.70
62, 10000.00, -10000.00, -4232.64, -4258.51, 0.00, 0.00, 0.00, 0.00, 1.57, 1.64, 1.70
63, 10000.00, -10000.00, -4235.97, -4253.62, 0.00, 0.00, 0.00, 0.00, 1.57, 1.64, 1.70
64, 10000.00, -10000.00, -4241.34, -4245.23, 0.00, 0.00, 0.00, 0.00, 1.57, 1.64, 1.70
65, 10000.00, -10000.00, -4243.88, -4246.31, 0.00, 0.00, 0.00, 0.00, 1.57, 1.64, 1.70
66, 10000.00, -10000.00, -4253.37, -4237.82, 0.00, 0.00, 0.00, 0.00, 1.57, 1.64, 1.70
67, 10000.00, -10000.00, -4252.29, -4234.53, 0.00, 0.00, 0.00, 0.00, 1.57, 1.64, 1.70
68, 10000.00, -10000.00, -4247.13, -4240.05, 0.00, 0.00, 0.00, 0.00, 1.57, 1.64, 1.70
69, 10000.00, -10000.00, -4242.58, -4248.42, 0.00, 0.00, 0.00, 0.00, 1.57, 1.64, 1.70
70, 10000.00, -10000.00, -4240.60, -4247.70, 0.00, 0.00, 0.00, 0.00, 1.57, 1.64, 1.70
71, 10000.00, -10000.00, -4247.17, -4232.09, 0.00, 0.00, 0.00, 0.00, 1.57, 1.64, 1.70
72, 10000.00, -10000.00, -4233.99, -4247.75, 0.00, 0.00, 0.00, 0.00, 1.57, 1.64, 1.70
73, 10000.00, -10000.00, -4228.00, -4258.98, 0.00, 0.00, 0.00, 0.00, 1.57, 1.64, 1.70
74, 10000.00, -10000.00, -4227.20, -4253.60, 0.00, 0.00, 0.00, 0.00, 1.57, 1.64, 1.70
75, 10000.00, -10000.00, -4236.17, -4246.62, 0.00, 0.00, 0.00, 0.00, 1.57, 1.64, 1.70
76, 10000.00, -10000.00, -4220.59, -4260.16, 0.00, 0.00, 0.00, 0.00, 1.57, 1.64, 1.70
77, 10000.00, -10000.00, -4222.01, -4254.72, 0.00, 0.00, 0.00, 0.00, 1.57, 1.64, 1.70
78, 10000.00, -10000.00, -4245.62, -4232.24, 0.00, 0.00, 0.00, 0.00, 1.57, 1.64, 1.70
79, 10000.00, -10000.00, -4243.11, -4237.82, 0.00, 0.00, 0.00, 0.00, 1.57, 1.64, 1.70
80, 10000.00, -10000.00, -4234.69, -4250.96, 0.00, 0.00, 0.00, 0.00, 1.57, 1.64, 1.70
81, 10000.00, -10000.00, -4242.09, -4250.01, 0.00, 0.00, 0.00, 0.00, 1.57, 1.64, 1.70
82, 10000.00, -10000.00, -4249.48, -4246.27, 0.00, 0.00, 0.00, 0.00, 1.57, 1.64, 1.70
83, 10000.00, -10000.00, -4249.54, -4240.49, 0.00, 0.00, 0.00, 0.00, 1.57, 1.64, 1.70
84, 10000.00, -10000.00, -4236.04, -4248.43, 0.00, 0.00, 0.00, 0.00, 1.57, 1.64, 1.70
85, 10000.00, -10000.00, -4242.25, -4242.80, 0.00, 0.00, 0.00, 0.00, 1.57, 1.64, 1.70
86, 10000.00, -10000.00, -4239.18, -4241.64, 0.00, 0.00, 0.00, 0.00, 1.57, 1.64, 1.70
87, 10000.00, -10000.00, -4235.46, -4239.64, 0.00, 0.00, 0.00, 0.00, 1.57, 1.64, 1.70
88, 10000.00, -10000.00, -4238.43, -4241.98, 0.00, 0.00, 0.00, 0.00, 1.57, 1.64, 1.70
89, 10000.00, -10000.00, -4238.84, -4245.38, 0.00, 0.00, 0.00, 0.00, 1.57, 1.64, 1.70
90, 10000.00, -10000.00, -4250.25, -4240.58, 0.00, 0.00, 0.00, 0.00, 1.57, 1.64, 1.70
91, 10000.00, -10000.00, -4245.62, -4236.19, 0.00, 0.00, 0.00, 0.00, 1.57, 1.64, 1.70
92, 10000.00, -10000.00, -4245.96, -4237.59, 0.00, 0.00, 0.00, 0.00, 1.57, 1.64, 1.70
93, 10000.00, -10000.00, -4249.10, -4231.84, 0.00, 0.00, 0.00, 0.00, 1.57, 1.64, 1.70
94, 10000.00, -10000.00, -4242.60, -4240.64, 0.00, 0.00, 0.00, 0.00, 1.57, 1.64, 1.70
95, 10000.00, -10000.00, -4238.86, -4241.59, 0.00, 0.00, 0.00, 0.00, 1.57, 1.64, 1.70
96, 10000.00, -10000.00, -4237.82, -4248.84, 0.00, 0.00, 0.00, 0.00, 1.57, 1.64, 1.70
97, 10000.00, -10000.00, -4237.19, -4241.53, 0.00, 0.00, 0.00, 0.00, 1.57, 1.64, 1.70
98, 10000.00, -10000.00, -4231.35, -4243.63, 0.00, 0.00, 0.00, 0.00, 1.57, 1.64, 1.70
99, 10000.00, -10000.00, -4219.83, -4260.66, 0.00, 0.00, 0.00, 0.00, 1.57, 1.64, 1.70
100, 10000.00, -10000.00, -4211.52, -4270.26, 0.00, 0.00, 0.00, 0.00, 1.57, 1.64, 1.70
101, 10000.00, -10000.00, -4232.05, -4252.44, 0.00, 0.00, 0.00, 0.00, 1.57, 1.64, 1.70
102, 10000.00, -10000.00, -4231.72, -4253.56, 0.00, 0.00, 0.00, 0.00, 1.57, 1.64, 1.70
103, 10000.00, -10000.00, -4237.48, -4251.80, 0.00, 0.00, 0.00, 0.00, 1.57, 1.64, 1.70
104, 10000.00, -10000.00, -4240.64, -4250.43, 0.00, 0.00, 0.00, 0.00, 1.57, 1.64, 1.70
105, 10000.00, -10000.00, -4238.08, -4252.45, 0.00, 0.00, 0.00, 0.00, 1.57, 1.64, 1.70
