%OpenBCI Raw EEG Data
%Number of channels = 8
%Sample Rate = 250.0 Hz
%First Column = SampleIndex
%Last Column = Timestamp 
%Other Columns = EEG data in microvolts followed by Accel Data (in G) interleaved with Aux Data
2, 10950.79, 9926.83, 0.00, 0.00, 0.00, 0.00, 6569.47, 18142.93, 0.000, 0.000, 0.000, 18:54:33.009, 1553986473009
3, 10996.86, 9992.66, 0.00, 0.00, 0.00, 0.00, 6528.79, 17189.43, 0.000, 0.000, 0.000, 18:54:33.016, 1553986473016
4, 10996.43, 10036.67, 0.00, 0.00, 0.00, 0.00, 6563.54, 17701.98, 0.000, 0.000, 0.000, 18:54:33.016, 1553986473016
5, 10969.14, 9994.98, 0.00, 0.00, 0.00, 0.00, 6595.84, 18473.00, 0.000, 0.000, 0.000, 18:54:33.023, 1553986473023
6, 10952.42, 9925.25, 0.00, 0.00, 0.00, 0.00, 6567.93, 18367.08, 0.000, 0.000, 0.000, 18:54:33.023, 1553986473023
7, 10993.24, 9978.00, 0.00, 0.00, 0.00, 0.00, 6526.62, 17223.72, 0.000, 0.000, 0.000, 18:54:33.030, 1553986473030
8, 11003.25, 10046.77, 0.00, 0.00, 0.00, 0.00, 6570.03, 17592.99, 0.000, 0.000, 0.000, 18:54:33.030, 1553986473030
9, 10967.62, 10012.93, 0.00, 0.00, 0.00, 0.00, 6601.32, 18344.03, 0.000, 0.000, 0.000, 18:54:33.038, 1553986473038
10, 10953.23, 9936.11, 0.00, 0.00, 0.00, 0.00, 6586.97, 18556.60, 0.000, 0.000, 0.000, 18:54:33.038, 1553986473038
11, 10994.11, 9965.37, 0.00, 0.00, 0.00, 0.00, 6526.60, 17333.55, -0.046, -0.168, 1.016, 18:54:33.046, 1553986473046
12, 11002.40, 10034.17, 0.00, 0.00, 0.00, 0.00, 6550.45, 17462.88, 0.000, 0.000, 0.000, 18:54:33.046, 1553986473046
13, 10981.39, 10015.46, 0.00, 0.00, 0.00, 0.00, 6575.23, 18183.86, 0.000, 0.000, 0.000, 18:54:33.053, 1553986473053
14, 10951.75, 9936.33, 0.00, 0.00, 0.00, 0.00, 6587.30, 18656.62, 0.000, 0.000, 0.000, 18:54:33.053, 1553986473053
15, 10992.90, 9953.03, 0.00, 0.00, 0.00, 0.00, 6542.44, 17507.52, 0.000, 0.000, 0.000, 18:54:33.060, 1553986473060
16, 11016.88, 10033.85, 0.00, 0.00, 0.00, 0.00, 6559.16, 17356.78, 0.000, 0.000, 0.000, 18:54:33.068, 1553986473068
17, 11005.62, 10044.81, 0.00, 0.00, 0.00, 0.00, 6598.75, 18067.72, 0.000, 0.000, 0.000, 18:54:33.069, 1553986473069
18, 10966.79, 9962.73, 0.00, 0.00, 0.00, 0.00, 6608.81, 18711.25, 0.000, 0.000, 0.000, 18:54:33.076, 1553986473076
19, 10990.67, 9952.85, 0.00, 0.00, 0.00, 0.00, 6555.30, 17734.90, 0.000, 0.000, 0.000, 18:54:33.076, 1553986473076
20, 11003.90, 10011.93, 0.00, 0.00, 0.00, 0.00, 6523.38, 17246.85, 0.000, 0.000, 0.000, 18:54:33.083, 1553986473083
21, 10989.12, 10037.97, 0.00, 0.00, 0.00, 0.00, 6572.13, 17923.82, -0.046, -0.164, 1.018, 18:54:33.083, 1553986473083
22, 10961.61, 9972.74, 0.00, 0.00, 0.00, 0.00, 6602.82, 18666.81, 0.000, 0.000, 0.000, 18:54:33.090, 1553986473090
23, 10989.15, 9944.72, 0.00, 0.00, 0.00, 0.00, 6564.39, 17974.85, 0.000, 0.000, 0.000, 18:54:33.090, 1553986473090
24, 11025.85, 10020.22, 0.00, 0.00, 0.00, 0.00, 6546.78, 17216.23, 0.000, 0.000, 0.000, 18:54:33.098, 1553986473098
25, 11005.22, 10053.68, 0.00, 0.00, 0.00, 0.00, 6583.33, 17820.26, 0.000, 0.000, 0.000, 18:54:33.098, 1553986473098
26, 10967.58, 9986.89, 0.00, 0.00, 0.00, 0.00, 6597.99, 18580.09, 0.000, 0.000, 0.000, 18:54:33.106, 1553986473106
27, 10971.82, 9943.06, 0.00, 0.00, 0.00, 0.00, 6573.33, 18216.36, 0.000, 0.000, 0.000, 18:54:33.106, 1553986473106
28, 11000.86, 9992.44, 0.00, 0.00, 0.00, 0.00, 6516.99, 17184.76, 0.000, 0.000, 0.000, 18:54:33.113, 1553986473113
29, 11010.98, 10051.87, 0.00, 0.00, 0.00, 0.00, 6558.36, 17680.32, 0.000, 0.000, 0.000, 18:54:33.113, 1553986473113
30, 10980.50, 10008.17, 0.00, 0.00, 0.00, 0.00, 6591.48, 18448.19, 0.000, 0.000, 0.000, 18:54:33.120, 1553986473120
31, 10968.07, 9944.72, 0.00, 0.00, 0.00, 0.00, 6582.99, 18434.24, -0.044, -0.162, 1.018, 18:54:33.120, 1553986473120
32, 11010.63, 9989.04, 0.00, 0.00, 0.00, 0.00, 6535.74, 17259.48, 0.000, 0.000, 0.000, 18:54:33.128, 1553986473128
33, 11013.35, 10053.93, 0.00, 0.00, 0.00, 0.00, 6576.73, 17571.24, 0.000, 0.000, 0.000, 18:54:33.136, 1553986473136
34, 10982.64, 10027.57, 0.00, 0.00, 0.00, 0.00, 6610.89, 18316.87, 0.000, 0.000, 0.000, 18:54:33.136, 1553986473136
35, 10962.86, 9947.78, 0.00, 0.00, 0.00, 0.00, 6603.58, 18599.58, 0.000, 0.000, 0.000, 18:54:33.142, 1553986473142
36, 11007.99, 9972.16, 0.00, 0.00, 0.00, 0.00, 6539.36, 17381.43, 0.000, 0.000, 0.000, 18:54:33.143, 1553986473143
37, 11012.95, 10040.89, 0.00, 0.00, 0.00, 0.00, 6556.24, 17438.16, 0.000, 0.000, 0.000, 18:54:33.150, 1553986473150
38, 10986.17, 10029.43, 0.00, 0.00, 0.00, 0.00, 6584.53, 18157.21, 0.000, 0.000, 0.000, 18:54:33.151, 1553986473151
39, 10955.64, 9940.36, 0.00, 0.00, 0.00, 0.00, 6586.01, 18669.34, 0.000, 0.000, 0.000, 18:54:33.159, 1553986473159
40, 10987.60, 9942.57, 0.00, 0.00, 0.00, 0.00, 6531.02, 17547.01, 0.000, 0.000, 0.000, 18:54:33.159, 1553986473159
41, 11000.88, 10018.95, 0.00, 0.00, 0.00, 0.00, 6542.67, 17321.84, -0.048, -0.158, 1.022, 18:54:33.165, 1553986473165
42, 11000.88, 10041.05, 0.00, 0.00, 0.00, 0.00, 6599.08, 18035.35, 0.000, 0.000, 0.000, 18:54:33.166, 1553986473166
43, 10966.66, 9965.64, 0.00, 0.00, 0.00, 0.00, 6618.93, 18708.21, 0.000, 0.000, 0.000, 18:54:33.173, 1553986473173
44, 10980.76, 9942.53, 0.00, 0.00, 0.00, 0.00, 6559.05, 17790.38, 0.000, 0.000, 0.000, 18:54:33.173, 1553986473173
45, 11002.40, 10012.75, 0.00, 0.00, 0.00, 0.00, 6538.62, 17242.54, 0.000, 0.000, 0.000, 18:54:33.181, 1553986473181
46, 10987.45, 10038.26, 0.00, 0.00, 0.00, 0.00, 6574.43, 17899.37, 0.000, 0.000, 0.000, 18:54:33.181, 1553986473181
47, 10960.87, 9970.20, 0.00, 0.00, 0.00, 0.00, 6602.79, 18645.78, 0.000, 0.000, 0.000, 18:54:33.188, 1553986473188
48, 10978.93, 9945.97, 0.00, 0.00, 0.00, 0.00, 6581.27, 18043.69, 0.000, 0.000, 0.000, 18:54:33.195, 1553986473195
49, 11016.93, 10015.53, 0.00, 0.00, 0.00, 0.00, 6549.26, 17208.76, 0.000, 0.000, 0.000, 18:54:33.195, 1553986473195
50, 10997.68, 10045.12, 0.00, 0.00, 0.00, 0.00, 6578.88, 17780.90, -0.048, -0.158, 1.020, 18:54:33.203, 1553986473203
51, 10955.73, 9986.33, 0.00, 0.00, 0.00, 0.00, 6600.13, 18543.54, 0.000, 0.000, 0.000, 18:54:33.203, 1553986473203
52, 10958.55, 9935.75, 0.00, 0.00, 0.00, 0.00, 6580.08, 18271.95, 0.000, 0.000, 0.000, 18:54:33.211, 1553986473211
53, 11008.01, 9992.55, 0.00, 0.00, 0.00, 0.00, 6532.95, 17207.22, 0.000, 0.000, 0.000, 18:54:33.211, 1553986473211
54, 11000.23, 10041.21, 0.00, 0.00, 0.00, 0.00, 6555.39, 17649.67, 0.000, 0.000, 0.000, 18:54:33.218, 1553986473218
55, 10979.33, 10007.05, 0.00, 0.00, 0.00, 0.00, 6587.48, 18410.86, 0.000, 0.000, 0.000, 18:54:33.219, 1553986473219
56, 10965.81, 9934.88, 0.00, 0.00, 0.00, 0.00, 6572.40, 18463.68, 0.000, 0.000, 0.000, 18:54:33.226, 1553986473226
57, 11000.79, 9976.08, 0.00, 0.00, 0.00, 0.00, 6513.95, 17268.69, 0.000, 0.000, 0.000, 18:54:33.226, 1553986473226
58, 11010.56, 10052.29, 0.00, 0.00, 0.00, 0.00, 6554.54, 17537.13, 0.000, 0.000, 0.000, 18:54:33.234, 1553986473234
59, 10993.24, 10041.59, 0.00, 0.00, 0.00, 0.00, 6602.39, 18289.67, 0.000, 0.000, 0.000, 18:54:33.235, 1553986473235
60, 10965.18, 9955.20, 0.00, 0.00, 0.00, 0.00, 6604.63, 18627.99, -0.048, -0.160, 1.020, 18:54:33.242, 1553986473242
61, 10993.33, 9970.87, 0.00, 0.00, 0.00, 0.00, 6541.60, 17423.41, 0.000, 0.000, 0.000, 18:54:33.242, 1553986473242
62, 11010.16, 10048.18, 0.00, 0.00, 0.00, 0.00, 6554.76, 17416.32, 0.000, 0.000, 0.000, 18:54:33.248, 1553986473248
63, 10992.32, 10050.28, 0.00, 0.00, 0.00, 0.00, 6597.68, 18139.02, 0.000, 0.000, 0.000, 18:54:33.255, 1553986473255
64, 10956.13, 9964.05, 0.00, 0.00, 0.00, 0.00, 6607.06, 18700.92, 0.000, 0.000, 0.000, 18:54:33.255, 1553986473255
65, 10985.77, 9956.12, 0.00, 0.00, 0.00, 0.00, 6544.88, 17614.67, 0.000, 0.000, 0.000, 18:54:33.263, 1553986473263
66, 11025.87, 10047.09, 0.00, 0.00, 0.00, 0.00, 6563.61, 17314.94, 0.000, 0.000, 0.000, 18:54:33.263, 1553986473263
67, 11004.48, 10059.56, 0.00, 0.00, 0.00, 0.00, 6603.11, 18012.55, 0.000, 0.000, 0.000, 18:54:33.271, 1553986473271
68, 10954.28, 9974.44, 0.00, 0.00, 0.00, 0.00, 6609.77, 18701.28, 0.000, 0.000, 0.000, 18:54:33.271, 1553986473271
69, 10975.22, 9950.08, 0.00, 0.00, 0.00, 0.00, 6564.17, 17855.06, 0.000, 0.000, 0.000, 18:54:33.277, 1553986473277
70, 11010.58, 10027.33, 0.00, 0.00, 0.00, 0.00, 6547.03, 17238.87, -0.044, -0.158, 1.014, 18:54:33.278, 1553986473278
71, 10999.67, 10064.05, 0.00, 0.00, 0.00, 0.00, 6590.57, 17887.29, 0.000, 0.000, 0.000, 18:54:33.286, 1553986473286
72, 10966.01, 9997.76, 0.00, 0.00, 0.00, 0.00, 6616.81, 18648.30, 0.000, 0.000, 0.000, 18:54:33.286, 1553986473286
73, 10978.37, 9951.42, 0.00, 0.00, 0.00, 0.00, 6578.65, 18109.79, 0.000, 0.000, 0.000, 18:54:33.293, 1553986473293
74, 11008.01, 10008.51, 0.00, 0.00, 0.00, 0.00, 6543.94, 17206.30, 0.000, 0.000, 0.000, 18:54:33.294, 1553986473294
75, 10995.67, 10050.73, 0.00, 0.00, 0.00, 0.00, 6583.91, 17758.26, 0.000, 0.000, 0.000, 18:54:33.301, 1553986473301
76, 10972.90, 9995.79, 0.00, 0.00, 0.00, 0.00, 6610.37, 18518.15, 0.000, 0.000, 0.000, 18:54:33.301, 1553986473301
77, 10964.85, 9930.79, 0.00, 0.00, 0.00, 0.00, 6583.55, 18331.56, 0.000, 0.000, 0.000, 18:54:33.307, 1553986473307
78, 11015.34, 9995.23, 0.00, 0.00, 0.00, 0.00, 6543.25, 17231.14, 0.000, 0.000, 0.000, 18:54:33.315, 1553986473315
79, 11015.59, 10059.69, 0.00, 0.00, 0.00, 0.00, 6579.75, 17639.93, 0.000, 0.000, 0.000, 18:54:33.315, 1553986473315
80, 10976.96, 10017.87, 0.00, 0.00, 0.00, 0.00, 6602.12, 18385.43, -0.046, -0.162, 1.012, 18:54:33.323, 1553986473323
81, 10958.01, 9944.47, 0.00, 0.00, 0.00, 0.00, 6596.87, 18518.84, 0.000, 0.000, 0.000, 18:54:33.323, 1553986473323
82, 11007.74, 9984.64, 0.00, 0.00, 0.00, 0.00, 6544.43, 17316.63, 0.000, 0.000, 0.000, 18:54:33.330, 1553986473330
83, 11019.66, 10053.26, 0.00, 0.00, 0.00, 0.00, 6573.47, 17515.01, 0.000, 0.000, 0.000, 18:54:33.331, 1553986473331
84, 10988.18, 10028.51, 0.00, 0.00, 0.00, 0.00, 6604.90, 18242.60, 0.000, 0.000, 0.000, 18:54:33.338, 1553986473338
85, 10969.05, 9957.99, 0.00, 0.00, 0.00, 0.00, 6619.94, 18657.20, 0.000, 0.000, 0.000, 18:54:33.338, 1553986473338
86, 11015.25, 9984.14, 0.00, 0.00, 0.00, 0.00, 6568.28, 17486.53, 0.000, 0.000, 0.000, 18:54:33.346, 1553986473346
87, 11031.95, 10052.05, 0.00, 0.00, 0.00, 0.00, 6568.95, 17399.22, 0.000, 0.000, 0.000, 18:54:33.346, 1553986473346
88, 11005.15, 10043.22, 0.00, 0.00, 0.00, 0.00, 6589.50, 18094.77, 0.000, 0.000, 0.000, 18:54:33.354, 1553986473354
89, 10972.31, 9969.50, 0.00, 0.00, 0.00, 0.00, 6610.77, 18703.00, 0.000, 0.000, 0.000, 18:54:33.354, 1553986473354
90, 11012.86, 9966.04, 0.00, 0.00, 0.00, 0.00, 6560.59, 17677.68, -0.046, -0.162, 1.020, 18:54:33.361, 1553986473361
91, 11036.42, 10038.30, 0.00, 0.00, 0.00, 0.00, 6556.68, 17290.79, 0.000, 0.000, 0.000, 18:54:33.361, 1553986473361
92, 11015.19, 10055.45, 0.00, 0.00, 0.00, 0.00, 6602.68, 17976.26, 0.000, 0.000, 0.000, 18:54:33.368, 1553986473368
93, 10979.51, 9986.00, 0.00, 0.00, 0.00, 0.00, 6627.65, 18698.44, 0.000, 0.000, 0.000, 18:54:33.368, 1553986473368
94, 10993.57, 9947.33, 0.00, 0.00, 0.00, 0.00, 6570.18, 17909.96, 0.000, 0.000, 0.000, 18:54:33.375, 1553986473375
95, 11019.39, 10008.06, 0.00, 0.00, 0.00, 0.00, 6535.67, 17210.57, 0.000, 0.000, 0.000, 18:54:33.383, 1553986473383
96, 11006.67, 10041.48, 0.00, 0.00, 0.00, 0.00, 6573.89, 17834.21, 0.000, 0.000, 0.000, 18:54:33.383, 1553986473383
97, 10977.21, 9981.31, 0.00, 0.00, 0.00, 0.00, 6603.78, 18600.36, 0.000, 0.000, 0.000, 18:54:33.390, 1553986473390
98, 10983.29, 9933.74, 0.00, 0.00, 0.00, 0.00, 6574.07, 18146.73, 0.000, 0.000, 0.000, 18:54:33.390, 1553986473390
99, 11013.42, 9993.44, 0.00, 0.00, 0.00, 0.00, 6535.36, 17184.82, 0.000, 0.000, 0.000, 18:54:33.399, 1553986473399
100, 11006.31, 10037.88, 0.00, 0.00, 0.00, 0.00, 6570.47, 17713.76, -0.048, -0.166, 1.012, 18:54:33.399, 1553986473399
101, 10972.29, 9987.45, 0.00, 0.00, 0.00, 0.00, 6601.43, 18475.79, 0.000, 0.000, 0.000, 18:54:33.406, 1553986473406
102, 10957.85, 9922.48, 0.00, 0.00, 0.00, 0.00, 6585.02, 18372.15, 0.000, 0.000, 0.000, 18:54:33.406, 1553986473406
103, 10997.97, 9966.93, 0.00, 0.00, 0.00, 0.00, 6522.91, 17218.71, 0.000, 0.000, 0.000, 18:54:33.413, 1553986473413
104, 11003.21, 10035.42, 0.00, 0.00, 0.00, 0.00, 6568.08, 17588.50, 0.000, 0.000, 0.000, 18:54:33.413, 1553986473413
105, 10976.45, 10008.28, 0.00, 0.00, 0.00, 0.00, 6608.61, 18343.09, 0.000, 0.000, 0.000, 18:54:33.421, 1553986473421
106, 10957.99, 9935.39, 0.00, 0.00, 0.00, 0.00, 6605.19, 18556.95, 0.000, 0.000, 0.000, 18:54:33.421, 1553986473421
107, 11005.86, 9968.90, 0.00, 0.00, 0.00, 0.00, 6544.97, 17341.62, 0.000, 0.000, 0.000, 18:54:33.429, 1553986473429
108, 11010.89, 10035.78, 0.00, 0.00, 0.00, 0.00, 6562.40, 17471.04, 0.000, 0.000, 0.000, 18:54:33.429, 1553986473429
109, 10990.71, 10027.22, 0.00, 0.00, 0.00, 0.00, 6599.60, 18204.27, 0.000, 0.000, 0.000, 18:54:33.436, 1553986473436
110, 10961.94, 9954.46, 0.00, 0.00, 0.00, 0.00, 6615.51, 18675.80, -0.048, -0.160, 1.016, 18:54:33.442, 1553986473442
111, 10996.19, 9966.78, 0.00, 0.00, 0.00, 0.00, 6560.53, 17527.14, 0.000, 0.000, 0.000, 18:54:33.442, 1553986473442
112, 11014.92, 10041.16, 0.00, 0.00, 0.00, 0.00, 6567.68, 17372.54, 0.000, 0.000, 0.000, 18:54:33.450, 1553986473450
113, 10998.44, 10047.27, 0.00, 0.00, 0.00, 0.00, 6603.17, 18076.73, 0.000, 0.000, 0.000, 18:54:33.450, 1553986473450
114, 10966.95, 9970.24, 0.00, 0.00, 0.00, 0.00, 6622.67, 18721.80, 0.000, 0.000, 0.000, 18:54:33.459, 1553986473459
115, 10995.92, 9954.64, 0.00, 0.00, 0.00, 0.00, 6569.67, 17739.84, 0.000, 0.000, 0.000, 18:54:33.459, 1553986473459
116, 11024.48, 10030.55, 0.00, 0.00, 0.00, 0.00, 6558.07, 17275.42, 0.000, 0.000, 0.000, 18:54:33.466, 1553986473466
117, 11013.33, 10055.00, 0.00, 0.00, 0.00, 0.00, 6596.87, 17945.52, 0.000, 0.000, 0.000, 18:54:33.466, 1553986473466
118, 10977.14, 9989.82, 0.00, 0.00, 0.00, 0.00, 6633.17, 18691.33, 0.000, 0.000, 0.000, 18:54:33.473, 1553986473473
119, 10990.73, 9959.62, 0.00, 0.00, 0.00, 0.00, 6593.34, 17996.64, -0.050, -0.164, 1.018, 18:54:33.474, 1553986473474
120, 11028.31, 10030.14, 0.00, 0.00, 0.00, 0.00, 6567.55, 17232.26, 0.000, 0.000, 0.000, 18:54:33.481, 1553986473481
121, 11023.41, 10069.88, 0.00, 0.00, 0.00, 0.00, 6603.78, 17842.44, 0.000, 0.000, 0.000, 18:54:33.481, 1553986473481
122, 10985.50, 10009.09, 0.00, 0.00, 0.00, 0.00, 6631.56, 18607.25, 0.000, 0.000, 0.000, 18:54:33.488, 1553986473488
123, 10989.46, 9956.27, 0.00, 0.00, 0.00, 0.00, 6606.35, 18239.09, 0.000, 0.000, 0.000, 18:54:33.488, 1553986473488
124, 11027.81, 10020.69, 0.00, 0.00, 0.00, 0.00, 6570.07, 17224.52, 0.000, 0.000, 0.000, 18:54:33.495, 1553986473495
125, 11020.62, 10072.75, 0.00, 0.00, 0.00, 0.00, 6602.84, 17719.26, 0.000, 0.000, 0.000, 18:54:33.503, 1553986473503
126, 10988.97, 10018.30, 0.00, 0.00, 0.00, 0.00, 6622.78, 18470.38, 0.000, 0.000, 0.000, 18:54:33.503, 1553986473503
127, 10965.74, 9938.68, 0.00, 0.00, 0.00, 0.00, 6600.00, 18439.32, 0.000, 0.000, 0.000, 18:54:33.511, 1553986473511
128, 11019.54, 9995.54, 0.00, 0.00, 0.00, 0.00, 6551.54, 17269.20, 0.000, 0.000, 0.000, 18:54:33.511, 1553986473511
129, 11032.33, 10071.00, 0.00, 0.00, 0.00, 0.00, 6589.96, 17586.35, -0.050, -0.160, 1.018, 18:54:33.518, 1553986473518
130, 10994.15, 10038.12, 0.00, 0.00, 0.00, 0.00, 6619.47, 18335.22, 0.000, 0.000, 0.000, 18:54:33.519, 1553986473519
131, 10973.37, 9959.22, 0.00, 0.00, 0.00, 0.00, 6617.59, 18617.66, 0.000, 0.000, 0.000, 18:54:33.525, 1553986473525
132, 11019.90, 9995.95, 0.00, 0.00, 0.00, 0.00, 6569.65, 17405.15, 0.000, 0.000, 0.000, 18:54:33.525, 1553986473525
133, 11029.31, 10066.71, 0.00, 0.00, 0.00, 0.00, 6585.36, 17469.21, 0.000, 0.000, 0.000, 18:54:33.535, 1553986473535
134, 11013.26, 10062.55, 0.00, 0.00, 0.00, 0.00, 6621.55, 18195.26, 0.000, 0.000, 0.000, 18:54:33.535, 1553986473535
135, 10984.07, 9982.69, 0.00, 0.00, 0.00, 0.00, 6627.74, 18712.57, 0.000, 0.000, 0.000, 18:54:33.541, 1553986473541
136, 11007.85, 9977.39, 0.00, 0.00, 0.00, 0.00, 6558.67, 17579.18, 0.000, 0.000, 0.000, 18:54:33.542, 1553986473542
137, 11022.16, 10043.71, 0.00, 0.00, 0.00, 0.00, 6553.64, 17338.54, 0.000, 0.000, 0.000, 18:54:33.548, 1553986473548
138, 11003.23, 10051.49, 0.00, 0.00, 0.00, 0.00, 6594.52, 18045.86, 0.000, 0.000, 0.000, 18:54:33.548, 1553986473548
139, 10974.84, 9978.33, 0.00, 0.00, 0.00, 0.00, 6619.85, 18726.25, -0.048, -0.160, 1.014, 18:54:33.555, 1553986473555
140, 10996.68, 9961.81, 0.00, 0.00, 0.00, 0.00, 6572.42, 17808.71, 0.000, 0.000, 0.000, 18:54:33.563, 1553986473563
141, 11025.78, 10039.31, 0.00, 0.00, 0.00, 0.00, 6561.20, 17263.79, 0.000, 0.000, 0.000, 18:54:33.564, 1553986473564
142, 11015.57, 10070.91, 0.00, 0.00, 0.00, 0.00, 6607.65, 17933.68, 0.000, 0.000, 0.000, 18:54:33.571, 1553986473571
143, 10983.47, 10002.54, 0.00, 0.00, 0.00, 0.00, 6632.41, 18683.73, 0.000, 0.000, 0.000, 18:54:33.571, 1553986473571
144, 10996.34, 9962.71, 0.00, 0.00, 0.00, 0.00, 6594.17, 18060.34, 0.000, 0.000, 0.000, 18:54:33.577, 1553986473577
145, 11027.19, 10022.23, 0.00, 0.00, 0.00, 0.00, 6551.68, 17212.14, 0.000, 0.000, 0.000, 18:54:33.578, 1553986473578
146, 11015.97, 10058.87, 0.00, 0.00, 0.00, 0.00, 6583.62, 17784.41, 0.000, 0.000, 0.000, 18:54:33.586, 1553986473586
147, 10985.88, 10008.75, 0.00, 0.00, 0.00, 0.00, 6615.36, 18564.98, 0.000, 0.000, 0.000, 18:54:33.586, 1553986473586
148, 10979.36, 9955.80, 0.00, 0.00, 0.00, 0.00, 6602.79, 18297.88, 0.000, 0.000, 0.000, 18:54:33.594, 1553986473594
149, 11018.76, 10013.78, 0.00, 0.00, 0.00, 0.00, 6558.52, 17232.30, -0.052, -0.160, 1.012, 18:54:33.594, 1553986473594
150, 11029.76, 10073.80, 0.00, 0.00, 0.00, 0.00, 6599.69, 17687.07, 0.000, 0.000, 0.000, 18:54:33.602, 1553986473602
151, 11002.82, 10037.81, 0.00, 0.00, 0.00, 0.00, 6629.10, 18449.58, 0.000, 0.000, 0.000, 18:54:33.602, 1553986473602
152, 10982.78, 9960.56, 0.00, 0.00, 0.00, 0.00, 6609.21, 18502.46, 0.000, 0.000, 0.000, 18:54:33.608, 1553986473608
153, 11014.51, 9992.91, 0.00, 0.00, 0.00, 0.00, 6540.79, 17296.20, 0.000, 0.000, 0.000, 18:54:33.608, 1553986473608
154, 11028.28, 10062.24, 0.00, 0.00, 0.00, 0.00, 6565.09, 17554.93, 0.000, 0.000, 0.000, 18:54:33.615, 1553986473615
155, 11015.86, 10048.25, 0.00, 0.00, 0.00, 0.00, 6609.95, 18305.50, 0.000, 0.000, 0.000, 18:54:33.615, 1553986473615
156, 10976.18, 9953.50, 0.00, 0.00, 0.00, 0.00, 6600.56, 18639.63, 0.000, 0.000, 0.000, 18:54:33.623, 1553986473623
157, 11005.24, 9962.55, 0.00, 0.00, 0.00, 0.00, 6531.76, 17419.70, 0.000, 0.000, 0.000, 18:54:33.630, 1553986473630
158, 11012.41, 10030.34, 0.00, 0.00, 0.00, 0.00, 6541.64, 17415.76, 0.000, 0.000, 0.000, 18:54:33.631, 1553986473631
159, 10990.38, 10026.70, 0.00, 0.00, 0.00, 0.00, 6585.25, 18131.09, -0.056, -0.162, 1.014, 18:54:33.638, 1553986473638
160, 10965.41, 9952.29, 0.00, 0.00, 0.00, 0.00, 6608.18, 18703.78, 0.000, 0.000, 0.000, 18:54:33.638, 1553986473638
161, 11003.05, 9957.30, 0.00, 0.00, 0.00, 0.00, 6555.97, 17625.69, 0.000, 0.000, 0.000, 18:54:33.646, 1553986473646
162, 11023.39, 10034.84, 0.00, 0.00, 0.00, 0.00, 6558.02, 17317.62, 0.000, 0.000, 0.000, 18:54:33.646, 1553986473646
163, 10999.81, 10038.95, 0.00, 0.00, 0.00, 0.00, 6590.86, 17999.57, 0.000, 0.000, 0.000, 18:54:33.653, 1553986473653
164, 10961.14, 9959.92, 0.00, 0.00, 0.00, 0.00, 6610.89, 18701.28, 0.000, 0.000, 0.000, 18:54:33.653, 1553986473653
165, 10976.94, 9932.62, 0.00, 0.00, 0.00, 0.00, 6561.60, 17845.74, 0.000, 0.000, 0.000, 18:54:33.660, 1553986473660
166, 11012.93, 10003.12, 0.00, 0.00, 0.00, 0.00, 6543.00, 17226.82, 0.000, 0.000, 0.000, 18:54:33.661, 1553986473661
167, 10998.47, 10035.58, 0.00, 0.00, 0.00, 0.00, 6590.46, 17881.10, 0.000, 0.000, 0.000, 18:54:33.669, 1553986473669
168, 10969.81, 9975.78, 0.00, 0.00, 0.00, 0.00, 6623.56, 18644.51, 0.000, 0.000, 0.000, 18:54:33.669, 1553986473669
169, 10978.48, 9932.09, 0.00, 0.00, 0.00, 0.00, 6587.98, 18109.18, -0.052, -0.162, 1.010, 18:54:33.676, 1553986473676
170, 11013.73, 9996.57, 0.00, 0.00, 0.00, 0.00, 6550.13, 17207.18, 0.000, 0.000, 0.000, 18:54:33.676, 1553986473676
171, 11002.15, 10040.81, 0.00, 0.00, 0.00, 0.00, 6588.42, 17762.37, 0.000, 0.000, 0.000, 18:54:33.682, 1553986473682
172, 10962.82, 9980.57, 0.00, 0.00, 0.00, 0.00, 6611.15, 18522.13, 0.000, 0.000, 0.000, 18:54:33.690, 1553986473690
173, 10956.85, 9914.72, 0.00, 0.00, 0.00, 0.00, 6582.43, 18323.40, 0.000, 0.000, 0.000, 18:54:33.690, 1553986473690
174, 11008.43, 9977.89, 0.00, 0.00, 0.00, 0.00, 6539.43, 17216.19, 0.000, 0.000, 0.000, 18:54:33.698, 1553986473698
175, 11007.50, 10035.91, 0.00, 0.00, 0.00, 0.00, 6573.65, 17628.28, 0.000, 0.000, 0.000, 18:54:33.698, 1553986473698
176, 10979.40, 10000.46, 0.00, 0.00, 0.00, 0.00, 6611.44, 18384.22, 0.000, 0.000, 0.000, 18:54:33.706, 1553986473706
177, 10967.24, 9933.43, 0.00, 0.00, 0.00, 0.00, 6613.97, 18531.81, 0.000, 0.000, 0.000, 18:54:33.706, 1553986473706
178, 11003.58, 9967.40, 0.00, 0.00, 0.00, 0.00, 6557.06, 17316.75, -0.048, -0.168, 1.012, 18:54:33.713, 1553986473713
179, 11009.31, 10042.39, 0.00, 0.00, 0.00, 0.00, 6587.82, 17523.05, 0.000, 0.000, 0.000, 18:54:33.713, 1553986473713
180, 10994.24, 10027.13, 0.00, 0.00, 0.00, 0.00, 6615.00, 18253.44, 0.000, 0.000, 0.000, 18:54:33.721, 1553986473721
181, 10963.89, 9937.83, 0.00, 0.00, 0.00, 0.00, 6604.45, 18652.71, 0.000, 0.000, 0.000, 18:54:33.721, 1553986473721
182, 10999.72, 9947.35, 0.00, 0.00, 0.00, 0.00, 6542.69, 17456.62, 0.000, 0.000, 0.000, 18:54:33.729, 1553986473729
183, 10998.60, 10010.70, 0.00, 0.00, 0.00, 0.00, 6548.77, 17369.50, 0.000, 0.000, 0.000, 18:54:33.730, 1553986473730
184, 10973.19, 10012.55, 0.00, 0.00, 0.00, 0.00, 6585.56, 18088.64, 0.000, 0.000, 0.000, 18:54:33.736, 1553986473736
185, 10951.66, 9935.10, 0.00, 0.00, 0.00, 0.00, 6607.15, 18697.88, 0.000, 0.000, 0.000, 18:54:33.736, 1553986473736
186, 10982.71, 9930.03, 0.00, 0.00, 0.00, 0.00, 6560.33, 17665.54, 0.000, 0.000, 0.000, 18:54:33.742, 1553986473742
187, 11012.82, 10012.17, 0.00, 0.00, 0.00, 0.00, 6560.95, 17283.13, 0.000, 0.000, 0.000, 18:54:33.751, 1553986473751
188, 10998.09, 10034.32, 0.00, 0.00, 0.00, 0.00, 6601.36, 17974.78, -0.056, -0.160, 1.010, 18:54:33.751, 1553986473751
189, 10966.77, 9964.21, 0.00, 0.00, 0.00, 0.00, 6622.58, 18693.39, 0.000, 0.000, 0.000, 18:54:33.758, 1553986473758
190, 10985.64, 9935.64, 0.00, 0.00, 0.00, 0.00, 6574.52, 17914.27, 0.000, 0.000, 0.000, 18:54:33.758, 1553986473758
191, 11020.77, 10009.22, 0.00, 0.00, 0.00, 0.00, 6553.11, 17218.62, 0.000, 0.000, 0.000, 18:54:33.765, 1553986473765
192, 11007.25, 10044.20, 0.00, 0.00, 0.00, 0.00, 6597.54, 17845.12, 0.000, 0.000, 0.000, 18:54:33.766, 1553986473766
193, 10973.79, 9981.35, 0.00, 0.00, 0.00, 0.00, 6622.98, 18612.99, 0.000, 0.000, 0.000, 18:54:33.773, 1553986473773
194, 10973.21, 9928.78, 0.00, 0.00, 0.00, 0.00, 6583.30, 18160.81, 0.000, 0.000, 0.000, 18:54:33.773, 1553986473773
195, 11012.95, 9984.03, 0.00, 0.00, 0.00, 0.00, 6535.09, 17189.47, 0.000, 0.000, 0.000, 18:54:33.781, 1553986473781
196, 11007.97, 10037.97, 0.00, 0.00, 0.00, 0.00, 6578.54, 17721.78, 0.000, 0.000, 0.000, 18:54:33.781, 1553986473781
197, 10973.48, 9991.03, 0.00, 0.00, 0.00, 0.00, 6610.95, 18487.64, 0.000, 0.000, 0.000, 18:54:33.789, 1553986473789
198, 10961.14, 9923.15, 0.00, 0.00, 0.00, 0.00, 6591.33, 18376.13, -0.048, -0.160, 1.004, 18:54:33.789, 1553986473789
199, 11004.61, 9974.09, 0.00, 0.00, 0.00, 0.00, 6548.06, 17236.79, 0.000, 0.000, 0.000, 18:54:33.796, 1553986473796
200, 10999.83, 10030.95, 0.00, 0.00, 0.00, 0.00, 6577.74, 17598.82, 0.000, 0.000, 0.000, 18:54:33.796, 1553986473796
201, 10973.12, 10003.57, 0.00, 0.00, 0.00, 0.00, 6613.08, 18348.23, 0.000, 0.000, 0.000, 18:54:33.803, 1553986473803
202, 10958.75, 9928.17, 0.00, 0.00, 0.00, 0.00, 6602.28, 18558.70, 0.000, 0.000, 0.000, 18:54:33.811, 1553986473811
203, 11007.29, 9961.75, 0.00, 0.00, 0.00, 0.00, 6547.68, 17338.36, 0.000, 0.000, 0.000, 18:54:33.811, 1553986473811
204, 11018.07, 10038.75, 0.00, 0.00, 0.00, 0.00, 6575.08, 17477.01, 0.000, 0.000, 0.000, 18:54:33.818, 1553986473818
205, 10987.31, 10031.28, 0.00, 0.00, 0.00, 0.00, 6611.42, 18218.15, 0.000, 0.000, 0.000, 18:54:33.819, 1553986473819
206, 10962.82, 9956.32, 0.00, 0.00, 0.00, 0.00, 6626.13, 18687.98, 0.000, 0.000, 0.000, 18:54:33.825, 1553986473825
207, 11005.69, 9968.79, 0.00, 0.00, 0.00, 0.00, 6573.07, 17537.92, 0.000, 0.000, 0.000, 18:54:33.826, 1553986473826
208, 11023.01, 10036.31, 0.00, 0.00, 0.00, 0.00, 6580.51, 17381.79, -0.046, -0.158, 1.008, 18:54:33.833, 1553986473833
209, 10987.63, 10028.42, 0.00, 0.00, 0.00, 0.00, 6606.84, 18075.72, 0.000, 0.000, 0.000, 18:54:33.834, 1553986473834
210, 10956.53, 9942.23, 0.00, 0.00, 0.00, 0.00, 6616.85, 18703.60, 0.000, 0.000, 0.000, 18:54:33.841, 1553986473841
211, 10977.68, 9924.64, 0.00, 0.00, 0.00, 0.00, 6554.74, 17726.81, 0.000, 0.000, 0.000, 18:54:33.842, 1553986473842
212, 11003.16, 10003.01, 0.00, 0.00, 0.00, 0.00, 6545.02, 17262.52, 0.000, 0.000, 0.000, 18:54:33.848, 1553986473848
213, 10986.69, 10028.60, 0.00, 0.00, 0.00, 0.00, 6589.92, 17933.94, 0.000, 0.000, 0.000, 18:54:33.848, 1553986473848
214, 10950.99, 9957.66, 0.00, 0.00, 0.00, 0.00, 6612.41, 18662.68, 0.000, 0.000, 0.000, 18:54:33.856, 1553986473856
215, 10970.42, 9925.69, 0.00, 0.00, 0.00, 0.00, 6571.19, 17971.25, 0.000, 0.000, 0.000, 18:54:33.856, 1553986473856
216, 11001.44, 9997.93, 0.00, 0.00, 0.00, 0.00, 6551.65, 17211.78, 0.000, 0.000, 0.000, 18:54:33.863, 1553986473863
217, 10996.52, 10038.75, 0.00, 0.00, 0.00, 0.00, 6595.46, 17819.62, 0.000, 0.000, 0.000, 18:54:33.863, 1553986473863
218, 10967.87, 9977.91, 0.00, 0.00, 0.00, 0.00, 6622.46, 18581.74, -0.048, -0.158, 1.010, 18:54:33.871, 1553986473871
219, 10973.19, 9930.12, 0.00, 0.00, 0.00, 0.00, 6596.00, 18224.85, 0.000, 0.000, 0.000, 18:54:33.878, 1553986473878
220, 11011.79, 9990.29, 0.00, 0.00, 0.00, 0.00, 6552.70, 17213.77, 0.000, 0.000, 0.000, 18:54:33.878, 1553986473878
221, 11005.73, 10039.98, 0.00, 0.00, 0.00, 0.00, 6586.66, 17701.20, 0.000, 0.000, 0.000, 18:54:33.886, 1553986473886
222, 10974.80, 9995.50, 0.00, 0.00, 0.00, 0.00, 6614.19, 18448.21, 0.000, 0.000, 0.000, 18:54:33.886, 1553986473886
223, 10962.19, 9929.90, 0.00, 0.00, 0.00, 0.00, 6594.55, 18432.75, 0.000, 0.000, 0.000, 18:54:33.894, 1553986473894
224, 11007.99, 9973.66, 0.00, 0.00, 0.00, 0.00, 6544.64, 17261.92, 0.000, 0.000, 0.000, 18:54:33.894, 1553986473894
225, 11005.57, 10038.73, 0.00, 0.00, 0.00, 0.00, 6578.50, 17573.52, 0.000, 0.000, 0.000, 18:54:33.901, 1553986473901
226, 10972.31, 10010.63, 0.00, 0.00, 0.00, 0.00, 6613.41, 18310.97, 0.000, 0.000, 0.000, 18:54:33.901, 1553986473901
227, 10955.13, 9935.48, 0.00, 0.00, 0.00, 0.00, 6616.45, 18599.51, 0.000, 0.000, 0.000, 18:54:33.908, 1553986473908
228, 10999.25, 9965.59, 0.00, 0.00, 0.00, 0.00, 6560.17, 17394.31, -0.050, -0.160, 1.014, 18:54:33.908, 1553986473908
229, 11010.74, 10037.99, 0.00, 0.00, 0.00, 0.00, 6568.60, 17461.99, 0.000, 0.000, 0.000, 18:54:33.916, 1553986473916
230, 10983.96, 10024.69, 0.00, 0.00, 0.00, 0.00, 6595.11, 18170.13, 0.000, 0.000, 0.000, 18:54:33.916, 1553986473916
231, 10951.71, 9939.28, 0.00, 0.00, 0.00, 0.00, 6599.20, 18672.85, 0.000, 0.000, 0.000, 18:54:33.924, 1553986473924
232, 10986.98, 9946.28, 0.00, 0.00, 0.00, 0.00, 6546.56, 17562.35, 0.000, 0.000, 0.000, 18:54:33.924, 1553986473924
233, 11014.29, 10025.83, 0.00, 0.00, 0.00, 0.00, 6555.01, 17340.37, 0.000, 0.000, 0.000, 18:54:33.930, 1553986473930
234, 10994.62, 10038.64, 0.00, 0.00, 0.00, 0.00, 6595.17, 18041.81, 0.000, 0.000, 0.000, 18:54:33.938, 1553986473938
235, 10958.70, 9956.05, 0.00, 0.00, 0.00, 0.00, 6609.14, 18696.47, 0.000, 0.000, 0.000, 18:54:33.938, 1553986473938
236, 10982.10, 9939.17, 0.00, 0.00, 0.00, 0.00, 6562.36, 17790.40, 0.000, 0.000, 0.000, 18:54:33.946, 1553986473946
237, 11003.25, 10014.10, 0.00, 0.00, 0.00, 0.00, 6550.78, 17257.54, 0.000, 0.000, 0.000, 18:54:33.946, 1553986473946
238, 10989.50, 10042.15, 0.00, 0.00, 0.00, 0.00, 6588.69, 17910.47, -0.050, -0.162, 1.022, 18:54:33.953, 1553986473953
239, 10953.99, 9967.89, 0.00, 0.00, 0.00, 0.00, 6601.39, 18642.34, 0.000, 0.000, 0.000, 18:54:33.953, 1553986473953
240, 10970.15, 9932.18, 0.00, 0.00, 0.00, 0.00, 6567.26, 18029.41, 0.000, 0.000, 0.000, 18:54:33.960, 1553986473960
241, 11006.40, 10003.61, 0.00, 0.00, 0.00, 0.00, 6541.64, 17208.12, 0.000, 0.000, 0.000, 18:54:33.961, 1553986473961
242, 10994.44, 10044.56, 0.00, 0.00, 0.00, 0.00, 6579.86, 17788.03, 0.000, 0.000, 0.000, 18:54:33.969, 1553986473969
243, 10963.78, 9990.18, 0.00, 0.00, 0.00, 0.00, 6608.14, 18550.23, 0.000, 0.000, 0.000, 18:54:33.969, 1553986473969
244, 10961.74, 9931.35, 0.00, 0.00, 0.00, 0.00, 6580.98, 18270.96, 0.000, 0.000, 0.000, 18:54:33.977, 1553986473977
245, 10995.11, 9979.88, 0.00, 0.00, 0.00, 0.00, 6521.08, 17213.17, 0.000, 0.000, 0.000, 18:54:33.978, 1553986473978
246, 10988.92, 10035.46, 0.00, 0.00, 0.00, 0.00, 6555.03, 17666.01, 0.000, 0.000, 0.000, 18:54:33.983, 1553986473983
247, 10965.65, 9996.06, 0.00, 0.00, 0.00, 0.00, 6585.63, 18409.54, -0.052, -0.160, 1.018, 18:54:33.984, 1553986473984
248, 10962.14, 9930.01, 0.00, 0.00, 0.00, 0.00, 6582.83, 18467.48, 0.000, 0.000, 0.000, 18:54:33.991, 1553986473991
249, 10999.32, 9969.66, 0.00, 0.00, 0.00, 0.00, 6534.73, 17284.07, 0.000, 0.000, 0.000, 18:54:33.998, 1553986473998
250, 10992.61, 10029.50, 0.00, 0.00, 0.00, 0.00, 6559.41, 17536.93, 0.000, 0.000, 0.000, 18:54:33.998, 1553986473998
251, 10972.61, 10011.70, 0.00, 0.00, 0.00, 0.00, 6597.61, 18268.73, 0.000, 0.000, 0.000, 18:54:34.006, 1553986474006
252, 10947.06, 9940.29, 0.00, 0.00, 0.00, 0.00, 6605.63, 18621.42, 0.000, 0.000, 0.000, 18:54:34.006, 1553986474006
253, 10983.29, 9958.75, 0.00, 0.00, 0.00, 0.00, 6540.88, 17435.77, 0.000, 0.000, 0.000, 18:54:34.014, 1553986474014
254, 10996.99, 10033.32, 0.00, 0.00, 0.00, 0.00, 6555.19, 17427.39, 0.000, 0.000, 0.000, 18:54:34.014, 1553986474014
255, 10976.23, 10025.94, 0.00, 0.00, 0.00, 0.00, 6582.70, 18131.91, 0.000, 0.000, 0.000, 18:54:34.021, 1553986474021
0, 10947.93, 9941.83, 0.00, 0.00, 0.00, 0.00, 6587.62, 18679.51, 0.000, 0.000, 0.000, 18:54:34.021, 1553986474021
1, 10988.30, 9948.94, 0.00, 0.00, 0.00, 0.00, 6555.52, 17627.14, -0.048, -0.162, 1.016, 18:54:34.028, 1553986474028
2, 11009.96, 10024.11, 0.00, 0.00, 0.00, 0.00, 6562.09, 17329.06, 0.000, 0.000, 0.000, 18:54:34.028, 1553986474028
3, 10988.99, 10036.00, 0.00, 0.00, 0.00, 0.00, 6599.11, 18008.73, 0.000, 0.000, 0.000, 18:54:34.036, 1553986474036
4, 10959.08, 9970.35, 0.00, 0.00, 0.00, 0.00, 6629.06, 18698.84, 0.000, 0.000, 0.000, 18:54:34.036, 1553986474036
5, 10985.95, 9950.13, 0.00, 0.00, 0.00, 0.00, 6574.79, 17869.37, 0.000, 0.000, 0.000, 18:54:34.044, 1553986474044
6, 11007.63, 10013.83, 0.00, 0.00, 0.00, 0.00, 6540.66, 17248.35, 0.000, 0.000, 0.000, 18:54:34.044, 1553986474044
7, 10983.83, 10038.64, 0.00, 0.00, 0.00, 0.00, 6570.59, 17877.30, 0.000, 0.000, 0.000, 18:54:34.051, 1553986474051
8, 10945.96, 9965.91, 0.00, 0.00, 0.00, 0.00, 6583.17, 18609.48, 0.000, 0.000, 0.000, 18:54:34.058, 1553986474058
9, 10960.89, 9927.21, 0.00, 0.00, 0.00, 0.00, 6555.27, 18087.10, 0.000, 0.000, 0.000, 18:54:34.059, 1553986474059
10, 11003.00, 9995.43, 0.00, 0.00, 0.00, 0.00, 6535.56, 17209.39, 0.000, 0.000, 0.000, 18:54:34.066, 1553986474066
11, 10996.88, 10038.57, 0.00, 0.00, 0.00, 0.00, 6579.24, 17760.61, -0.052, -0.158, 1.010, 18:54:34.066, 1553986474066
12, 10965.09, 9985.66, 0.00, 0.00, 0.00, 0.00, 6608.16, 18510.35, 0.000, 0.000, 0.000, 18:54:34.074, 1553986474074
13, 10961.67, 9925.85, 0.00, 0.00, 0.00, 0.00, 6591.06, 18320.45, 0.000, 0.000, 0.000, 18:54:34.074, 1553986474074
14, 11003.47, 9986.42, 0.00, 0.00, 0.00, 0.00, 6551.65, 17244.39, 0.000, 0.000, 0.000, 18:54:34.080, 1553986474080
15, 11002.06, 10041.03, 0.00, 0.00, 0.00, 0.00, 6575.93, 17641.09, 0.000, 0.000, 0.000, 18:54:34.081, 1553986474081
16, 10967.84, 9998.14, 0.00, 0.00, 0.00, 0.00, 6598.23, 18368.86, 0.000, 0.000, 0.000, 18:54:34.088, 1553986474088
17, 10946.41, 9924.33, 0.00, 0.00, 0.00, 0.00, 6595.87, 18504.99, 0.000, 0.000, 0.000, 18:54:34.089, 1553986474089
18, 10986.53, 9961.46, 0.00, 0.00, 0.00, 0.00, 6545.84, 17319.83, 0.000, 0.000, 0.000, 18:54:34.096, 1553986474096
19, 11008.75, 10035.80, 0.00, 0.00, 0.00, 0.00, 6577.85, 17518.29, 0.000, 0.000, 0.000, 18:54:34.096, 1553986474096
20, 10979.98, 10012.96, 0.00, 0.00, 0.00, 0.00, 6606.86, 18230.04, 0.000, 0.000, 0.000, 18:54:34.103, 1553986474103
21, 10955.91, 9932.76, 0.00, 0.00, 0.00, 0.00, 6608.25, 18630.04, -0.046, -0.156, 1.016, 18:54:34.104, 1553986474104
22, 10996.70, 9954.66, 0.00, 0.00, 0.00, 0.00, 6551.18, 17480.61, 0.000, 0.000, 0.000, 18:54:34.110, 1553986474110
23, 11016.71, 10036.22, 0.00, 0.00, 0.00, 0.00, 6564.86, 17407.83, 0.000, 0.000, 0.000, 18:54:34.110, 1553986474110
24, 10985.32, 10030.97, 0.00, 0.00, 0.00, 0.00, 6591.66, 18098.81, 0.000, 0.000, 0.000, 18:54:34.118, 1553986474118
25, 10930.65, 9925.72, 0.00, 0.00, 0.00, 0.00, 6580.76, 18660.71, 0.000, 0.000, 0.000, 18:54:34.126, 1553986474126
26, 10955.57, 9907.43, 0.00, 0.00, 0.00, 0.00, 6519.91, 17641.47, 0.000, 0.000, 0.000, 18:54:34.126, 1553986474126
27, 10999.34, 9999.05, 0.00, 0.00, 0.00, 0.00, 6527.67, 17280.67, 0.000, 0.000, 0.000, 18:54:34.133, 1553986474133
28, 10989.26, 10029.29, 0.00, 0.00, 0.00, 0.00, 6580.08, 17965.37, 0.000, 0.000, 0.000, 18:54:34.133, 1553986474133
29, 10950.32, 9951.02, 0.00, 0.00, 0.00, 0.00, 6597.50, 18650.38, 0.000, 0.000, 0.000, 18:54:34.141, 1553986474141
30, 10965.41, 9920.44, 0.00, 0.00, 0.00, 0.00, 6544.75, 17893.76, 0.000, 0.000, 0.000, 18:54:34.141, 1553986474141
31, 10995.54, 9992.82, 0.00, 0.00, 0.00, 0.00, 6519.27, 17219.09, -0.038, -0.160, 1.014, 18:54:34.149, 1553986474149
32, 10982.66, 10030.48, 0.00, 0.00, 0.00, 0.00, 6559.99, 17838.28, 0.000, 0.000, 0.000, 18:54:34.149, 1553986474149
33, 10955.53, 9971.85, 0.00, 0.00, 0.00, 0.00, 6588.53, 18578.37, 0.000, 0.000, 0.000, 18:54:34.157, 1553986474157
34, 10965.32, 9928.89, 0.00, 0.00, 0.00, 0.00, 6564.33, 18145.55, 0.000, 0.000, 0.000, 18:54:34.157, 1553986474157
35, 11004.79, 9990.98, 0.00, 0.00, 0.00, 0.00, 6527.71, 17214.40, 0.000, 0.000, 0.000, 18:54:34.163, 1553986474163
36, 11008.46, 10047.94, 0.00, 0.00, 0.00, 0.00, 6577.49, 17736.40, 0.000, 0.000, 0.000, 18:54:34.163, 1553986474163
37, 10971.53, 9991.99, 0.00, 0.00, 0.00, 0.00, 6597.07, 18467.75, 0.000, 0.000, 0.000, 18:54:34.171, 1553986474171
38, 10961.38, 9926.61, 0.00, 0.00, 0.00, 0.00, 6574.23, 18356.08, 0.000, 0.000, 0.000, 18:54:34.171, 1553986474171
39, 11000.21, 9977.91, 0.00, 0.00, 0.00, 0.00, 6520.96, 17246.11, 0.000, 0.000, 0.000, 18:54:34.178, 1553986474178
40, 11001.15, 10044.27, 0.00, 0.00, 0.00, 0.00, 6552.99, 17610.40, 0.000, 0.000, 0.000, 18:54:34.185, 1553986474185
41, 10971.49, 10007.97, 0.00, 0.00, 0.00, 0.00, 6575.57, 18327.07, -0.044, -0.162, 1.018, 18:54:34.186, 1553986474186
42, 10958.19, 9930.75, 0.00, 0.00, 0.00, 0.00, 6574.56, 18529.60, 0.000, 0.000, 0.000, 18:54:34.193, 1553986474193
43, 10998.15, 9958.80, 0.00, 0.00, 0.00, 0.00, 6521.39, 17350.23, 0.000, 0.000, 0.000, 18:54:34.193, 1553986474193
44, 11013.02, 10034.90, 0.00, 0.00, 0.00, 0.00, 6549.98, 17484.88, 0.000, 0.000, 0.000, 18:54:34.201, 1553986474201
45, 10994.58, 10023.73, 0.00, 0.00, 0.00, 0.00, 6583.44, 18189.87, 0.000, 0.000, 0.000, 18:54:34.202, 1553986474202
46, 10957.52, 9939.26, 0.00, 0.00, 0.00, 0.00, 6588.51, 18635.23, 0.000, 0.000, 0.000, 18:54:34.209, 1553986474209
47, 10989.06, 9945.27, 0.00, 0.00, 0.00, 0.00, 6530.87, 17516.23, 0.000, 0.000, 0.000, 18:54:34.209, 1553986474209
48, 11015.19, 10026.30, 0.00, 0.00, 0.00, 0.00, 6541.75, 17377.54, 0.000, 0.000, 0.000, 18:54:34.215, 1553986474215
49, 11001.60, 10040.36, 0.00, 0.00, 0.00, 0.00, 6588.00, 18069.28, 0.000, 0.000, 0.000, 18:54:34.216, 1553986474216
50, 10959.86, 9950.91, 0.00, 0.00, 0.00, 0.00, 6590.61, 18666.97, -0.050, -0.164, 1.024, 18:54:34.223, 1553986474223
51, 10975.22, 9928.44, 0.00, 0.00, 0.00, 0.00, 6529.41, 17721.27, 0.000, 0.000, 0.000, 18:54:34.224, 1553986474224
52, 11005.53, 10006.45, 0.00, 0.00, 0.00, 0.00, 6526.69, 17277.43, 0.000, 0.000, 0.000, 18:54:34.231, 1553986474231
53, 10988.34, 10030.55, 0.00, 0.00, 0.00, 0.00, 6571.12, 17931.91, 0.000, 0.000, 0.000, 18:54:34.232, 1553986474232
54, 10955.39, 9960.61, 0.00, 0.00, 0.00, 0.00, 6594.39, 18632.90, 0.000, 0.000, 0.000, 18:54:34.239, 1553986474239
55, 10974.13, 9927.04, 0.00, 0.00, 0.00, 0.00, 6549.73, 17962.78, 0.000, 0.000, 0.000, 18:54:34.246, 1553986474246
56, 11007.97, 9997.76, 0.00, 0.00, 0.00, 0.00, 6522.66, 17224.39, 0.000, 0.000, 0.000, 18:54:34.246, 1553986474246
57, 10999.99, 10036.25, 0.00, 0.00, 0.00, 0.00, 6560.80, 17811.43, 0.000, 0.000, 0.000, 18:54:34.254, 1553986474254
58, 10960.58, 9969.17, 0.00, 0.00, 0.00, 0.00, 6577.05, 18535.70, 0.000, 0.000, 0.000, 18:54:34.254, 1553986474254
59, 10961.65, 9919.88, 0.00, 0.00, 0.00, 0.00, 6553.96, 18185.92, 0.000, 0.000, 0.000, 18:54:34.261, 1553986474261
60, 11014.07, 9985.33, 0.00, 0.00, 0.00, 0.00, 6520.88, 17211.38, -0.052, -0.160, 1.022, 18:54:34.261, 1553986474261
61, 11013.78, 10047.40, 0.00, 0.00, 0.00, 0.00, 6573.78, 17706.45, 0.000, 0.000, 0.000, 18:54:34.269, 1553986474269
62, 10978.57, 9997.33, 0.00, 0.00, 0.00, 0.00, 6597.03, 18429.33, 0.000, 0.000, 0.000, 18:54:34.269, 1553986474269
63, 10959.19, 9921.74, 0.00, 0.00, 0.00, 0.00, 6569.38, 18393.90, 0.000, 0.000, 0.000, 18:54:34.276, 1553986474276
64, 10995.90, 9966.31, 0.00, 0.00, 0.00, 0.00, 6516.49, 17263.88, 0.000, 0.000, 0.000, 18:54:34.276, 1553986474276
65, 10995.78, 10035.06, 0.00, 0.00, 0.00, 0.00, 6548.81, 17579.04, 0.000, 0.000, 0.000, 18:54:34.284, 1553986474284
66, 10978.91, 10014.39, 0.00, 0.00, 0.00, 0.00, 6580.87, 18290.57, 0.000, 0.000, 0.000, 18:54:34.284, 1553986474284
67, 10963.15, 9938.90, 0.00, 0.00, 0.00, 0.00, 6576.04, 18553.74, 0.000, 0.000, 0.000, 18:54:34.292, 1553986474292
68, 11003.38, 9958.04, 0.00, 0.00, 0.00, 0.00, 6513.05, 17385.37, 0.000, 0.000, 0.000, 18:54:34.292, 1553986474292
69, 11012.66, 10026.72, 0.00, 0.00, 0.00, 0.00, 6538.11, 17451.41, 0.000, 0.000, 0.000, 18:54:34.298, 1553986474298
70, 10990.96, 10025.70, 0.00, 0.00, 0.00, 0.00, 6592.09, 18159.63, -0.054, -0.160, 1.024, 18:54:34.306, 1553986474306
71, 10956.29, 9939.22, 0.00, 0.00, 0.00, 0.00, 6601.34, 18638.49, 0.000, 0.000, 0.000, 18:54:34.306, 1553986474306
72, 10985.82, 9943.49, 0.00, 0.00, 0.00, 0.00, 6538.47, 17567.76, 0.000, 0.000, 0.000, 18:54:34.314, 1553986474314
73, 11010.45, 10027.10, 0.00, 0.00, 0.00, 0.00, 6543.76, 17355.50, 0.000, 0.000, 0.000, 18:54:34.314, 1553986474314
74, 11002.15, 10052.61, 0.00, 0.00, 0.00, 0.00, 6594.35, 18044.25, 0.000, 0.000, 0.000, 18:54:34.322, 1553986474322
75, 10974.35, 9976.92, 0.00, 0.00, 0.00, 0.00, 6610.53, 18676.31, 0.000, 0.000, 0.000, 18:54:34.322, 1553986474322
76, 11003.12, 9961.99, 0.00, 0.00, 0.00, 0.00, 6562.11, 17810.88, 0.000, 0.000, 0.000, 18:54:34.328, 1553986474328
77, 11025.96, 10030.52, 0.00, 0.00, 0.00, 0.00, 6547.74, 17290.55, 0.000, 0.000, 0.000, 18:54:34.328, 1553986474328
78, 11001.77, 10036.13, 0.00, 0.00, 0.00, 0.00, 6569.36, 17908.51, 0.000, 0.000, 0.000, 18:54:34.336, 1553986474336
79, 10964.16, 9966.62, 0.00, 0.00, 0.00, 0.00, 6595.35, 18618.53, 0.000, 0.000, 0.000, 18:54:34.337, 1553986474337
80, 10971.38, 9927.33, 0.00, 0.00, 0.00, 0.00, 6552.21, 18025.18, -0.050, -0.160, 1.014, 18:54:34.344, 1553986474344
81, 10999.92, 9978.38, 0.00, 0.00, 0.00, 0.00, 6502.88, 17204.72, 0.000, 0.000, 0.000, 18:54:34.345, 1553986474345
82, 10985.28, 10024.00, 0.00, 0.00, 0.00, 0.00, 6545.02, 17771.31, 0.000, 0.000, 0.000, 18:54:34.351, 1553986474351
83, 10968.51, 9984.93, 0.00, 0.00, 0.00, 0.00, 6584.62, 18507.78, 0.000, 0.000, 0.000, 18:54:34.352, 1553986474352
84, 10976.02, 9929.05, 0.00, 0.00, 0.00, 0.00, 6559.32, 18248.63, 0.000, 0.000, 0.000, 18:54:34.358, 1553986474358
85, 11013.44, 9987.00, 0.00, 0.00, 0.00, 0.00, 6517.75, 17229.44, 0.000, 0.000, 0.000, 18:54:34.358, 1553986474358
86, 11013.22, 10049.63, 0.00, 0.00, 0.00, 0.00, 6560.77, 17678.73, 0.000, 0.000, 0.000, 18:54:34.366, 1553986474366
87, 10978.91, 10009.09, 0.00, 0.00, 0.00, 0.00, 6594.28, 18397.54, 0.000, 0.000, 0.000, 18:54:34.374, 1553986474374
88, 10958.55, 9935.35, 0.00, 0.00, 0.00, 0.00, 6580.71, 18449.31, 0.000, 0.000, 0.000, 18:54:34.374, 1553986474374
89, 11005.19, 9974.38, 0.00, 0.00, 0.00, 0.00, 6523.65, 17301.28, 0.000, 0.000, 0.000, 18:54:34.380, 1553986474380
90, 11017.49, 10053.41, 0.00, 0.00, 0.00, 0.00, 6565.02, 17561.45, -0.050, -0.158, 1.018, 18:54:34.381, 1553986474381
91, 11006.74, 10042.93, 0.00, 0.00, 0.00, 0.00, 6606.57, 18280.20, 0.000, 0.000, 0.000, 18:54:34.389, 1553986474389
92, 10980.76, 9961.57, 0.00, 0.00, 0.00, 0.00, 6601.36, 18602.44, 0.000, 0.000, 0.000, 18:54:34.390, 1553986474390
93, 11012.50, 9979.36, 0.00, 0.00, 0.00, 0.00, 6546.87, 17456.67, 0.000, 0.000, 0.000, 18:54:34.397, 1553986474397
94, 11028.28, 10062.75, 0.00, 0.00, 0.00, 0.00, 6575.57, 17469.36, 0.000, 0.000, 0.000, 18:54:34.397, 1553986474397
95, 11010.38, 10062.42, 0.00, 0.00, 0.00, 0.00, 6612.83, 18160.21, 0.000, 0.000, 0.000, 18:54:34.403, 1553986474403
96, 10974.42, 9974.00, 0.00, 0.00, 0.00, 0.00, 6622.17, 18684.63, 0.000, 0.000, 0.000, 18:54:34.404, 1553986474404
97, 10996.25, 9965.50, 0.00, 0.00, 0.00, 0.00, 6558.69, 17653.36, 0.000, 0.000, 0.000, 18:54:34.411, 1553986474411
98, 11020.71, 10042.33, 0.00, 0.00, 0.00, 0.00, 6559.99, 17364.55, 0.000, 0.000, 0.000, 18:54:34.411, 1553986474411
99, 11009.37, 10057.77, 0.00, 0.00, 0.00, 0.00, 6597.16, 18026.59, 0.000, 0.000, 0.000, 18:54:34.420, 1553986474420
100, 10974.26, 9976.25, 0.00, 0.00, 0.00, 0.00, 6613.95, 18674.79, -0.048, -0.158, 1.024, 18:54:34.420, 1553986474420
101, 10984.23, 9940.13, 0.00, 0.00, 0.00, 0.00, 6554.02, 17859.40, 0.000, 0.000, 0.000, 18:54:34.426, 1553986474426
102, 11008.84, 10009.29, 0.00, 0.00, 0.00, 0.00, 6534.13, 17265.00, 0.000, 0.000, 0.000, 18:54:34.433, 1553986474433
103, 10995.40, 10040.69, 0.00, 0.00, 0.00, 0.00, 6577.25, 17880.54, 0.000, 0.000, 0.000, 18:54:34.433, 1553986474433
104, 10951.50, 9968.05, 0.00, 0.00, 0.00, 0.00, 6592.00, 18578.79, 0.000, 0.000, 0.000, 18:54:34.441, 1553986474441
105, 10970.21, 9930.08, 0.00, 0.00, 0.00, 0.00, 6562.09, 18079.39, 0.000, 0.000, 0.000, 18:54:34.441, 1553986474441
106, 11015.14, 10003.14, 0.00, 0.00, 0.00, 0.00, 6535.23, 17231.54, 0.000, 0.000, 0.000, 18:54:34.449, 1553986474449
107, 11007.70, 10053.72, 0.00, 0.00, 0.00, 0.00, 6582.16, 17773.46, 0.000, 0.000, 0.000, 18:54:34.449, 1553986474449
108, 10974.37, 9999.12, 0.00, 0.00, 0.00, 0.00, 6602.24, 18493.86, 0.000, 0.000, 0.000, 18:54:34.456, 1553986474456
109, 10966.57, 9930.75, 0.00, 0.00, 0.00, 0.00, 6565.58, 18303.04, 0.000, 0.000, 0.000, 18:54:34.457, 1553986474457
110, 11011.05, 9988.97, 0.00, 0.00, 0.00, 0.00, 6523.33, 17252.48, -0.046, -0.160, 1.022, 18:54:34.463, 1553986474463
111, 11016.37, 10054.71, 0.00, 0.00, 0.00, 0.00, 6575.12, 17661.88, 0.000, 0.000, 0.000, 18:54:34.463, 1553986474463
112, 10989.30, 10015.12, 0.00, 0.00, 0.00, 0.00, 6608.52, 18369.04, 0.000, 0.000, 0.000, 18:54:34.472, 1553986474472
113, 10966.37, 9934.90, 0.00, 0.00, 0.00, 0.00, 6597.07, 18495.64, 0.000, 0.000, 0.000, 18:54:34.472, 1553986474472
114, 11008.79, 9969.46, 0.00, 0.00, 0.00, 0.00, 6539.74, 17342.36, 0.000, 0.000, 0.000, 18:54:34.479, 1553986474479
115, 11008.19, 10029.79, 0.00, 0.00, 0.00, 0.00, 6555.16, 17523.72, 0.000, 0.000, 0.000, 18:54:34.479, 1553986474479
116, 10984.45, 10010.94, 0.00, 0.00, 0.00, 0.00, 6586.25, 18212.71, 0.000, 0.000, 0.000, 18:54:34.487, 1553986474487
117, 10966.55, 9935.62, 0.00, 0.00, 0.00, 0.00, 6591.33, 18597.68, 0.000, 0.000, 0.000, 18:54:34.493, 1553986474493
118, 11000.81, 9951.64, 0.00, 0.00, 0.00, 0.00, 6532.43, 17478.64, 0.000, 0.000, 0.000, 18:54:34.493, 1553986474493
119, 11011.12, 10031.42, 0.00, 0.00, 0.00, 0.00, 6553.93, 17420.72, -0.048, -0.162, 1.020, 18:54:34.501, 1553986474501
120, 10995.14, 10038.15, 0.00, 0.00, 0.00, 0.00, 6594.23, 18102.43, 0.000, 0.000, 0.000, 18:54:34.501, 1553986474501
121, 10966.26, 9949.05, 0.00, 0.00, 0.00, 0.00, 6602.93, 18653.29, 0.000, 0.000, 0.000, 18:54:34.509, 1553986474509
122, 10998.02, 9945.36, 0.00, 0.00, 0.00, 0.00, 6551.34, 17685.71, 0.000, 0.000, 0.000, 18:54:34.509, 1553986474509
123, 11021.42, 10019.30, 0.00, 0.00, 0.00, 0.00, 6549.71, 17314.82, 0.000, 0.000, 0.000, 18:54:34.516, 1553986474516
124, 10999.72, 10034.35, 0.00, 0.00, 0.00, 0.00, 6583.01, 17966.24, 0.000, 0.000, 0.000, 18:54:34.516, 1553986474516
125, 10956.62, 9948.92, 0.00, 0.00, 0.00, 0.00, 6590.37, 18629.11, 0.000, 0.000, 0.000, 18:54:34.523, 1553986474523
126, 10970.33, 9915.30, 0.00, 0.00, 0.00, 0.00, 6539.20, 17888.55, 0.000, 0.000, 0.000, 18:54:34.524, 1553986474524
127, 10999.38, 9989.11, 0.00, 0.00, 0.00, 0.00, 6521.08, 17232.75, 0.000, 0.000, 0.000, 18:54:34.532, 1553986474532
128, 10991.98, 10034.37, 0.00, 0.00, 0.00, 0.00, 6573.54, 17849.12, 0.000, 0.000, 0.000, 18:54:34.532, 1553986474532
129, 10966.08, 9969.91, 0.00, 0.00, 0.00, 0.00, 6596.07, 18562.72, -0.048, -0.164, 1.018, 18:54:34.539, 1553986474539
130, 10964.51, 9916.98, 0.00, 0.00, 0.00, 0.00, 6564.57, 18137.17, 0.000, 0.000, 0.000, 18:54:34.540, 1553986474540
131, 11004.32, 9978.09, 0.00, 0.00, 0.00, 0.00, 6526.15, 17223.29, 0.000, 0.000, 0.000, 18:54:34.545, 1553986474545
132, 10998.09, 10029.70, 0.00, 0.00, 0.00, 0.00, 6568.35, 17725.92, 0.000, 0.000, 0.000, 18:54:34.553, 1553986474553
133, 10963.66, 9982.15, 0.00, 0.00, 0.00, 0.00, 6593.72, 18447.70, 0.000, 0.000, 0.000, 18:54:34.554, 1553986474554
134, 10947.19, 9910.27, 0.00, 0.00, 0.00, 0.00, 6574.01, 18343.03, 0.000, 0.000, 0.000, 18:54:34.561, 1553986474561
135, 10986.58, 9958.01, 0.00, 0.00, 0.00, 0.00, 6526.44, 17258.72, 0.000, 0.000, 0.000, 18:54:34.562, 1553986474562
136, 10998.82, 10033.88, 0.00, 0.00, 0.00, 0.00, 6568.80, 17622.92, 0.000, 0.000, 0.000, 18:54:34.569, 1553986474569
137, 10974.57, 10002.36, 0.00, 0.00, 0.00, 0.00, 6598.93, 18318.66, 0.000, 0.000, 0.000, 18:54:34.569, 1553986474569
138, 10956.09, 9933.27, 0.00, 0.00, 0.00, 0.00, 6604.85, 18524.07, 0.000, 0.000, 0.000, 18:54:34.576, 1553986474576
139, 10996.75, 9964.99, 0.00, 0.00, 0.00, 0.00, 6550.92, 17378.79, -0.050, -0.158, 1.024, 18:54:34.576, 1553986474576
140, 10998.73, 10026.37, 0.00, 0.00, 0.00, 0.00, 6559.25, 17499.76, 0.000, 0.000, 0.000, 18:54:34.584, 1553986474584
141, 10972.90, 10014.90, 0.00, 0.00, 0.00, 0.00, 6587.19, 18187.08, 0.000, 0.000, 0.000, 18:54:34.584, 1553986474584
142, 10939.66, 9937.79, 0.00, 0.00, 0.00, 0.00, 6598.12, 18623.14, 0.000, 0.000, 0.000, 18:54:34.592, 1553986474592
143, 10976.41, 9938.28, 0.00, 0.00, 0.00, 0.00, 6539.02, 17527.21, 0.000, 0.000, 0.000, 18:54:34.593, 1553986474593
144, 10990.89, 10002.47, 0.00, 0.00, 0.00, 0.00, 6529.86, 17373.96, 0.000, 0.000, 0.000, 18:54:34.599, 1553986474599
145, 10968.87, 10005.60, 0.00, 0.00, 0.00, 0.00, 6567.23, 18036.36, 0.000, 0.000, 0.000, 18:54:34.599, 1553986474599
146, 10929.09, 9922.68, 0.00, 0.00, 0.00, 0.00, 6578.79, 18627.94, 0.000, 0.000, 0.000, 18:54:34.605, 1553986474605
147, 10960.49, 9915.99, 0.00, 0.00, 0.00, 0.00, 6537.62, 17719.23, 0.000, 0.000, 0.000, 18:54:34.605, 1553986474605
148, 10992.65, 9991.23, 0.00, 0.00, 0.00, 0.00, 6524.83, 17282.28, 0.000, 0.000, 0.000, 18:54:34.613, 1553986474613
149, 10981.70, 10016.40, 0.00, 0.00, 0.00, 0.00, 6558.47, 17919.93, -0.046, -0.158, 1.024, 18:54:34.622, 1553986474622
150, 10948.35, 9945.59, 0.00, 0.00, 0.00, 0.00, 6578.63, 18591.80, 0.000, 0.000, 0.000, 18:54:34.622, 1553986474622
151, 10961.43, 9911.63, 0.00, 0.00, 0.00, 0.00, 6542.22, 17937.92, 0.000, 0.000, 0.000, 18:54:34.628, 1553986474628
152, 10994.67, 9989.11, 0.00, 0.00, 0.00, 0.00, 6527.09, 17228.01, 0.000, 0.000, 0.000, 18:54:34.628, 1553986474628
153, 10984.38, 10017.34, 0.00, 0.00, 0.00, 0.00, 6552.23, 17800.73, 0.000, 0.000, 0.000, 18:54:34.636, 1553986474636
154, 10951.15, 9956.32, 0.00, 0.00, 0.00, 0.00, 6582.61, 18509.70, 0.000, 0.000, 0.000, 18:54:34.637, 1553986474637
155, 10942.85, 9893.84, 0.00, 0.00, 0.00, 0.00, 6549.51, 18161.13, 0.000, 0.000, 0.000, 18:54:34.645, 1553986474645
156, 10984.34, 9952.58, 0.00, 0.00, 0.00, 0.00, 6512.11, 17202.21, 0.000, 0.000, 0.000, 18:54:34.645, 1553986474645
157, 10991.67, 10018.01, 0.00, 0.00, 0.00, 0.00, 6555.36, 17686.11, 0.000, 0.000, 0.000, 18:54:34.651, 1553986474651
158, 10960.80, 9972.14, 0.00, 0.00, 0.00, 0.00, 6581.65, 18389.65, 0.000, 0.000, 0.000, 18:54:34.651, 1553986474651
159, 10943.66, 9901.17, 0.00, 0.00, 0.00, 0.00, 6567.46, 18366.70, -0.048, -0.158, 1.024, 18:54:34.659, 1553986474659
160, 10988.99, 9951.80, 0.00, 0.00, 0.00, 0.00, 6525.10, 17274.52, 0.000, 0.000, 0.000, 18:54:34.659, 1553986474659
161, 10994.53, 10013.00, 0.00, 0.00, 0.00, 0.00, 6546.24, 17568.16, 0.000, 0.000, 0.000, 18:54:34.667, 1553986474667
162, 10962.88, 9981.82, 0.00, 0.00, 0.00, 0.00, 6572.37, 18250.73, 0.000, 0.000, 0.000, 18:54:34.667, 1553986474667
163, 10931.59, 9896.08, 0.00, 0.00, 0.00, 0.00, 6566.79, 18504.36, 0.000, 0.000, 0.000, 18:54:34.674, 1553986474674
164, 10963.49, 9915.88, 0.00, 0.00, 0.00, 0.00, 6504.89, 17367.69, 0.000, 0.000, 0.000, 18:54:34.680, 1553986474680
165, 10982.40, 9999.92, 0.00, 0.00, 0.00, 0.00, 6532.50, 17443.97, 0.000, 0.000, 0.000, 18:54:34.681, 1553986474681
166, 10966.35, 9995.05, 0.00, 0.00, 0.00, 0.00, 6573.36, 18128.70, 0.000, 0.000, 0.000, 18:54:34.689, 1553986474689
167, 10933.29, 9908.44, 0.00, 0.00, 0.00, 0.00, 6574.30, 18588.20, 0.000, 0.000, 0.000, 18:54:34.689, 1553986474689
168, 10959.62, 9909.85, 0.00, 0.00, 0.00, 0.00, 6512.16, 17545.69, 0.000, 0.000, 0.000, 18:54:34.696, 1553986474696
169, 10985.95, 9989.80, 0.00, 0.00, 0.00, 0.00, 6521.43, 17333.82, -0.050, -0.156, 1.012, 18:54:34.696, 1553986474696
170, 10977.92, 10009.29, 0.00, 0.00, 0.00, 0.00, 6573.80, 18004.80, 0.000, 0.000, 0.000, 18:54:34.704, 1553986474704
171, 10940.13, 9925.90, 0.00, 0.00, 0.00, 0.00, 6582.81, 18613.39, 0.000, 0.000, 0.000, 18:54:34.704, 1553986474704
172, 10949.40, 9897.13, 0.00, 0.00, 0.00, 0.00, 6521.28, 17757.77, 0.000, 0.000, 0.000, 18:54:34.711, 1553986474711
173, 10981.21, 9978.89, 0.00, 0.00, 0.00, 0.00, 6521.03, 17256.57, 0.000, 0.000, 0.000, 18:54:34.711, 1553986474711
174, 10979.02, 10012.87, 0.00, 0.00, 0.00, 0.00, 6569.71, 17890.20, 0.000, 0.000, 0.000, 18:54:34.719, 1553986474719
175, 10937.67, 9933.47, 0.00, 0.00, 0.00, 0.00, 6580.44, 18555.66, 0.000, 0.000, 0.000, 18:54:34.719, 1553986474719
176, 10949.43, 9905.76, 0.00, 0.00, 0.00, 0.00, 6554.34, 18003.08, 0.000, 0.000, 0.000, 18:54:34.727, 1553986474727
177, 11009.71, 9986.60, 0.00, 0.00, 0.00, 0.00, 6546.71, 17237.60, 0.000, 0.000, 0.000, 18:54:34.727, 1553986474727
178, 11011.56, 10034.84, 0.00, 0.00, 0.00, 0.00, 6583.64, 17792.90, -0.050, -0.158, 1.024, 18:54:34.733, 1553986474733
179, 10972.85, 9973.21, 0.00, 0.00, 0.00, 0.00, 6601.74, 18485.70, 0.000, 0.000, 0.000, 18:54:34.741, 1553986474741
180, 10960.65, 9904.73, 0.00, 0.00, 0.00, 0.00, 6566.03, 18217.99, 0.000, 0.000, 0.000, 18:54:34.741, 1553986474741
181, 10996.19, 9961.01, 0.00, 0.00, 0.00, 0.00, 6519.74, 17224.28, 0.000, 0.000, 0.000, 18:54:34.749, 1553986474749
182, 11000.54, 10029.79, 0.00, 0.00, 0.00, 0.00, 6573.27, 17666.79, 0.000, 0.000, 0.000, 18:54:34.749, 1553986474749
183, 10966.03, 9985.15, 0.00, 0.00, 0.00, 0.00, 6591.31, 18356.91, 0.000, 0.000, 0.000, 18:54:34.757, 1553986474757
184, 10953.16, 9915.75, 0.00, 0.00, 0.00, 0.00, 6584.02, 18416.47, 0.000, 0.000, 0.000, 18:54:34.757, 1553986474757
185, 11005.57, 9961.26, 0.00, 0.00, 0.00, 0.00, 6530.78, 17312.01, 0.000, 0.000, 0.000, 18:54:34.763, 1553986474763
186, 11014.20, 10034.73, 0.00, 0.00, 0.00, 0.00, 6574.79, 17565.92, 0.000, 0.000, 0.000, 18:54:34.763, 1553986474763
187, 10986.98, 10005.45, 0.00, 0.00, 0.00, 0.00, 6595.06, 18240.34, 0.000, 0.000, 0.000, 18:54:34.771, 1553986474771
188, 10962.90, 9926.68, 0.00, 0.00, 0.00, 0.00, 6600.27, 18555.97, -0.046, -0.156, 1.020, 18:54:34.772, 1553986474772
189, 10992.68, 9945.16, 0.00, 0.00, 0.00, 0.00, 6549.42, 17444.29, 0.000, 0.000, 0.000, 18:54:34.779, 1553986474779
190, 10998.71, 10011.88, 0.00, 0.00, 0.00, 0.00, 6557.91, 17433.44, 0.000, 0.000, 0.000, 18:54:34.779, 1553986474779
191, 10976.07, 10002.14, 0.00, 0.00, 0.00, 0.00, 6581.96, 18096.11, 0.000, 0.000, 0.000, 18:54:34.787, 1553986474787
192, 10941.71, 9919.01, 0.00, 0.00, 0.00, 0.00, 6581.65, 18599.53, 0.000, 0.000, 0.000, 18:54:34.787, 1553986474787
193, 10971.42, 9916.71, 0.00, 0.00, 0.00, 0.00, 6529.82, 17604.28, 0.000, 0.000, 0.000, 18:54:34.793, 1553986474793
194, 11000.39, 9998.63, 0.00, 0.00, 0.00, 0.00, 6534.24, 17326.36, 0.000, 0.000, 0.000, 18:54:34.802, 1553986474802
195, 10991.67, 10018.03, 0.00, 0.00, 0.00, 0.00, 6565.62, 17974.24, 0.000, 0.000, 0.000, 18:54:34.802, 1553986474802
196, 10961.67, 9949.01, 0.00, 0.00, 0.00, 0.00, 6590.75, 18605.32, 0.000, 0.000, 0.000, 18:54:34.809, 1553986474809
197, 10979.53, 9926.70, 0.00, 0.00, 0.00, 0.00, 6551.05, 17837.70, 0.000, 0.000, 0.000, 18:54:34.809, 1553986474809
198, 11003.38, 10000.04, 0.00, 0.00, 0.00, 0.00, 6537.80, 17266.63, -0.044, -0.156, 1.018, 18:54:34.816, 1553986474816
199, 10985.95, 10030.32, 0.00, 0.00, 0.00, 0.00, 6581.72, 17871.69, 0.000, 0.000, 0.000, 18:54:34.816, 1553986474816
200, 10958.19, 9970.26, 0.00, 0.00, 0.00, 0.00, 6616.47, 18562.63, 0.000, 0.000, 0.000, 18:54:34.823, 1553986474823
201, 10965.59, 9925.38, 0.00, 0.00, 0.00, 0.00, 6571.03, 18074.13, 0.000, 0.000, 0.000, 18:54:34.824, 1553986474824
202, 10995.49, 9986.60, 0.00, 0.00, 0.00, 0.00, 6519.29, 17230.29, 0.000, 0.000, 0.000, 18:54:34.831, 1553986474831
203, 11001.68, 10044.56, 0.00, 0.00, 0.00, 0.00, 6580.53, 17765.81, 0.000, 0.000, 0.000, 18:54:34.832, 1553986474832
204, 10971.33, 9986.40, 0.00, 0.00, 0.00, 0.00, 6597.79, 18462.36, 0.000, 0.000, 0.000, 18:54:34.839, 1553986474839
205, 10964.11, 9924.87, 0.00, 0.00, 0.00, 0.00, 6573.11, 18284.46, 0.000, 0.000, 0.000, 18:54:34.839, 1553986474839
206, 11012.12, 9986.33, 0.00, 0.00, 0.00, 0.00, 6535.47, 17258.61, 0.000, 0.000, 0.000, 18:54:34.846, 1553986474846
207, 11011.34, 10049.97, 0.00, 0.00, 0.00, 0.00, 6574.45, 17658.66, 0.000, 0.000, 0.000, 18:54:34.846, 1553986474846
208, 10981.08, 10012.17, 0.00, 0.00, 0.00, 0.00, 6605.16, 18347.59, -0.046, -0.158, 1.012, 18:54:34.853, 1553986474853
209, 10958.48, 9936.45, 0.00, 0.00, 0.00, 0.00, 6598.01, 18467.46, 0.000, 0.000, 0.000, 18:54:34.853, 1553986474853
210, 11001.80, 9979.79, 0.00, 0.00, 0.00, 0.00, 6556.50, 17368.71, 0.000, 0.000, 0.000, 18:54:34.861, 1553986474861
211, 11016.30, 10051.18, 0.00, 0.00, 0.00, 0.00, 6581.16, 17556.20, 0.000, 0.000, 0.000, 18:54:34.868, 1553986474868
212, 11001.01, 10041.59, 0.00, 0.00, 0.00, 0.00, 6625.03, 18238.42, 0.000, 0.000, 0.000, 18:54:34.868, 1553986474868
213, 10960.87, 9949.70, 0.00, 0.00, 0.00, 0.00, 6620.70, 18599.47, 0.000, 0.000, 0.000, 18:54:34.876, 1553986474876
214, 10982.71, 9947.69, 0.00, 0.00, 0.00, 0.00, 6541.86, 17497.32, 0.000, 0.000, 0.000, 18:54:34.876, 1553986474876
215, 11001.57, 10017.65, 0.00, 0.00, 0.00, 0.00, 6548.08, 17420.35, 0.000, 0.000, 0.000, 18:54:34.884, 1553986474884
216, 10982.51, 10015.19, 0.00, 0.00, 0.00, 0.00, 6581.83, 18076.88, 0.000, 0.000, 0.000, 18:54:34.884, 1553986474884
217, 10954.50, 9941.45, 0.00, 0.00, 0.00, 0.00, 6602.21, 18624.32, 0.000, 0.000, 0.000, 18:54:34.892, 1553986474892
218, 10984.07, 9941.45, 0.00, 0.00, 0.00, 0.00, 6552.50, 17693.15, -0.042, -0.162, 1.010, 18:54:34.893, 1553986474893
219, 11011.50, 10017.18, 0.00, 0.00, 0.00, 0.00, 6546.29, 17335.99, 0.000, 0.000, 0.000, 18:54:34.898, 1553986474898
220, 10977.68, 10019.26, 0.00, 0.00, 0.00, 0.00, 6566.96, 17952.96, 0.000, 0.000, 0.000, 18:54:34.899, 1553986474899
221, 10941.20, 9942.66, 0.00, 0.00, 0.00, 0.00, 6588.71, 18588.49, 0.000, 0.000, 0.000, 18:54:34.906, 1553986474906
222, 10975.00, 9932.69, 0.00, 0.00, 0.00, 0.00, 6568.08, 17908.13, 0.000, 0.000, 0.000, 18:54:34.907, 1553986474907
223, 11009.71, 10010.30, 0.00, 0.00, 0.00, 0.00, 6557.62, 17282.88, 0.000, 0.000, 0.000, 18:54:34.914, 1553986474914
224, 10994.55, 10036.36, 0.00, 0.00, 0.00, 0.00, 6591.37, 17857.72, 0.000, 0.000, 0.000, 18:54:34.915, 1553986474915
225, 10947.55, 9961.57, 0.00, 0.00, 0.00, 0.00, 6590.70, 18524.43, 0.000, 0.000, 0.000, 18:54:34.922, 1553986474922
226, 10951.24, 9913.94, 0.00, 0.00, 0.00, 0.00, 6559.88, 18114.37, 0.000, 0.000, 0.000, 18:54:34.928, 1553986474928
227, 11000.08, 9987.27, 0.00, 0.00, 0.00, 0.00, 6533.50, 17238.04, 0.000, 0.000, 0.000, 18:54:34.928, 1553986474928
228, 10994.73, 10041.61, 0.00, 0.00, 0.00, 0.00, 6561.31, 17736.35, -0.040, -0.154, 1.018, 18:54:34.937, 1553986474937
229, 10967.53, 9987.90, 0.00, 0.00, 0.00, 0.00, 6587.95, 18416.70, 0.000, 0.000, 0.000, 18:54:34.937, 1553986474937
230, 10962.08, 9917.65, 0.00, 0.00, 0.00, 0.00, 6577.76, 18318.57, 0.000, 0.000, 0.000, 18:54:34.944, 1553986474944
231, 11003.18, 9972.14, 0.00, 0.00, 0.00, 0.00, 6532.54, 17275.78, 0.000, 0.000, 0.000, 18:54:34.944, 1553986474944
232, 11002.31, 10036.07, 0.00, 0.00, 0.00, 0.00, 6562.49, 17621.20, 0.000, 0.000, 0.000, 18:54:34.951, 1553986474951
233, 10963.69, 9992.24, 0.00, 0.00, 0.00, 0.00, 6577.81, 18286.79, 0.000, 0.000, 0.000, 18:54:34.951, 1553986474951
234, 10946.72, 9911.68, 0.00, 0.00, 0.00, 0.00, 6582.83, 18475.35, 0.000, 0.000, 0.000, 18:54:34.959, 1553986474959
235, 11007.99, 9966.75, 0.00, 0.00, 0.00, 0.00, 6552.10, 17386.46, 0.000, 0.000, 0.000, 18:54:34.959, 1553986474959
236, 11019.45, 10039.20, 0.00, 0.00, 0.00, 0.00, 6573.27, 17512.66, 0.000, 0.000, 0.000, 18:54:34.967, 1553986474967
237, 10972.14, 10000.35, 0.00, 0.00, 0.00, 0.00, 6577.63, 18156.97, 0.000, 0.000, 0.000, 18:54:34.967, 1553986474967
238, 10921.08, 9895.59, 0.00, 0.00, 0.00, 0.00, 6567.30, 18553.67, -0.044, -0.156, 1.022, 18:54:34.974, 1553986474974
239, 10986.31, 9939.46, 0.00, 0.00, 0.00, 0.00, 6545.02, 17535.88, 0.000, 0.000, 0.000, 18:54:34.974, 1553986474974
240, 10999.92, 10006.12, 0.00, 0.00, 0.00, 0.00, 6539.81, 17382.73, 0.000, 0.000, 0.000, 18:54:34.980, 1553986474980
241, 10986.84, 10017.74, 0.00, 0.00, 0.00, 0.00, 6590.17, 18040.81, 0.000, 0.000, 0.000, 18:54:34.989, 1553986474989
242, 10945.72, 9931.53, 0.00, 0.00, 0.00, 0.00, 6599.02, 18606.33, 0.000, 0.000, 0.000, 18:54:34.989, 1553986474989
243, 10983.27, 9934.43, 0.00, 0.00, 0.00, 0.00, 6567.39, 17738.97, 0.000, 0.000, 0.000, 18:54:34.996, 1553986474996
244, 11006.40, 10005.49, 0.00, 0.00, 0.00, 0.00, 6555.61, 17306.04, 0.000, 0.000, 0.000, 18:54:34.997, 1553986474997
245, 10973.23, 10010.99, 0.00, 0.00, 0.00, 0.00, 6569.74, 17915.04, 0.000, 0.000, 0.000, 18:54:35.004, 1553986475004
246, 10930.36, 9925.60, 0.00, 0.00, 0.00, 0.00, 6577.09, 18560.31, 0.000, 0.000, 0.000, 18:54:35.004, 1553986475004
247, 10955.28, 9903.30, 0.00, 0.00, 0.00, 0.00, 6552.17, 17938.95, -0.042, -0.160, 1.020, 18:54:35.011, 1553986475011
248, 11008.41, 9992.93, 0.00, 0.00, 0.00, 0.00, 6550.09, 17248.15, 0.000, 0.000, 0.000, 18:54:35.012, 1553986475012
249, 10990.44, 10034.88, 0.00, 0.00, 0.00, 0.00, 6590.48, 17822.99, 0.000, 0.000, 0.000, 18:54:35.020, 1553986475020
250, 10956.71, 9969.50, 0.00, 0.00, 0.00, 0.00, 6610.64, 18510.28, 0.000, 0.000, 0.000, 18:54:35.020, 1553986475020
251, 10950.72, 9906.16, 0.00, 0.00, 0.00, 0.00, 6570.52, 18173.33, 0.000, 0.000, 0.000, 18:54:35.027, 1553986475027
252, 10987.85, 9965.84, 0.00, 0.00, 0.00, 0.00, 6522.80, 17231.65, 0.000, 0.000, 0.000, 18:54:35.027, 1553986475027
253, 10984.23, 10023.55, 0.00, 0.00, 0.00, 0.00, 6559.28, 17698.22, 0.000, 0.000, 0.000, 18:54:35.034, 1553986475034
254, 10954.75, 9981.64, 0.00, 0.00, 0.00, 0.00, 6596.63, 18390.30, 0.000, 0.000, 0.000, 18:54:35.034, 1553986475034
255, 10942.94, 9908.44, 0.00, 0.00, 0.00, 0.00, 6581.40, 18371.05, 0.000, 0.000, 0.000, 18:54:35.041, 1553986475041
0, 10995.02, 9964.07, 0.00, 0.00, 0.00, 0.00, 6535.65, 17290.33, 0.000, 0.000, 0.000, 18:54:35.049, 1553986475049
1, 10997.44, 10030.75, 0.00, 0.00, 0.00, 0.00, 6563.95, 17586.22, -0.040, -0.160, 1.012, 18:54:35.049, 1553986475049
2, 10971.80, 9998.00, 0.00, 0.00, 0.00, 0.00, 6592.11, 18262.00, 0.000, 0.000, 0.000, 18:54:35.057, 1553986475057
3, 10959.22, 9925.25, 0.00, 0.00, 0.00, 0.00, 6607.15, 18530.74, 0.000, 0.000, 0.000, 18:54:35.057, 1553986475057
4, 10986.98, 9946.12, 0.00, 0.00, 0.00, 0.00, 6546.45, 17409.01, 0.000, 0.000, 0.000, 18:54:35.063, 1553986475063
5, 10996.30, 10017.34, 0.00, 0.00, 0.00, 0.00, 6564.08, 17466.95, 0.000, 0.000, 0.000, 18:54:35.063, 1553986475063
6, 10976.58, 10019.55, 0.00, 0.00, 0.00, 0.00, 6606.24, 18152.61, 0.000, 0.000, 0.000, 18:54:35.071, 1553986475071
7, 10955.33, 9938.39, 0.00, 0.00, 0.00, 0.00, 6618.73, 18622.89, 0.000, 0.000, 0.000, 18:54:35.072, 1553986475072
8, 10999.54, 9951.85, 0.00, 0.00, 0.00, 0.00, 6562.34, 17593.75, 0.000, 0.000, 0.000, 18:54:35.079, 1553986475079
9, 11021.62, 10038.95, 0.00, 0.00, 0.00, 0.00, 6561.73, 17384.61, 0.000, 0.000, 0.000, 18:54:35.080, 1553986475080
10, 11000.59, 10045.12, 0.00, 0.00, 0.00, 0.00, 6601.68, 18034.39, 0.000, 0.000, 0.000, 18:54:35.087, 1553986475087
11, 10968.16, 9958.42, 0.00, 0.00, 0.00, 0.00, 6623.96, 18639.48, -0.056, -0.170, 1.014, 18:54:35.087, 1553986475087
12, 10985.03, 9940.04, 0.00, 0.00, 0.00, 0.00, 6568.55, 17798.43, 0.000, 0.000, 0.000, 18:54:35.094, 1553986475094
13, 11011.00, 10021.72, 0.00, 0.00, 0.00, 0.00, 6535.16, 17289.25, 0.000, 0.000, 0.000, 18:54:35.094, 1553986475094
14, 11014.47, 10059.54, 0.00, 0.00, 0.00, 0.00, 6588.82, 17925.05, 0.000, 0.000, 0.000, 18:54:35.101, 1553986475101
15, 10970.57, 9976.70, 0.00, 0.00, 0.00, 0.00, 6616.92, 18597.54, 0.000, 0.000, 0.000, 18:54:35.101, 1553986475101
16, 10983.49, 9937.34, 0.00, 0.00, 0.00, 0.00, 6579.77, 18029.95, 0.000, 0.000, 0.000, 18:54:35.110, 1553986475110
17, 11036.13, 10031.10, 0.00, 0.00, 0.00, 0.00, 6571.48, 17266.65, 0.000, 0.000, 0.000, 18:54:35.116, 1553986475116
18, 11006.54, 10056.97, 0.00, 0.00, 0.00, 0.00, 6589.14, 17804.59, 0.000, 0.000, 0.000, 18:54:35.116, 1553986475116
19, 10974.06, 9985.44, 0.00, 0.00, 0.00, 0.00, 6598.77, 18487.80, 0.000, 0.000, 0.000, 18:54:35.123, 1553986475123
20, 10972.74, 9932.53, 0.00, 0.00, 0.00, 0.00, 6580.29, 18257.46, 0.000, 0.000, 0.000, 18:54:35.124, 1553986475124
21, 11021.94, 10010.09, 0.00, 0.00, 0.00, 0.00, 6551.07, 17269.52, -0.056, -0.162, 1.022, 18:54:35.131, 1553986475131
22, 11018.63, 10070.13, 0.00, 0.00, 0.00, 0.00, 6576.75, 17702.65, 0.000, 0.000, 0.000, 18:54:35.132, 1553986475132
23, 10981.55, 10015.55, 0.00, 0.00, 0.00, 0.00, 6605.81, 18394.43, 0.000, 0.000, 0.000, 18:54:35.140, 1553986475140
24, 10969.54, 9940.69, 0.00, 0.00, 0.00, 0.00, 6612.88, 18460.15, 0.000, 0.000, 0.000, 18:54:35.140, 1553986475140
25, 11004.57, 9986.04, 0.00, 0.00, 0.00, 0.00, 6556.06, 17337.20, 0.000, 0.000, 0.000, 18:54:35.146, 1553986475146
26, 11008.77, 10054.15, 0.00, 0.00, 0.00, 0.00, 6577.02, 17577.59, 0.000, 0.000, 0.000, 18:54:35.146, 1553986475146
27, 10993.79, 10032.09, 0.00, 0.00, 0.00, 0.00, 6603.20, 18257.51, 0.000, 0.000, 0.000, 18:54:35.154, 1553986475154
28, 10980.47, 9949.99, 0.00, 0.00, 0.00, 0.00, 6607.02, 18586.55, 0.000, 0.000, 0.000, 18:54:35.155, 1553986475155
29, 11019.10, 9984.39, 0.00, 0.00, 0.00, 0.00, 6560.66, 17476.25, 0.000, 0.000, 0.000, 18:54:35.162, 1553986475162
30, 11027.99, 10060.23, 0.00, 0.00, 0.00, 0.00, 6570.54, 17467.62, 0.000, 0.000, 0.000, 18:54:35.162, 1553986475162
31, 11008.68, 10053.05, 0.00, 0.00, 0.00, 0.00, 6609.43, 18139.96, -0.052, -0.162, 1.022, 18:54:35.168, 1553986475168
32, 10967.98, 9952.52, 0.00, 0.00, 0.00, 0.00, 6623.67, 18653.29, 0.000, 0.000, 0.000, 18:54:35.176, 1553986475176
33, 10995.40, 9941.43, 0.00, 0.00, 0.00, 0.00, 6549.93, 17638.61, 0.000, 0.000, 0.000, 18:54:35.176, 1553986475176
34, 11034.47, 10044.18, 0.00, 0.00, 0.00, 0.00, 6569.83, 17355.99, 0.000, 0.000, 0.000, 18:54:35.184, 1553986475184
35, 11011.00, 10057.86, 0.00, 0.00, 0.00, 0.00, 6609.99, 18019.21, 0.000, 0.000, 0.000, 18:54:35.184, 1553986475184
36, 10955.57, 9948.43, 0.00, 0.00, 0.00, 0.00, 6601.21, 18629.71, 0.000, 0.000, 0.000, 18:54:35.192, 1553986475192
37, 10981.50, 9932.53, 0.00, 0.00, 0.00, 0.00, 6557.87, 17851.42, 0.000, 0.000, 0.000, 18:54:35.192, 1553986475192
38, 11013.49, 10017.67, 0.00, 0.00, 0.00, 0.00, 6533.93, 17264.15, 0.000, 0.000, 0.000, 18:54:35.198, 1553986475198
39, 10987.76, 10034.12, 0.00, 0.00, 0.00, 0.00, 6557.24, 17867.54, 0.000, 0.000, 0.000, 18:54:35.199, 1553986475199
40, 10948.15, 9957.25, 0.00, 0.00, 0.00, 0.00, 6579.03, 18551.77, 0.000, 0.000, 0.000, 18:54:35.206, 1553986475206
41, 10963.33, 9919.53, 0.00, 0.00, 0.00, 0.00, 6557.38, 18079.32, -0.054, -0.162, 1.024, 18:54:35.206, 1553986475206
42, 10996.19, 9997.09, 0.00, 0.00, 0.00, 0.00, 6529.06, 17230.49, 0.000, 0.000, 0.000, 18:54:35.214, 1553986475214
43, 10991.27, 10047.62, 0.00, 0.00, 0.00, 0.00, 6568.84, 17759.31, 0.000, 0.000, 0.000, 18:54:35.214, 1553986475214
44, 10962.48, 9987.52, 0.00, 0.00, 0.00, 0.00, 6599.02, 18463.05, 0.000, 0.000, 0.000, 18:54:35.222, 1553986475222
45, 10965.85, 9923.33, 0.00, 0.00, 0.00, 0.00, 6579.59, 18306.77, 0.000, 0.000, 0.000, 18:54:35.222, 1553986475222
46, 11010.94, 9981.86, 0.00, 0.00, 0.00, 0.00, 6523.54, 17252.86, 0.000, 0.000, 0.000, 18:54:35.228, 1553986475228
47, 11011.88, 10047.06, 0.00, 0.00, 0.00, 0.00, 6554.22, 17640.29, 0.000, 0.000, 0.000, 18:54:35.236, 1553986475236
48, 10978.10, 10003.54, 0.00, 0.00, 0.00, 0.00, 6580.08, 18329.95, 0.000, 0.000, 0.000, 18:54:35.236, 1553986475236
49, 10960.38, 9922.36, 0.00, 0.00, 0.00, 0.00, 6575.73, 18469.20, 0.000, 0.000, 0.000, 18:54:35.244, 1553986475244
50, 11006.62, 9975.81, 0.00, 0.00, 0.00, 0.00, 6534.44, 17346.67, 0.000, 0.000, 0.000, 18:54:35.244, 1553986475244
51, 11009.84, 10044.27, 0.00, 0.00, 0.00, 0.00, 6558.47, 17525.35, -0.052, -0.158, 1.024, 18:54:35.251, 1553986475251
52, 10987.87, 10010.92, 0.00, 0.00, 0.00, 0.00, 6582.81, 18194.74, 0.000, 0.000, 0.000, 18:54:35.251, 1553986475251
53, 10961.67, 9928.44, 0.00, 0.00, 0.00, 0.00, 6601.43, 18584.04, 0.000, 0.000, 0.000, 18:54:35.259, 1553986475259
54, 10996.52, 9952.85, 0.00, 0.00, 0.00, 0.00, 6541.35, 17493.66, 0.000, 0.000, 0.000, 18:54:35.259, 1553986475259
55, 11012.50, 10032.98, 0.00, 0.00, 0.00, 0.00, 6552.15, 17410.49, 0.000, 0.000, 0.000, 18:54:35.267, 1553986475267
56, 10984.23, 10016.33, 0.00, 0.00, 0.00, 0.00, 6568.98, 18061.75, 0.000, 0.000, 0.000, 18:54:35.267, 1553986475267
57, 10950.32, 9926.77, 0.00, 0.00, 0.00, 0.00, 6585.18, 18615.94, 0.000, 0.000, 0.000, 18:54:35.275, 1553986475275
58, 10985.05, 9932.53, 0.00, 0.00, 0.00, 0.00, 6542.36, 17683.78, 0.000, 0.000, 0.000, 18:54:35.275, 1553986475275
59, 11010.25, 10014.32, 0.00, 0.00, 0.00, 0.00, 6538.73, 17304.27, 0.000, 0.000, 0.000, 18:54:35.282, 1553986475282
60, 10993.73, 10031.89, 0.00, 0.00, 0.00, 0.00, 6582.43, 17951.98, -0.048, -0.160, 1.016, 18:54:35.282, 1553986475282
61, 10950.86, 9946.50, 0.00, 0.00, 0.00, 0.00, 6600.60, 18608.41, 0.000, 0.000, 0.000, 18:54:35.288, 1553986475288
62, 10970.39, 9916.37, 0.00, 0.00, 0.00, 0.00, 6549.87, 17902.09, 0.000, 0.000, 0.000, 18:54:35.296, 1553986475296
63, 11015.68, 10012.80, 0.00, 0.00, 0.00, 0.00, 6532.10, 17253.82, 0.000, 0.000, 0.000, 18:54:35.296, 1553986475296
64, 11000.72, 10037.56, 0.00, 0.00, 0.00, 0.00, 6570.54, 17835.82, 0.000, 0.000, 0.000, 18:54:35.304, 1553986475304
65, 10962.10, 9969.28, 0.00, 0.00, 0.00, 0.00, 6597.14, 18535.34, 0.000, 0.000, 0.000, 18:54:35.304, 1553986475304
66, 10972.38, 9925.09, 0.00, 0.00, 0.00, 0.00, 6566.92, 18150.96, 0.000, 0.000, 0.000, 18:54:35.311, 1553986475311
67, 11026.72, 10003.50, 0.00, 0.00, 0.00, 0.00, 6540.90, 17242.96, 0.000, 0.000, 0.000, 18:54:35.311, 1553986475311
68, 11021.04, 10052.94, 0.00, 0.00, 0.00, 0.00, 6595.40, 17738.43, 0.000, 0.000, 0.000, 18:54:35.319, 1553986475319
69, 10971.40, 9982.31, 0.00, 0.00, 0.00, 0.00, 6600.89, 18427.67, 0.000, 0.000, 0.000, 18:54:35.319, 1553986475319
70, 10951.50, 9908.44, 0.00, 0.00, 0.00, 0.00, 6573.33, 18346.33, -0.050, -0.164, 1.020, 18:54:35.328, 1553986475328
71, 11005.75, 9971.63, 0.00, 0.00, 0.00, 0.00, 6530.67, 17266.30, 0.000, 0.000, 0.000, 18:54:35.328, 1553986475328
72, 11007.76, 10037.30, 0.00, 0.00, 0.00, 0.00, 6560.55, 17602.65, 0.000, 0.000, 0.000, 18:54:35.334, 1553986475334
73, 10988.25, 10006.25, 0.00, 0.00, 0.00, 0.00, 6591.51, 18298.79, 0.000, 0.000, 0.000, 18:54:35.334, 1553986475334
74, 10976.07, 9930.14, 0.00, 0.00, 0.00, 0.00, 6594.23, 18520.81, 0.000, 0.000, 0.000, 18:54:35.342, 1553986475342
75, 11023.68, 9978.40, 0.00, 0.00, 0.00, 0.00, 6546.29, 17387.44, 0.000, 0.000, 0.000, 18:54:35.342, 1553986475342
76, 11033.76, 10050.37, 0.00, 0.00, 0.00, 0.00, 6572.69, 17494.91, 0.000, 0.000, 0.000, 18:54:35.349, 1553986475349
77, 11000.99, 10027.01, 0.00, 0.00, 0.00, 0.00, 6603.69, 18174.18, 0.000, 0.000, 0.000, 18:54:35.349, 1553986475349
78, 10968.43, 9931.97, 0.00, 0.00, 0.00, 0.00, 6609.05, 18616.48, 0.000, 0.000, 0.000, 18:54:35.357, 1553986475357
79, 10985.84, 9932.29, 0.00, 0.00, 0.00, 0.00, 6529.73, 17527.43, 0.000, 0.000, 0.000, 18:54:35.363, 1553986475363
80, 11004.52, 10004.60, 0.00, 0.00, 0.00, 0.00, 6525.37, 17351.64, -0.056, -0.160, 1.020, 18:54:35.363, 1553986475363
81, 10991.02, 10012.60, 0.00, 0.00, 0.00, 0.00, 6559.66, 18021.41, 0.000, 0.000, 0.000, 18:54:35.371, 1553986475371
82, 10964.45, 9936.87, 0.00, 0.00, 0.00, 0.00, 6589.81, 18631.90, 0.000, 0.000, 0.000, 18:54:35.372, 1553986475372
83, 10991.67, 9934.10, 0.00, 0.00, 0.00, 0.00, 6548.14, 17744.94, 0.000, 0.000, 0.000, 18:54:35.379, 1553986475379
84, 11021.73, 10025.74, 0.00, 0.00, 0.00, 0.00, 6562.23, 17299.45, 0.000, 0.000, 0.000, 18:54:35.380, 1553986475380
85, 11008.21, 10033.50, 0.00, 0.00, 0.00, 0.00, 6588.60, 17925.09, 0.000, 0.000, 0.000, 18:54:35.387, 1553986475387
86, 10967.62, 9948.83, 0.00, 0.00, 0.00, 0.00, 6606.37, 18596.27, 0.000, 0.000, 0.000, 18:54:35.387, 1553986475387
87, 10970.42, 9908.10, 0.00, 0.00, 0.00, 0.00, 6549.66, 17964.59, 0.000, 0.000, 0.000, 18:54:35.394, 1553986475394
88, 11004.88, 9987.72, 0.00, 0.00, 0.00, 0.00, 6517.90, 17214.66, 0.000, 0.000, 0.000, 18:54:35.394, 1553986475394
89, 10997.24, 10036.36, 0.00, 0.00, 0.00, 0.00, 6566.03, 17800.68, 0.000, 0.000, 0.000, 18:54:35.402, 1553986475402
90, 10975.44, 9968.61, 0.00, 0.00, 0.00, 0.00, 6602.35, 18514.53, -0.054, -0.156, 1.022, 18:54:35.402, 1553986475402
91, 10979.69, 9912.31, 0.00, 0.00, 0.00, 0.00, 6578.92, 18196.31, 0.000, 0.000, 0.000, 18:54:35.410, 1553986475410
92, 11024.08, 9992.01, 0.00, 0.00, 0.00, 0.00, 6542.80, 17230.27, 0.000, 0.000, 0.000, 18:54:35.410, 1553986475410
93, 11017.15, 10041.54, 0.00, 0.00, 0.00, 0.00, 6578.48, 17689.19, 0.000, 0.000, 0.000, 18:54:35.416, 1553986475416
94, 10975.02, 9976.57, 0.00, 0.00, 0.00, 0.00, 6592.27, 18384.33, 0.000, 0.000, 0.000, 18:54:35.423, 1553986475423
95, 10955.80, 9901.06, 0.00, 0.00, 0.00, 0.00, 6574.34, 18388.87, 0.000, 0.000, 0.000, 18:54:35.424, 1553986475424
96, 10991.85, 9950.53, 0.00, 0.00, 0.00, 0.00, 6524.56, 17270.05, 0.000, 0.000, 0.000, 18:54:35.432, 1553986475432
97, 11005.69, 10021.72, 0.00, 0.00, 0.00, 0.00, 6557.11, 17554.30, 0.000, 0.000, 0.000, 18:54:35.432, 1553986475432
98, 10979.38, 9985.93, 0.00, 0.00, 0.00, 0.00, 6574.12, 18247.36, 0.000, 0.000, 0.000, 18:54:35.440, 1553986475440
99, 10945.72, 9897.40, 0.00, 0.00, 0.00, 0.00, 6571.75, 18529.57, 0.000, 0.000, 0.000, 18:54:35.440, 1553986475440
100, 10987.02, 9939.06, 0.00, 0.00, 0.00, 0.00, 6525.95, 17395.76, -0.054, -0.156, 1.026, 18:54:35.446, 1553986475446
101, 11006.16, 10012.60, 0.00, 0.00, 0.00, 0.00, 6536.41, 17427.59, 0.000, 0.000, 0.000, 18:54:35.446, 1553986475446
102, 10982.66, 10003.90, 0.00, 0.00, 0.00, 0.00, 6574.41, 18112.11, 0.000, 0.000, 0.000, 18:54:35.454, 1553986475454
103, 10957.85, 9921.13, 0.00, 0.00, 0.00, 0.00, 6593.05, 18620.75, 0.000, 0.000, 0.000, 18:54:35.454, 1553986475454
104, 10988.63, 9927.26, 0.00, 0.00, 0.00, 0.00, 6536.41, 17577.14, 0.000, 0.000, 0.000, 18:54:35.463, 1553986475463
105, 11005.86, 10002.41, 0.00, 0.00, 0.00, 0.00, 6532.81, 17327.70, 0.000, 0.000, 0.000, 18:54:35.463, 1553986475463
106, 10988.85, 10015.24, 0.00, 0.00, 0.00, 0.00, 6575.61, 17993.40, 0.000, 0.000, 0.000, 18:54:35.469, 1553986475469
107, 10953.32, 9934.50, 0.00, 0.00, 0.00, 0.00, 6595.55, 18632.73, 0.000, 0.000, 0.000, 18:54:35.469, 1553986475469
108, 10977.79, 9919.01, 0.00, 0.00, 0.00, 0.00, 6550.65, 17798.27, 0.000, 0.000, 0.000, 18:54:35.476, 1553986475476
109, 11017.80, 10006.25, 0.00, 0.00, 0.00, 0.00, 6547.23, 17263.86, 0.000, 0.000, 0.000, 18:54:35.484, 1553986475484
110, 10999.54, 10025.20, 0.00, 0.00, 0.00, 0.00, 6574.56, 17884.48, -0.048, -0.158, 1.022, 18:54:35.484, 1553986475484
111, 10965.79, 9945.39, 0.00, 0.00, 0.00, 0.00, 6592.11, 18580.92, 0.000, 0.000, 0.000, 18:54:35.492, 1553986475492
112, 10976.72, 9910.83, 0.00, 0.00, 0.00, 0.00, 6571.48, 18041.95, 0.000, 0.000, 0.000, 18:54:35.492, 1553986475492
113, 11014.02, 9992.26, 0.00, 0.00, 0.00, 0.00, 6547.68, 17228.43, 0.000, 0.000, 0.000, 18:54:35.498, 1553986475498
114, 11001.62, 10027.60, 0.00, 0.00, 0.00, 0.00, 6571.57, 17766.55, 0.000, 0.000, 0.000, 18:54:35.499, 1553986475499
115, 10959.91, 9959.45, 0.00, 0.00, 0.00, 0.00, 6580.22, 18473.22, 0.000, 0.000, 0.000, 18:54:35.507, 1553986475507
116, 10946.97, 9890.94, 0.00, 0.00, 0.00, 0.00, 6547.79, 18239.60, 0.000, 0.000, 0.000, 18:54:35.507, 1553986475507
117, 10991.94, 9947.13, 0.00, 0.00, 0.00, 0.00, 6494.03, 17197.74, 0.000, 0.000, 0.000, 18:54:35.514, 1553986475514
118, 11004.46, 10021.40, 0.00, 0.00, 0.00, 0.00, 6546.54, 17636.62, 0.000, 0.000, 0.000, 18:54:35.515, 1553986475515
119, 10974.64, 9981.01, 0.00, 0.00, 0.00, 0.00, 6578.90, 18350.24, -0.046, -0.158, 1.022, 18:54:35.522, 1553986475522
120, 10958.25, 9901.49, 0.00, 0.00, 0.00, 0.00, 6568.06, 18438.15, 0.000, 0.000, 0.000, 18:54:35.522, 1553986475522
121, 11007.90, 9956.54, 0.00, 0.00, 0.00, 0.00, 6525.97, 17308.86, 0.000, 0.000, 0.000, 18:54:35.529, 1553986475529
122, 11012.75, 10028.42, 0.00, 0.00, 0.00, 0.00, 6558.25, 17543.21, 0.000, 0.000, 0.000, 18:54:35.529, 1553986475529
123, 10969.70, 9987.90, 0.00, 0.00, 0.00, 0.00, 6571.55, 18222.01, 0.000, 0.000, 0.000, 18:54:35.536, 1553986475536
124, 10943.32, 9899.99, 0.00, 0.00, 0.00, 0.00, 6567.03, 18563.30, 0.000, 0.000, 0.000, 18:54:35.544, 1553986475544
125, 10979.87, 9925.07, 0.00, 0.00, 0.00, 0.00, 6512.85, 17433.96, 0.000, 0.000, 0.000, 18:54:35.544, 1553986475544
126, 10992.39, 10003.97, 0.00, 0.00, 0.00, 0.00, 6527.25, 17401.84, 0.000, 0.000, 0.000, 18:54:35.551, 1553986475551
127, 10965.94, 9995.01, 0.00, 0.00, 0.00, 0.00, 6564.57, 18078.40, 0.000, 0.000, 0.000, 18:54:35.551, 1553986475551
128, 10932.77, 9903.81, 0.00, 0.00, 0.00, 0.00, 6567.77, 18617.04, 0.000, 0.000, 0.000, 18:54:35.559, 1553986475559
129, 10978.57, 9919.19, 0.00, 0.00, 0.00, 0.00, 6526.89, 17631.19, -0.042, -0.154, 1.024, 18:54:35.559, 1553986475559
130, 11007.65, 10003.97, 0.00, 0.00, 0.00, 0.00, 6533.39, 17312.65, 0.000, 0.000, 0.000, 18:54:35.567, 1553986475567
131, 10985.43, 10016.44, 0.00, 0.00, 0.00, 0.00, 6570.21, 17969.51, 0.000, 0.000, 0.000, 18:54:35.568, 1553986475568
132, 10952.85, 9940.33, 0.00, 0.00, 0.00, 0.00, 6588.87, 18630.92, 0.000, 0.000, 0.000, 18:54:35.575, 1553986475575
133, 10975.69, 9920.44, 0.00, 0.00, 0.00, 0.00, 6547.38, 17868.21, 0.000, 0.000, 0.000, 18:54:35.575, 1553986475575
134, 11012.73, 10006.56, 0.00, 0.00, 0.00, 0.00, 6540.61, 17257.09, 0.000, 0.000, 0.000, 18:54:35.581, 1553986475581
135, 10999.47, 10038.75, 0.00, 0.00, 0.00, 0.00, 6580.98, 17869.17, 0.000, 0.000, 0.000, 18:54:35.582, 1553986475582
136, 10965.27, 9962.60, 0.00, 0.00, 0.00, 0.00, 6590.41, 18568.73, 0.000, 0.000, 0.000, 18:54:35.590, 1553986475590
137, 10943.82, 9879.81, 0.00, 0.00, 0.00, 0.00, 6520.90, 18067.03, 0.000, 0.000, 0.000, 18:54:35.590, 1553986475590
138, 10985.59, 9955.38, 0.00, 0.00, 0.00, 0.00, 6495.91, 17186.72, 0.000, 0.000, 0.000, 18:54:35.596, 1553986475596
139, 10986.40, 10012.29, 0.00, 0.00, 0.00, 0.00, 6542.49, 17722.27, -0.048, -0.156, 1.012, 18:54:35.597, 1553986475597
140, 10945.45, 9955.73, 0.00, 0.00, 0.00, 0.00, 6568.31, 18442.87, 0.000, 0.000, 0.000, 18:54:35.604, 1553986475604
141, 10935.50, 9894.16, 0.00, 0.00, 0.00, 0.00, 6549.04, 18302.50, 0.000, 0.000, 0.000, 18:54:35.612, 1553986475612
142, 10985.30, 9964.21, 0.00, 0.00, 0.00, 0.00, 6509.70, 17235.34, 0.000, 0.000, 0.000, 18:54:35.612, 1553986475612
143, 10998.80, 10034.17, 0.00, 0.00, 0.00, 0.00, 6544.99, 17619.88, 0.000, 0.000, 0.000, 18:54:35.619, 1553986475619
144, 10964.56, 9996.64, 0.00, 0.00, 0.00, 0.00, 6574.16, 18327.71, 0.000, 0.000, 0.000, 18:54:35.619, 1553986475619
145, 10944.55, 9915.12, 0.00, 0.00, 0.00, 0.00, 6570.25, 18494.71, 0.000, 0.000, 0.000, 18:54:35.626, 1553986475626
146, 10983.27, 9944.76, 0.00, 0.00, 0.00, 0.00, 6506.95, 17335.72, 0.000, 0.000, 0.000, 18:54:35.626, 1553986475626
147, 10989.77, 10017.92, 0.00, 0.00, 0.00, 0.00, 6531.78, 17498.02, 0.000, 0.000, 0.000, 18:54:35.634, 1553986475634
148, 10962.55, 9995.66, 0.00, 0.00, 0.00, 0.00, 6571.26, 18184.69, 0.000, 0.000, 0.000, 18:54:35.634, 1553986475634
149, 10945.45, 9924.93, 0.00, 0.00, 0.00, 0.00, 6590.77, 18606.33, -0.050, -0.158, 1.012, 18:54:35.642, 1553986475642
150, 10985.77, 9947.71, 0.00, 0.00, 0.00, 0.00, 6531.25, 17502.91, 0.000, 0.000, 0.000, 18:54:35.642, 1553986475642
151, 11016.15, 10039.80, 0.00, 0.00, 0.00, 0.00, 6554.00, 17407.92, 0.000, 0.000, 0.000, 18:54:35.649, 1553986475649
152, 10986.02, 10031.06, 0.00, 0.00, 0.00, 0.00, 6582.16, 18078.63, 0.000, 0.000, 0.000, 18:54:35.649, 1553986475649
153, 10943.84, 9935.53, 0.00, 0.00, 0.00, 0.00, 6588.22, 18649.78, 0.000, 0.000, 0.000, 18:54:35.657, 1553986475657
154, 10978.91, 9927.79, 0.00, 0.00, 0.00, 0.00, 6528.90, 17696.37, 0.000, 0.000, 0.000, 18:54:35.657, 1553986475657
155, 10989.64, 10001.42, 0.00, 0.00, 0.00, 0.00, 6525.48, 17287.15, 0.000, 0.000, 0.000, 18:54:35.664, 1553986475664
156, 10960.87, 10006.94, 0.00, 0.00, 0.00, 0.00, 6550.87, 17930.14, 0.000, 0.000, 0.000, 18:54:35.672, 1553986475672
157, 10920.95, 9917.78, 0.00, 0.00, 0.00, 0.00, 6556.19, 18590.82, 0.000, 0.000, 0.000, 18:54:35.672, 1553986475672
158, 10941.69, 9896.44, 0.00, 0.00, 0.00, 0.00, 6528.59, 17908.75, 0.000, 0.000, 0.000, 18:54:35.678, 1553986475678
159, 10969.14, 9972.90, 0.00, 0.00, 0.00, 0.00, 6506.84, 17213.48, -0.052, -0.164, 1.018, 18:54:35.679, 1553986475679
160, 10960.02, 10009.33, 0.00, 0.00, 0.00, 0.00, 6540.30, 17809.60, 0.000, 0.000, 0.000, 18:54:35.687, 1553986475687
161, 10925.85, 9945.03, 0.00, 0.00, 0.00, 0.00, 6573.67, 18527.43, 0.000, 0.000, 0.000, 18:54:35.687, 1553986475687
162, 10931.63, 9891.21, 0.00, 0.00, 0.00, 0.00, 6545.22, 18139.47, 0.000, 0.000, 0.000, 18:54:35.695, 1553986475695
163, 10966.64, 9951.51, 0.00, 0.00, 0.00, 0.00, 6499.10, 17191.98, 0.000, 0.000, 0.000, 18:54:35.695, 1553986475695
164, 10965.56, 10004.19, 0.00, 0.00, 0.00, 0.00, 6537.24, 17687.22, 0.000, 0.000, 0.000, 18:54:35.701, 1553986475701
165, 10935.19, 9951.67, 0.00, 0.00, 0.00, 0.00, 6559.07, 18399.20, 0.000, 0.000, 0.000, 18:54:35.701, 1553986475701
166, 10931.66, 9881.50, 0.00, 0.00, 0.00, 0.00, 6549.33, 18338.98, 0.000, 0.000, 0.000, 18:54:35.709, 1553986475709
167, 10965.16, 9927.86, 0.00, 0.00, 0.00, 0.00, 6490.90, 17231.36, 0.000, 0.000, 0.000, 18:54:35.710, 1553986475710
168, 10962.48, 9988.91, 0.00, 0.00, 0.00, 0.00, 6515.96, 17549.61, 0.000, 0.000, 0.000, 18:54:35.717, 1553986475717
169, 10929.24, 9959.31, 0.00, 0.00, 0.00, 0.00, 6546.47, 18253.04, -0.052, -0.162, 1.024, 18:54:35.717, 1553986475717
170, 10914.45, 9875.74, 0.00, 0.00, 0.00, 0.00, 6540.32, 18488.04, 0.000, 0.000, 0.000, 18:54:35.724, 1553986475724
171, 10955.06, 9905.09, 0.00, 0.00, 0.00, 0.00, 6482.97, 17324.68, 0.000, 0.000, 0.000, 18:54:35.731, 1553986475731
172, 10973.21, 9990.92, 0.00, 0.00, 0.00, 0.00, 6522.37, 17435.79, 0.000, 0.000, 0.000, 18:54:35.731, 1553986475731
173, 10947.75, 9975.09, 0.00, 0.00, 0.00, 0.00, 6555.79, 18128.20, 0.000, 0.000, 0.000, 18:54:35.739, 1553986475739
174, 10908.19, 9887.61, 0.00, 0.00, 0.00, 0.00, 6564.17, 18592.90, 0.000, 0.000, 0.000, 18:54:35.739, 1553986475739
175, 10951.75, 9904.19, 0.00, 0.00, 0.00, 0.00, 6511.15, 17511.34, 0.000, 0.000, 0.000, 18:54:35.747, 1553986475747
176, 10973.34, 9974.04, 0.00, 0.00, 0.00, 0.00, 6496.89, 17316.10, 0.000, 0.000, 0.000, 18:54:35.748, 1553986475748
177, 10943.30, 9972.25, 0.00, 0.00, 0.00, 0.00, 6529.59, 17979.09, 0.000, 0.000, 0.000, 18:54:35.754, 1553986475754
178, 10909.75, 9892.01, 0.00, 0.00, 0.00, 0.00, 6553.55, 18602.22, 0.000, 0.000, 0.000, 18:54:35.754, 1553986475754
179, 10938.23, 9886.40, 0.00, 0.00, 0.00, 0.00, 6510.62, 17710.72, -0.050, -0.160, 1.022, 18:54:35.761, 1553986475761
180, 10971.20, 9975.18, 0.00, 0.00, 0.00, 0.00, 6506.41, 17235.05, 0.000, 0.000, 0.000, 18:54:35.762, 1553986475762
181, 10961.83, 10003.68, 0.00, 0.00, 0.00, 0.00, 6551.72, 17885.44, 0.000, 0.000, 0.000, 18:54:35.769, 1553986475769
182, 10924.48, 9919.77, 0.00, 0.00, 0.00, 0.00, 6563.48, 18567.62, 0.000, 0.000, 0.000, 18:54:35.770, 1553986475770
183, 10948.06, 9895.38, 0.00, 0.00, 0.00, 0.00, 6539.36, 17969.01, 0.000, 0.000, 0.000, 18:54:35.777, 1553986475777
184, 10973.68, 9961.30, 0.00, 0.00, 0.00, 0.00, 6500.20, 17191.93, 0.000, 0.000, 0.000, 18:54:35.778, 1553986475778
185, 10948.11, 9986.56, 0.00, 0.00, 0.00, 0.00, 6514.95, 17748.63, 0.000, 0.000, 0.000, 18:54:35.784, 1553986475784
186, 10915.63, 9919.06, 0.00, 0.00, 0.00, 0.00, 6538.62, 18460.95, 0.000, 0.000, 0.000, 18:54:35.791, 1553986475791
187, 10922.69, 9870.73, 0.00, 0.00, 0.00, 0.00, 6526.80, 18178.40, 0.000, 0.000, 0.000, 18:54:35.791, 1553986475791
188, 10971.76, 9936.96, 0.00, 0.00, 0.00, 0.00, 6486.95, 17173.13, -0.050, -0.156, 1.022, 18:54:35.799, 1553986475799
189, 10950.86, 9982.94, 0.00, 0.00, 0.00, 0.00, 6509.43, 17620.95, 0.000, 0.000, 0.000, 18:54:35.799, 1553986475799
190, 10904.63, 9930.41, 0.00, 0.00, 0.00, 0.00, 6537.97, 18338.64, 0.000, 0.000, 0.000, 18:54:35.807, 1553986475807
191, 10893.19, 9846.12, 0.00, 0.00, 0.00, 0.00, 6519.67, 18355.39, 0.000, 0.000, 0.000, 18:54:35.807, 1553986475807
192, 10952.78, 9911.28, 0.00, 0.00, 0.00, 0.00, 6483.59, 17239.43, 0.000, 0.000, 0.000, 18:54:35.815, 1553986475815
193, 10957.00, 9981.95, 0.00, 0.00, 0.00, 0.00, 6515.78, 17517.15, 0.000, 0.000, 0.000, 18:54:35.815, 1553986475815
194, 10923.72, 9952.02, 0.00, 0.00, 0.00, 0.00, 6548.57, 18216.85, 0.000, 0.000, 0.000, 18:54:35.822, 1553986475822
195, 10893.99, 9866.19, 0.00, 0.00, 0.00, 0.00, 6547.07, 18516.77, 0.000, 0.000, 0.000, 18:54:35.822, 1553986475822
196, 10940.13, 9903.97, 0.00, 0.00, 0.00, 0.00, 6497.65, 17375.93, 0.000, 0.000, 0.000, 18:54:35.830, 1553986475830
197, 10952.53, 9983.43, 0.00, 0.00, 0.00, 0.00, 6519.36, 17404.74, 0.000, 0.000, 0.000, 18:54:35.830, 1553986475830
198, 10927.68, 9966.11, 0.00, 0.00, 0.00, 0.00, 6541.51, 18080.41, -0.048, -0.164, 1.022, 18:54:35.836, 1553986475836
199, 10894.02, 9871.45, 0.00, 0.00, 0.00, 0.00, 6537.30, 18576.67, 0.000, 0.000, 0.000, 18:54:35.837, 1553986475837
200, 10935.66, 9887.38, 0.00, 0.00, 0.00, 0.00, 6497.14, 17546.65, 0.000, 0.000, 0.000, 18:54:35.843, 1553986475843
201, 10953.36, 9971.54, 0.00, 0.00, 0.00, 0.00, 6508.65, 17290.55, 0.000, 0.000, 0.000, 18:54:35.844, 1553986475844
202, 10942.36, 9981.06, 0.00, 0.00, 0.00, 0.00, 6545.78, 17956.59, 0.000, 0.000, 0.000, 18:54:35.851, 1553986475851
203, 10910.98, 9900.35, 0.00, 0.00, 0.00, 0.00, 6573.33, 18602.82, 0.000, 0.000, 0.000, 18:54:35.859, 1553986475859
204, 10934.61, 9886.15, 0.00, 0.00, 0.00, 0.00, 6525.21, 17776.88, 0.000, 0.000, 0.000, 18:54:35.860, 1553986475860
205, 10969.48, 9974.78, 0.00, 0.00, 0.00, 0.00, 6508.78, 17220.14, 0.000, 0.000, 0.000, 18:54:35.867, 1553986475867
206, 10943.62, 9988.37, 0.00, 0.00, 0.00, 0.00, 6528.74, 17824.44, 0.000, 0.000, 0.000, 18:54:35.867, 1553986475867
207, 10910.31, 9907.54, 0.00, 0.00, 0.00, 0.00, 6539.99, 18521.57, 0.000, 0.000, 0.000, 18:54:35.874, 1553986475874
208, 10919.97, 9867.27, 0.00, 0.00, 0.00, 0.00, 6504.45, 17994.67, -0.050, -0.170, 1.018, 18:54:35.874, 1553986475874
209, 10956.94, 9942.75, 0.00, 0.00, 0.00, 0.00, 6477.76, 17159.52, 0.000, 0.000, 0.000, 18:54:35.882, 1553986475882
210, 10942.43, 9985.11, 0.00, 0.00, 0.00, 0.00, 6512.99, 17703.27, 0.000, 0.000, 0.000, 18:54:35.882, 1553986475882
211, 10897.10, 9920.22, 0.00, 0.00, 0.00, 0.00, 6535.34, 18422.73, 0.000, 0.000, 0.000, 18:54:35.890, 1553986475890
212, 10890.13, 9854.28, 0.00, 0.00, 0.00, 0.00, 6511.93, 18217.14, 0.000, 0.000, 0.000, 18:54:35.890, 1553986475890
213, 10948.02, 9919.44, 0.00, 0.00, 0.00, 0.00, 6466.11, 17173.29, 0.000, 0.000, 0.000, 18:54:35.896, 1553986475896
214, 10959.71, 9986.16, 0.00, 0.00, 0.00, 0.00, 6505.90, 17582.80, 0.000, 0.000, 0.000, 18:54:35.897, 1553986475897
215, 10914.89, 9936.76, 0.00, 0.00, 0.00, 0.00, 6530.42, 18293.52, 0.000, 0.000, 0.000, 18:54:35.905, 1553986475905
216, 10891.65, 9854.86, 0.00, 0.00, 0.00, 0.00, 6523.29, 18402.48, 0.000, 0.000, 0.000, 18:54:35.905, 1553986475905
217, 10938.79, 9910.90, 0.00, 0.00, 0.00, 0.00, 6480.51, 17264.49, 0.000, 0.000, 0.000, 18:54:35.912, 1553986475912
218, 10955.46, 9994.60, 0.00, 0.00, 0.00, 0.00, 6514.17, 17483.02, -0.046, -0.164, 1.022, 18:54:35.919, 1553986475919
219, 10925.44, 9959.11, 0.00, 0.00, 0.00, 0.00, 6527.85, 18162.42, 0.000, 0.000, 0.000, 18:54:35.920, 1553986475920
220, 10893.77, 9866.66, 0.00, 0.00, 0.00, 0.00, 6525.52, 18523.92, 0.000, 0.000, 0.000, 18:54:35.926, 1553986475926
221, 10933.20, 9895.74, 0.00, 0.00, 0.00, 0.00, 6476.15, 17398.42, 0.000, 0.000, 0.000, 18:54:35.926, 1553986475926
222, 10956.49, 9972.07, 0.00, 0.00, 0.00, 0.00, 6490.14, 17341.51, 0.000, 0.000, 0.000, 18:54:35.935, 1553986475935
223, 10936.15, 9966.91, 0.00, 0.00, 0.00, 0.00, 6531.67, 18027.44, 0.000, 0.000, 0.000, 18:54:35.935, 1553986475935
224, 10895.83, 9874.98, 0.00, 0.00, 0.00, 0.00, 6544.43, 18588.00, 0.000, 0.000, 0.000, 18:54:35.942, 1553986475942
225, 10919.92, 9871.40, 0.00, 0.00, 0.00, 0.00, 6488.51, 17590.91, 0.000, 0.000, 0.000, 18:54:35.943, 1553986475943
226, 10951.39, 9960.63, 0.00, 0.00, 0.00, 0.00, 6486.23, 17237.96, 0.000, 0.000, 0.000, 18:54:35.949, 1553986475949
227, 10934.03, 9971.96, 0.00, 0.00, 0.00, 0.00, 6519.67, 17896.82, 0.000, 0.000, 0.000, 18:54:35.949, 1553986475949
228, 10884.54, 9876.45, 0.00, 0.00, 0.00, 0.00, 6524.65, 18553.71, -0.048, -0.164, 1.020, 18:54:35.957, 1553986475957
229, 10906.73, 9854.77, 0.00, 0.00, 0.00, 0.00, 6482.52, 17798.27, 0.000, 0.000, 0.000, 18:54:35.957, 1553986475957
230, 10961.92, 9950.35, 0.00, 0.00, 0.00, 0.00, 6483.88, 17169.85, 0.000, 0.000, 0.000, 18:54:35.965, 1553986475965
231, 10946.81, 9982.22, 0.00, 0.00, 0.00, 0.00, 6525.52, 17781.51, 0.000, 0.000, 0.000, 18:54:35.965, 1553986475965
232, 10890.51, 9892.66, 0.00, 0.00, 0.00, 0.00, 6529.79, 18489.47, 0.000, 0.000, 0.000, 18:54:35.972, 1553986475972
233, 10890.98, 9836.78, 0.00, 0.00, 0.00, 0.00, 6489.29, 18037.30, 0.000, 0.000, 0.000, 18:54:35.979, 1553986475979
234, 10924.08, 9903.23, 0.00, 0.00, 0.00, 0.00, 6444.41, 17124.07, 0.000, 0.000, 0.000, 18:54:35.979, 1553986475979
235, 10931.30, 9966.40, 0.00, 0.00, 0.00, 0.00, 6498.66, 17656.74, 0.000, 0.000, 0.000, 18:54:35.987, 1553986475987
236, 10895.54, 9908.15, 0.00, 0.00, 0.00, 0.00, 6523.22, 18383.15, 0.000, 0.000, 0.000, 18:54:35.987, 1553986475987
237, 10896.83, 9855.76, 0.00, 0.00, 0.00, 0.00, 6523.09, 18278.50, 0.000, 0.000, 0.000, 18:54:35.994, 1553986475994
238, 10947.66, 9916.15, 0.00, 0.00, 0.00, 0.00, 6480.24, 17186.61, -0.050, -0.166, 1.028, 18:54:35.995, 1553986475995
239, 10944.49, 9976.63, 0.00, 0.00, 0.00, 0.00, 6501.83, 17542.81, 0.000, 0.000, 0.000, 18:54:36.001, 1553986476001
240, 10918.71, 9944.63, 0.00, 0.00, 0.00, 0.00, 6535.49, 18258.38, 0.000, 0.000, 0.000, 18:54:36.001, 1553986476001
241, 10899.43, 9862.06, 0.00, 0.00, 0.00, 0.00, 6531.69, 18446.02, 0.000, 0.000, 0.000, 18:54:36.009, 1553986476009
242, 10936.60, 9890.94, 0.00, 0.00, 0.00, 0.00, 6467.77, 17271.51, 0.000, 0.000, 0.000, 18:54:36.009, 1553986476009
243, 10950.07, 9968.56, 0.00, 0.00, 0.00, 0.00, 6492.69, 17414.51, 0.000, 0.000, 0.000, 18:54:36.018, 1553986476018
244, 10925.73, 9957.68, 0.00, 0.00, 0.00, 0.00, 6529.39, 18126.48, 0.000, 0.000, 0.000, 18:54:36.019, 1553986476019
245, 10887.00, 9864.03, 0.00, 0.00, 0.00, 0.00, 6529.86, 18554.58, 0.000, 0.000, 0.000, 18:54:36.024, 1553986476024
246, 10930.43, 9882.96, 0.00, 0.00, 0.00, 0.00, 6475.39, 17441.09, 0.000, 0.000, 0.000, 18:54:36.025, 1553986476025
247, 10955.24, 9973.55, 0.00, 0.00, 0.00, 0.00, 6494.03, 17314.73, -0.052, -0.166, 1.016, 18:54:36.031, 1553986476031
248, 10936.66, 9974.15, 0.00, 0.00, 0.00, 0.00, 6526.31, 18000.44, 0.000, 0.000, 0.000, 18:54:36.039, 1553986476039
249, 10894.75, 9879.22, 0.00, 0.00, 0.00, 0.00, 6530.98, 18594.73, 0.000, 0.000, 0.000, 18:54:36.039, 1553986476039
250, 10918.47, 9863.74, 0.00, 0.00, 0.00, 0.00, 6472.89, 17646.61, 0.000, 0.000, 0.000, 18:54:36.047, 1553986476047
251, 10939.82, 9937.16, 0.00, 0.00, 0.00, 0.00, 6459.94, 17201.32, 0.000, 0.000, 0.000, 18:54:36.047, 1553986476047
252, 10923.68, 9955.58, 0.00, 0.00, 0.00, 0.00, 6501.05, 17855.09, 0.000, 0.000, 0.000, 18:54:36.054, 1553986476054
253, 10897.57, 9888.37, 0.00, 0.00, 0.00, 0.00, 6526.51, 18554.00, 0.000, 0.000, 0.000, 18:54:36.054, 1553986476054
254, 10917.66, 9864.65, 0.00, 0.00, 0.00, 0.00, 6497.58, 17887.16, 0.000, 0.000, 0.000, 18:54:36.061, 1553986476061
255, 10942.99, 9940.71, 0.00, 0.00, 0.00, 0.00, 6473.69, 17160.62, 0.000, 0.000, 0.000, 18:54:36.062, 1553986476062
0, 10939.19, 9976.32, 0.00, 0.00, 0.00, 0.00, 6507.58, 17754.57, 0.000, 0.000, 0.000, 18:54:36.070, 1553986476070
1, 10902.58, 9905.38, 0.00, 0.00, 0.00, 0.00, 6520.76, 18470.32, -0.050, -0.166, 1.012, 18:54:36.070, 1553986476070
2, 10904.46, 9859.22, 0.00, 0.00, 0.00, 0.00, 6501.92, 18124.09, 0.000, 0.000, 0.000, 18:54:36.078, 1553986476078
3, 10931.59, 9920.75, 0.00, 0.00, 0.00, 0.00, 6461.96, 17150.74, 0.000, 0.000, 0.000, 18:54:36.078, 1553986476078
4, 10922.60, 9959.71, 0.00, 0.00, 0.00, 0.00, 6478.97, 17613.49, 0.000, 0.000, 0.000, 18:54:36.084, 1553986476084
5, 10897.12, 9914.38, 0.00, 0.00, 0.00, 0.00, 6501.43, 18334.67, 0.000, 0.000, 0.000, 18:54:36.084, 1553986476084
6, 10884.83, 9837.79, 0.00, 0.00, 0.00, 0.00, 6474.36, 18296.67, 0.000, 0.000, 0.000, 18:54:36.091, 1553986476091
7, 10927.39, 9891.88, 0.00, 0.00, 0.00, 0.00, 6433.57, 17169.18, 0.000, 0.000, 0.000, 18:54:36.091, 1553986476091
8, 10925.00, 9954.75, 0.00, 0.00, 0.00, 0.00, 6467.01, 17483.04, 0.000, 0.000, 0.000, 18:54:36.099, 1553986476099
9, 10892.88, 9918.56, 0.00, 0.00, 0.00, 0.00, 6493.49, 18192.71, 0.000, 0.000, 0.000, 18:54:36.107, 1553986476107
10, 10877.57, 9841.83, 0.00, 0.00, 0.00, 0.00, 6494.12, 18458.76, 0.000, 0.000, 0.000, 18:54:36.107, 1553986476107
11, 10914.45, 9871.92, 0.00, 0.00, 0.00, 0.00, 6435.02, 17290.37, -0.052, -0.164, 1.016, 18:54:36.114, 1553986476114
12, 10928.06, 9955.98, 0.00, 0.00, 0.00, 0.00, 6469.56, 17375.64, 0.000, 0.000, 0.000, 18:54:36.114, 1553986476114
13, 10909.53, 9949.50, 0.00, 0.00, 0.00, 0.00, 6511.38, 18076.39, 0.000, 0.000, 0.000, 18:54:36.122, 1553986476122
14, 10869.36, 9853.72, 0.00, 0.00, 0.00, 0.00, 6506.91, 18551.37, 0.000, 0.000, 0.000, 18:54:36.122, 1553986476122
15, 10912.32, 9866.78, 0.00, 0.00, 0.00, 0.00, 6451.41, 17476.31, 0.000, 0.000, 0.000, 18:54:36.130, 1553986476130
16, 10930.58, 9944.18, 0.00, 0.00, 0.00, 0.00, 6447.65, 17259.90, 0.000, 0.000, 0.000, 18:54:36.130, 1553986476130
17, 10900.48, 9940.40, 0.00, 0.00, 0.00, 0.00, 6477.18, 17926.50, 0.000, 0.000, 0.000, 18:54:36.137, 1553986476137
18, 10868.76, 9856.54, 0.00, 0.00, 0.00, 0.00, 6509.07, 18561.96, 0.000, 0.000, 0.000, 18:54:36.137, 1553986476137
19, 10901.86, 9843.80, 0.00, 0.00, 0.00, 0.00, 6460.35, 17687.00, 0.000, 0.000, 0.000, 18:54:36.144, 1553986476144
20, 10930.87, 9920.44, 0.00, 0.00, 0.00, 0.00, 6437.77, 17162.88, 0.000, 0.000, 0.000, 18:54:36.145, 1553986476145
21, 10909.93, 9952.56, 0.00, 0.00, 0.00, 0.00, 6488.44, 17817.04, -0.048, -0.156, 1.020, 18:54:36.152, 1553986476152
22, 10865.70, 9867.71, 0.00, 0.00, 0.00, 0.00, 6504.25, 18515.29, 0.000, 0.000, 0.000, 18:54:36.152, 1553986476152
23, 10898.20, 9844.07, 0.00, 0.00, 0.00, 0.00, 6471.50, 17925.45, 0.000, 0.000, 0.000, 18:54:36.160, 1553986476160
24, 10931.59, 9917.20, 0.00, 0.00, 0.00, 0.00, 6437.62, 17123.87, 0.000, 0.000, 0.000, 18:54:36.166, 1553986476166
25, 10910.31, 9950.86, 0.00, 0.00, 0.00, 0.00, 6468.55, 17688.92, 0.000, 0.000, 0.000, 18:54:36.166, 1553986476166
26, 10879.82, 9888.34, 0.00, 0.00, 0.00, 0.00, 6497.21, 18418.84, 0.000, 0.000, 0.000, 18:54:36.174, 1553986476174
27, 10882.95, 9831.66, 0.00, 0.00, 0.00, 0.00, 6467.81, 18145.10, 0.000, 0.000, 0.000, 18:54:36.174, 1553986476174
28, 10932.30, 9894.67, 0.00, 0.00, 0.00, 0.00, 6426.86, 17116.50, 0.000, 0.000, 0.000, 18:54:36.182, 1553986476182
29, 10947.10, 9977.10, 0.00, 0.00, 0.00, 0.00, 6490.72, 17590.02, 0.000, 0.000, 0.000, 18:54:36.182, 1553986476182
30, 10907.76, 9940.54, 0.00, 0.00, 0.00, 0.00, 6532.86, 18332.92, 0.000, 0.000, 0.000, 18:54:36.189, 1553986476189
31, 10892.09, 9868.54, 0.00, 0.00, 0.00, 0.00, 6521.32, 18388.85, -0.048, -0.158, 1.020, 18:54:36.189, 1553986476189
32, 10935.43, 9908.64, 0.00, 0.00, 0.00, 0.00, 6465.60, 17229.28, 0.000, 0.000, 0.000, 18:54:36.197, 1553986476197
33, 10924.04, 9962.13, 0.00, 0.00, 0.00, 0.00, 6478.03, 17464.29, 0.000, 0.000, 0.000, 18:54:36.197, 1553986476197
34, 10907.03, 9939.37, 0.00, 0.00, 0.00, 0.00, 6506.23, 18171.92, 0.000, 0.000, 0.000, 18:54:36.205, 1553986476205
35, 10880.18, 9857.75, 0.00, 0.00, 0.00, 0.00, 6513.90, 18509.43, 0.000, 0.000, 0.000, 18:54:36.205, 1553986476205
36, 10935.57, 9897.53, 0.00, 0.00, 0.00, 0.00, 6481.42, 17369.29, 0.000, 0.000, 0.000, 18:54:36.213, 1553986476213
37, 10953.94, 9982.49, 0.00, 0.00, 0.00, 0.00, 6509.81, 17378.03, 0.000, 0.000, 0.000, 18:54:36.213, 1553986476213
38, 10927.10, 9968.83, 0.00, 0.00, 0.00, 0.00, 6535.90, 18061.39, 0.000, 0.000, 0.000, 18:54:36.219, 1553986476219
39, 10889.41, 9874.53, 0.00, 0.00, 0.00, 0.00, 6540.43, 18588.60, 0.000, 0.000, 0.000, 18:54:36.226, 1553986476226
40, 10917.31, 9876.07, 0.00, 0.00, 0.00, 0.00, 6482.88, 17551.95, 0.000, 0.000, 0.000, 18:54:36.227, 1553986476227
41, 10950.88, 9968.18, 0.00, 0.00, 0.00, 0.00, 6492.80, 17262.65, -0.046, -0.160, 1.016, 18:54:36.234, 1553986476234
42, 10935.46, 9982.11, 0.00, 0.00, 0.00, 0.00, 6527.94, 17931.93, 0.000, 0.000, 0.000, 18:54:36.235, 1553986476235
43, 10899.89, 9896.30, 0.00, 0.00, 0.00, 0.00, 6538.13, 18594.84, 0.000, 0.000, 0.000, 18:54:36.244, 1553986476244
44, 10926.52, 9883.18, 0.00, 0.00, 0.00, 0.00, 6499.93, 17788.72, 0.000, 0.000, 0.000, 18:54:36.244, 1553986476244
45, 10944.62, 9952.87, 0.00, 0.00, 0.00, 0.00, 6475.46, 17179.01, 0.000, 0.000, 0.000, 18:54:36.249, 1553986476249
46, 10929.53, 9982.04, 0.00, 0.00, 0.00, 0.00, 6512.65, 17803.14, 0.000, 0.000, 0.000, 18:54:36.249, 1553986476249
47, 10902.38, 9922.52, 0.00, 0.00, 0.00, 0.00, 6551.21, 18545.09, 0.000, 0.000, 0.000, 18:54:36.257, 1553986476257
48, 10916.30, 9887.83, 0.00, 0.00, 0.00, 0.00, 6522.08, 18040.52, 0.000, 0.000, 0.000, 18:54:36.257, 1553986476257
49, 10954.83, 9949.52, 0.00, 0.00, 0.00, 0.00, 6478.88, 17152.21, 0.000, 0.000, 0.000, 18:54:36.267, 1553986476267
50, 10942.09, 9981.80, 0.00, 0.00, 0.00, 0.00, 6500.29, 17682.17, 0.000, 0.000, 0.000, 18:54:36.267, 1553986476267
51, 10905.73, 9925.31, 0.00, 0.00, 0.00, 0.00, 6524.54, 18418.42, -0.046, -0.162, 1.020, 18:54:36.272, 1553986476272
52, 10908.79, 9875.29, 0.00, 0.00, 0.00, 0.00, 6515.96, 18251.18, 0.000, 0.000, 0.000, 18:54:36.272, 1553986476272
53, 10962.59, 9953.23, 0.00, 0.00, 0.00, 0.00, 6492.67, 17190.82, 0.000, 0.000, 0.000, 18:54:36.279, 1553986476279
54, 10964.60, 10018.68, 0.00, 0.00, 0.00, 0.00, 6530.49, 17597.08, 0.000, 0.000, 0.000, 18:54:36.287, 1553986476287
55, 10928.91, 9978.67, 0.00, 0.00, 0.00, 0.00, 6551.83, 18323.20, 0.000, 0.000, 0.000, 18:54:36.287, 1553986476287
56, 10895.09, 9873.82, 0.00, 0.00, 0.00, 0.00, 6512.14, 18432.70, 0.000, 0.000, 0.000, 18:54:36.295, 1553986476295
57, 10934.50, 9901.69, 0.00, 0.00, 0.00, 0.00, 6447.20, 17242.58, 0.000, 0.000, 0.000, 18:54:36.295, 1553986476295
58, 10948.58, 9985.28, 0.00, 0.00, 0.00, 0.00, 6489.36, 17442.03, 0.000, 0.000, 0.000, 18:54:36.301, 1553986476301
59, 10934.56, 9975.00, 0.00, 0.00, 0.00, 0.00, 6535.54, 18162.80, 0.000, 0.000, 0.000, 18:54:36.301, 1553986476301
60, 10910.11, 9896.64, 0.00, 0.00, 0.00, 0.00, 6542.62, 18569.34, -0.048, -0.164, 1.022, 18:54:36.309, 1553986476309
61, 10940.42, 9909.60, 0.00, 0.00, 0.00, 0.00, 6481.47, 17421.80, 0.000, 0.000, 0.000, 18:54:36.309, 1553986476309
62, 10951.71, 9975.63, 0.00, 0.00, 0.00, 0.00, 6491.24, 17334.09, 0.000, 0.000, 0.000, 18:54:36.317, 1553986476317
63, 10919.59, 9967.33, 0.00, 0.00, 0.00, 0.00, 6527.33, 18022.10, 0.000, 0.000, 0.000, 18:54:36.318, 1553986476318
64, 10887.04, 9887.05, 0.00, 0.00, 0.00, 0.00, 6544.34, 18607.74, 0.000, 0.000, 0.000, 18:54:36.324, 1553986476324
65, 10934.72, 9893.73, 0.00, 0.00, 0.00, 0.00, 6495.66, 17620.80, 0.000, 0.000, 0.000, 18:54:36.324, 1553986476324
66, 10963.02, 9976.79, 0.00, 0.00, 0.00, 0.00, 6491.26, 17240.39, 0.000, 0.000, 0.000, 18:54:36.333, 1553986476333
67, 10937.29, 9990.69, 0.00, 0.00, 0.00, 0.00, 6531.47, 17903.50, 0.000, 0.000, 0.000, 18:54:36.333, 1553986476333
68, 10907.49, 9907.14, 0.00, 0.00, 0.00, 0.00, 6545.02, 18584.33, 0.000, 0.000, 0.000, 18:54:36.339, 1553986476339
69, 10942.09, 9891.43, 0.00, 0.00, 0.00, 0.00, 6508.67, 17854.75, 0.000, 0.000, 0.000, 18:54:36.339, 1553986476339
70, 10981.05, 9973.01, 0.00, 0.00, 0.00, 0.00, 6497.27, 17184.33, -0.052, -0.158, 1.016, 18:54:36.347, 1553986476347
71, 10963.49, 10008.80, 0.00, 0.00, 0.00, 0.00, 6538.91, 17795.27, 0.000, 0.000, 0.000, 18:54:36.354, 1553986476354
72, 10920.48, 9928.82, 0.00, 0.00, 0.00, 0.00, 6536.21, 18512.41, 0.000, 0.000, 0.000, 18:54:36.354, 1553986476354
73, 10907.83, 9872.81, 0.00, 0.00, 0.00, 0.00, 6513.43, 18090.16, 0.000, 0.000, 0.000, 18:54:36.361, 1553986476361
74, 10962.95, 9947.40, 0.00, 0.00, 0.00, 0.00, 6486.68, 17163.01, 0.000, 0.000, 0.000, 18:54:36.362, 1553986476362
75, 10963.82, 9997.06, 0.00, 0.00, 0.00, 0.00, 6523.56, 17670.55, 0.000, 0.000, 0.000, 18:54:36.369, 1553986476369
76, 10920.84, 9944.16, 0.00, 0.00, 0.00, 0.00, 6549.35, 18401.07, 0.000, 0.000, 0.000, 18:54:36.370, 1553986476370
77, 10897.53, 9864.52, 0.00, 0.00, 0.00, 0.00, 6518.17, 18303.60, 0.000, 0.000, 0.000, 18:54:36.378, 1553986476378
78, 10950.79, 9921.04, 0.00, 0.00, 0.00, 0.00, 6473.94, 17191.82, 0.000, 0.000, 0.000, 18:54:36.378, 1553986476378
79, 10946.90, 9985.02, 0.00, 0.00, 0.00, 0.00, 6505.50, 17544.89, 0.000, 0.000, 0.000, 18:54:36.384, 1553986476384
80, 10908.84, 9949.52, 0.00, 0.00, 0.00, 0.00, 6529.68, 18251.49, -0.050, -0.158, 1.014, 18:54:36.385, 1553986476385
81, 10888.83, 9872.61, 0.00, 0.00, 0.00, 0.00, 6521.34, 18461.38, 0.000, 0.000, 0.000, 18:54:36.392, 1553986476392
82, 10926.34, 9896.97, 0.00, 0.00, 0.00, 0.00, 6462.90, 17280.76, 0.000, 0.000, 0.000, 18:54:36.393, 1553986476393
83, 10951.82, 9983.23, 0.00, 0.00, 0.00, 0.00, 6495.69, 17415.50, 0.000, 0.000, 0.000, 18:54:36.400, 1553986476400
84, 10931.30, 9963.67, 0.00, 0.00, 0.00, 0.00, 6519.65, 18108.38, 0.000, 0.000, 0.000, 18:54:36.400, 1553986476400
85, 10907.23, 9890.45, 0.00, 0.00, 0.00, 0.00, 6539.25, 18571.46, 0.000, 0.000, 0.000, 18:54:36.407, 1553986476407
86, 10953.85, 9921.04, 0.00, 0.00, 0.00, 0.00, 6498.61, 17484.23, 0.000, 0.000, 0.000, 18:54:36.414, 1553986476414
87, 10955.46, 9995.99, 0.00, 0.00, 0.00, 0.00, 6515.15, 17325.17, 0.000, 0.000, 0.000, 18:54:36.414, 1553986476414
88, 10939.28, 9991.68, 0.00, 0.00, 0.00, 0.00, 6540.14, 18002.97, 0.000, 0.000, 0.000, 18:54:36.424, 1553986476424
89, 10851.24, 9872.12, 0.00, 0.00, 0.00, 0.00, 6527.22, 18587.49, 0.000, 0.000, 0.000, 18:54:36.424, 1553986476424
90, 10910.49, 9872.03, 0.00, 0.00, 0.00, 0.00, 6482.63, 17665.88, -0.054, -0.158, 1.014, 18:54:36.430, 1553986476430
91, 10966.86, 9965.50, 0.00, 0.00, 0.00, 0.00, 6479.68, 17216.27, 0.000, 0.000, 0.000, 18:54:36.430, 1553986476430
92, 10925.02, 9989.02, 0.00, 0.00, 0.00, 0.00, 6530.71, 17872.54, 0.000, 0.000, 0.000, 18:54:36.437, 1553986476437
93, 10916.50, 9925.29, 0.00, 0.00, 0.00, 0.00, 6559.83, 18585.12, 0.000, 0.000, 0.000, 18:54:36.437, 1553986476437
94, 10922.16, 9884.05, 0.00, 0.00, 0.00, 0.00, 6511.31, 17920.26, 0.000, 0.000, 0.000, 18:54:36.445, 1553986476445
95, 10957.54, 9959.78, 0.00, 0.00, 0.00, 0.00, 6486.45, 17168.06, 0.000, 0.000, 0.000, 18:54:36.445, 1553986476445
96, 10966.91, 9999.03, 0.00, 0.00, 0.00, 0.00, 6522.19, 17747.64, 0.000, 0.000, 0.000, 18:54:36.452, 1553986476452
97, 10945.45, 9945.05, 0.00, 0.00, 0.00, 0.00, 6556.41, 18486.81, 0.000, 0.000, 0.000, 18:54:36.452, 1553986476452
98, 10908.66, 9873.30, 0.00, 0.00, 0.00, 0.00, 6513.90, 18143.65, 0.000, 0.000, 0.000, 18:54:36.460, 1553986476460
99, 10966.46, 9947.51, 0.00, 0.00, 0.00, 0.00, 6477.38, 17164.31, 0.000, 0.000, 0.000, 18:54:36.461, 1553986476461
100, 10954.39, 10004.51, 0.00, 0.00, 0.00, 0.00, 6523.74, 17641.81, -0.048, -0.160, 1.016, 18:54:36.466, 1553986476466
101, 10922.83, 9956.88, 0.00, 0.00, 0.00, 0.00, 6555.07, 18368.22, 0.000, 0.000, 0.000, 18:54:36.475, 1553986476475
102, 10909.42, 9879.87, 0.00, 0.00, 0.00, 0.00, 6530.44, 18361.62, 0.000, 0.000, 0.000, 18:54:36.475, 1553986476475
103, 10963.08, 9937.21, 0.00, 0.00, 0.00, 0.00, 6487.55, 17234.20, 0.000, 0.000, 0.000, 18:54:36.482, 1553986476482
104, 10958.30, 9988.59, 0.00, 0.00, 0.00, 0.00, 6506.12, 17510.40, 0.000, 0.000, 0.000, 18:54:36.483, 1553986476483
105, 10914.00, 9944.69, 0.00, 0.00, 0.00, 0.00, 6519.87, 18207.33, 0.000, 0.000, 0.000, 18:54:36.489, 1553986476489
106, 10882.93, 9864.03, 0.00, 0.00, 0.00, 0.00, 6521.39, 18489.00, 0.000, 0.000, 0.000, 18:54:36.489, 1553986476489
107, 10916.23, 9891.29, 0.00, 0.00, 0.00, 0.00, 6460.73, 17319.70, 0.000, 0.000, 0.000, 18:54:36.497, 1553986476497
108, 10940.78, 9973.55, 0.00, 0.00, 0.00, 0.00, 6491.37, 17375.44, 0.000, 0.000, 0.000, 18:54:36.497, 1553986476497
109, 10916.05, 9960.12, 0.00, 0.00, 0.00, 0.00, 6518.19, 18065.89, 0.000, 0.000, 0.000, 18:54:36.505, 1553986476505
110, 10881.46, 9870.24, 0.00, 0.00, 0.00, 0.00, 6522.86, 18562.63, -0.050, -0.156, 1.014, 18:54:36.505, 1553986476505
111, 10919.23, 9877.44, 0.00, 0.00, 0.00, 0.00, 6463.59, 17504.14, 0.000, 0.000, 0.000, 18:54:36.512, 1553986476512
112, 10938.25, 9956.50, 0.00, 0.00, 0.00, 0.00, 6475.86, 17268.71, 0.000, 0.000, 0.000, 18:54:36.513, 1553986476513
113, 10910.74, 9957.72, 0.00, 0.00, 0.00, 0.00, 6506.28, 17930.55, 0.000, 0.000, 0.000, 18:54:36.519, 1553986476519
114, 10881.79, 9886.20, 0.00, 0.00, 0.00, 0.00, 6529.35, 18573.14, 0.000, 0.000, 0.000, 18:54:36.519, 1553986476519
115, 10916.14, 9890.51, 0.00, 0.00, 0.00, 0.00, 6501.85, 17742.95, 0.000, 0.000, 0.000, 18:54:36.527, 1553986476527
116, 10942.45, 9959.22, 0.00, 0.00, 0.00, 0.00, 6478.94, 17201.54, 0.000, 0.000, 0.000, 18:54:36.534, 1553986476534
117, 10930.25, 9976.79, 0.00, 0.00, 0.00, 0.00, 6515.20, 17827.35, 0.000, 0.000, 0.000, 18:54:36.535, 1553986476535
118, 10893.73, 9911.17, 0.00, 0.00, 0.00, 0.00, 6550.02, 18535.09, 0.000, 0.000, 0.000, 18:54:36.542, 1553986476542
119, 10900.14, 9873.64, 0.00, 0.00, 0.00, 0.00, 6510.57, 17974.02, -0.048, -0.158, 1.022, 18:54:36.542, 1553986476542
120, 10950.43, 9957.34, 0.00, 0.00, 0.00, 0.00, 6490.66, 17182.43, 0.000, 0.000, 0.000, 18:54:36.549, 1553986476549
121, 10943.64, 9997.22, 0.00, 0.00, 0.00, 0.00, 6524.59, 17731.01, 0.000, 0.000, 0.000, 18:54:36.549, 1553986476549
122, 10900.12, 9924.89, 0.00, 0.00, 0.00, 0.00, 6531.92, 18426.24, 0.000, 0.000, 0.000, 18:54:36.557, 1553986476557
123, 10890.66, 9864.96, 0.00, 0.00, 0.00, 0.00, 6504.04, 18179.03, 0.000, 0.000, 0.000, 18:54:36.557, 1553986476557
124, 10939.59, 9933.41, 0.00, 0.00, 0.00, 0.00, 6463.03, 17170.92, 0.000, 0.000, 0.000, 18:54:36.565, 1553986476565
125, 10933.27, 9980.12, 0.00, 0.00, 0.00, 0.00, 6481.94, 17588.86, 0.000, 0.000, 0.000, 18:54:36.565, 1553986476565
126, 10893.03, 9923.68, 0.00, 0.00, 0.00, 0.00, 6493.47, 18275.12, 0.000, 0.000, 0.000, 18:54:36.572, 1553986476572
127, 10879.15, 9857.70, 0.00, 0.00, 0.00, 0.00, 6494.88, 18348.88, 0.000, 0.000, 0.000, 18:54:36.572, 1553986476572
128, 10939.57, 9917.49, 0.00, 0.00, 0.00, 0.00, 6464.24, 17241.76, 0.000, 0.000, 0.000, 18:54:36.581, 1553986476581
129, 10950.79, 9993.98, 0.00, 0.00, 0.00, 0.00, 6509.12, 17491.87, -0.052, -0.158, 1.018, 18:54:36.581, 1553986476581
130, 10913.86, 9964.32, 0.00, 0.00, 0.00, 0.00, 6538.13, 18168.62, 0.000, 0.000, 0.000, 18:54:36.587, 1553986476587
131, 10884.14, 9878.20, 0.00, 0.00, 0.00, 0.00, 6524.21, 18492.11, 0.000, 0.000, 0.000, 18:54:36.587, 1553986476587
132, 10922.63, 9906.92, 0.00, 0.00, 0.00, 0.00, 6472.93, 17381.19, 0.000, 0.000, 0.000, 18:54:36.594, 1553986476594
133, 10953.34, 9993.49, 0.00, 0.00, 0.00, 0.00, 6501.07, 17382.15, 0.000, 0.000, 0.000, 18:54:36.602, 1553986476602
134, 10927.90, 9976.16, 0.00, 0.00, 0.00, 0.00, 6526.22, 18039.11, 0.000, 0.000, 0.000, 18:54:36.602, 1553986476602
135, 10900.36, 9902.20, 0.00, 0.00, 0.00, 0.00, 6549.13, 18568.78, 0.000, 0.000, 0.000, 18:54:36.609, 1553986476609
136, 10933.22, 9915.41, 0.00, 0.00, 0.00, 0.00, 6501.70, 17596.90, 0.000, 0.000, 0.000, 18:54:36.610, 1553986476610
137, 10959.35, 9992.97, 0.00, 0.00, 0.00, 0.00, 6506.70, 17293.32, 0.000, 0.000, 0.000, 18:54:36.617, 1553986476617
138, 10933.98, 9997.06, 0.00, 0.00, 0.00, 0.00, 6533.55, 17933.05, 0.000, 0.000, 0.000, 18:54:36.618, 1553986476618
139, 10894.42, 9909.20, 0.00, 0.00, 0.00, 0.00, 6534.26, 18559.14, -0.050, -0.154, 1.022, 18:54:36.624, 1553986476624
140, 10919.90, 9897.24, 0.00, 0.00, 0.00, 0.00, 6494.28, 17794.87, 0.000, 0.000, 0.000, 18:54:36.624, 1553986476624
141, 10970.15, 9986.63, 0.00, 0.00, 0.00, 0.00, 6489.23, 17217.88, 0.000, 0.000, 0.000, 18:54:36.632, 1553986476632
142, 10953.90, 10011.50, 0.00, 0.00, 0.00, 0.00, 6524.76, 17816.82, 0.000, 0.000, 0.000, 18:54:36.632, 1553986476632
143, 10925.31, 9947.96, 0.00, 0.00, 0.00, 0.00, 6554.89, 18514.26, 0.000, 0.000, 0.000, 18:54:36.640, 1553986476640
144, 10936.53, 9912.73, 0.00, 0.00, 0.00, 0.00, 6532.54, 18049.50, 0.000, 0.000, 0.000, 18:54:36.640, 1553986476640
145, 10960.98, 9971.63, 0.00, 0.00, 0.00, 0.00, 6492.31, 17195.00, 0.000, 0.000, 0.000, 18:54:36.649, 1553986476649
146, 10954.05, 10012.06, 0.00, 0.00, 0.00, 0.00, 6525.57, 17713.58, 0.000, 0.000, 0.000, 18:54:36.649, 1553986476649
147, 10911.85, 9946.71, 0.00, 0.00, 0.00, 0.00, 6538.22, 18404.63, 0.000, 0.000, 0.000, 18:54:36.654, 1553986476654
148, 10898.67, 9876.95, 0.00, 0.00, 0.00, 0.00, 6506.64, 18237.55, 0.000, 0.000, 0.000, 18:54:36.661, 1553986476661
149, 10944.55, 9940.89, 0.00, 0.00, 0.00, 0.00, 6479.79, 17200.90, -0.050, -0.152, 1.022, 18:54:36.661, 1553986476661
150, 10951.08, 10010.50, 0.00, 0.00, 0.00, 0.00, 6528.50, 17596.83, 0.000, 0.000, 0.000, 18:54:36.669, 1553986476669
151, 10927.21, 9975.83, 0.00, 0.00, 0.00, 0.00, 6555.90, 18291.17, 0.000, 0.000, 0.000, 18:54:36.670, 1553986476670
152, 10898.75, 9894.63, 0.00, 0.00, 0.00, 0.00, 6513.23, 18422.49, 0.000, 0.000, 0.000, 18:54:36.677, 1553986476677
153, 10939.57, 9943.64, 0.00, 0.00, 0.00, 0.00, 6504.71, 17316.52, 0.000, 0.000, 0.000, 18:54:36.678, 1553986476678
154, 10965.45, 10009.25, 0.00, 0.00, 0.00, 0.00, 6537.50, 17494.84, 0.000, 0.000, 0.000, 18:54:36.684, 1553986476684
155, 10929.35, 9979.58, 0.00, 0.00, 0.00, 0.00, 6560.66, 18151.14, 0.000, 0.000, 0.000, 18:54:36.684, 1553986476684
156, 10898.40, 9892.79, 0.00, 0.00, 0.00, 0.00, 6561.09, 18536.59, 0.000, 0.000, 0.000, 18:54:36.693, 1553986476693
157, 10940.58, 9923.19, 0.00, 0.00, 0.00, 0.00, 6511.78, 17465.16, 0.000, 0.000, 0.000, 18:54:36.693, 1553986476693
158, 10959.44, 9993.58, 0.00, 0.00, 0.00, 0.00, 6517.59, 17370.08, 0.000, 0.000, 0.000, 18:54:36.700, 1553986476700
159, 10928.01, 9987.94, 0.00, 0.00, 0.00, 0.00, 6546.49, 18022.01, -0.050, -0.152, 1.024, 18:54:36.700, 1553986476700
160, 10892.70, 9901.24, 0.00, 0.00, 0.00, 0.00, 6556.50, 18579.13, 0.000, 0.000, 0.000, 18:54:36.707, 1553986476707
161, 10926.63, 9892.79, 0.00, 0.00, 0.00, 0.00, 6492.71, 17635.93, 0.000, 0.000, 0.000, 18:54:36.707, 1553986476707
162, 10958.14, 9977.17, 0.00, 0.00, 0.00, 0.00, 6492.13, 17254.92, 0.000, 0.000, 0.000, 18:54:36.714, 1553986476714
163, 10934.99, 9995.32, 0.00, 0.00, 0.00, 0.00, 6543.70, 17902.36, 0.000, 0.000, 0.000, 18:54:36.722, 1553986476722
164, 10889.90, 9917.92, 0.00, 0.00, 0.00, 0.00, 6557.55, 18556.57, 0.000, 0.000, 0.000, 18:54:36.722, 1553986476722
165, 10908.92, 9898.02, 0.00, 0.00, 0.00, 0.00, 6522.37, 17874.55, 0.000, 0.000, 0.000, 18:54:36.730, 1553986476730
166, 10922.13, 9951.24, 0.00, 0.00, 0.00, 0.00, 6488.11, 17192.51, 0.000, 0.000, 0.000, 18:54:36.730, 1553986476730
167, 10940.46, 9999.46, 0.00, 0.00, 0.00, 0.00, 6534.47, 17783.90, 0.000, 0.000, 0.000, 18:54:36.737, 1553986476737
168, 10918.11, 9931.51, 0.00, 0.00, 0.00, 0.00, 6549.51, 18473.09, 0.000, 0.000, 0.000, 18:54:36.737, 1553986476737
169, 10915.52, 9877.33, 0.00, 0.00, 0.00, 0.00, 6513.28, 18078.80, -0.042, -0.154, 1.020, 18:54:36.745, 1553986476745
170, 10952.44, 9947.82, 0.00, 0.00, 0.00, 0.00, 6488.38, 17179.68, 0.000, 0.000, 0.000, 18:54:36.745, 1553986476745
171, 10948.84, 9996.66, 0.00, 0.00, 0.00, 0.00, 6525.10, 17668.67, 0.000, 0.000, 0.000, 18:54:36.752, 1553986476752
172, 10918.18, 9954.59, 0.00, 0.00, 0.00, 0.00, 6560.15, 18366.41, 0.000, 0.000, 0.000, 18:54:36.752, 1553986476752
173, 10914.98, 9901.38, 0.00, 0.00, 0.00, 0.00, 6558.43, 18312.87, 0.000, 0.000, 0.000, 18:54:36.761, 1553986476761
174, 10960.58, 9961.48, 0.00, 0.00, 0.00, 0.00, 6499.95, 17247.01, 0.000, 0.000, 0.000, 18:54:36.761, 1553986476761
175, 10962.23, 10019.01, 0.00, 0.00, 0.00, 0.00, 6527.02, 17570.06, 0.000, 0.000, 0.000, 18:54:36.767, 1553986476767
176, 10931.39, 9974.02, 0.00, 0.00, 0.00, 0.00, 6545.37, 18240.16, 0.000, 0.000, 0.000, 18:54:36.767, 1553986476767
177, 10914.67, 9899.95, 0.00, 0.00, 0.00, 0.00, 6547.85, 18454.58, 0.000, 0.000, 0.000, 18:54:36.774, 1553986476774
178, 10952.76, 9936.24, 0.00, 0.00, 0.00, 0.00, 6498.39, 17345.69, 0.000, 0.000, 0.000, 18:54:36.782, 1553986476782
179, 10950.43, 10004.46, 0.00, 0.00, 0.00, 0.00, 6525.48, 17455.62, -0.042, -0.160, 1.030, 18:54:36.782, 1553986476782
180, 10937.51, 9998.34, 0.00, 0.00, 0.00, 0.00, 6562.58, 18121.59, 0.000, 0.000, 0.000, 18:54:36.790, 1553986476790
181, 10921.15, 9928.33, 0.00, 0.00, 0.00, 0.00, 6581.96, 18566.14, 0.000, 0.000, 0.000, 18:54:36.791, 1553986476791
182, 10954.39, 9941.43, 0.00, 0.00, 0.00, 0.00, 6525.57, 17525.13, 0.000, 0.000, 0.000, 18:54:36.797, 1553986476797
183, 10973.92, 10022.92, 0.00, 0.00, 0.00, 0.00, 6535.25, 17369.90, 0.000, 0.000, 0.000, 18:54:36.797, 1553986476797
184, 10959.95, 10027.82, 0.00, 0.00, 0.00, 0.00, 6565.89, 18018.99, 0.000, 0.000, 0.000, 18:54:36.805, 1553986476805
185, 10924.21, 9943.64, 0.00, 0.00, 0.00, 0.00, 6581.78, 18594.88, 0.000, 0.000, 0.000, 18:54:36.805, 1553986476805
186, 10942.59, 9933.16, 0.00, 0.00, 0.00, 0.00, 6530.26, 17727.77, 0.000, 0.000, 0.000, 18:54:36.813, 1553986476813
187, 10957.07, 9999.39, 0.00, 0.00, 0.00, 0.00, 6515.00, 17272.15, 0.000, 0.000, 0.000, 18:54:36.813, 1553986476813
188, 10955.35, 10029.32, 0.00, 0.00, 0.00, 0.00, 6565.91, 17897.98, -0.044, -0.160, 1.020, 18:54:36.820, 1553986476820
189, 10927.63, 9951.91, 0.00, 0.00, 0.00, 0.00, 6588.09, 18549.73, 0.000, 0.000, 0.000, 18:54:36.820, 1553986476820
190, 10935.57, 9917.87, 0.00, 0.00, 0.00, 0.00, 6544.90, 17940.43, 0.000, 0.000, 0.000, 18:54:36.828, 1553986476828
191, 10967.51, 9992.59, 0.00, 0.00, 0.00, 0.00, 6508.96, 17222.82, 0.000, 0.000, 0.000, 18:54:36.829, 1553986476829
192, 10969.74, 10044.72, 0.00, 0.00, 0.00, 0.00, 6559.34, 17793.02, 0.000, 0.000, 0.000, 18:54:36.835, 1553986476835
193, 10935.19, 9973.86, 0.00, 0.00, 0.00, 0.00, 6581.98, 18465.63, 0.000, 0.000, 0.000, 18:54:36.835, 1553986476835
194, 10926.36, 9913.42, 0.00, 0.00, 0.00, 0.00, 6550.56, 18162.74, 0.000, 0.000, 0.000, 18:54:36.842, 1553986476842
195, 10965.63, 9984.61, 0.00, 0.00, 0.00, 0.00, 6509.52, 17229.73, 0.000, 0.000, 0.000, 18:54:36.849, 1553986476849
196, 10968.27, 10035.17, 0.00, 0.00, 0.00, 0.00, 6541.57, 17672.07, 0.000, 0.000, 0.000, 18:54:36.849, 1553986476849
197, 10944.55, 9994.20, 0.00, 0.00, 0.00, 0.00, 6587.46, 18361.80, 0.000, 0.000, 0.000, 18:54:36.857, 1553986476857
198, 10920.86, 9909.40, 0.00, 0.00, 0.00, 0.00, 6561.11, 18351.41, -0.044, -0.160, 1.024, 18:54:36.857, 1553986476857
199, 10959.46, 9961.14, 0.00, 0.00, 0.00, 0.00, 6505.25, 17281.88, 0.000, 0.000, 0.000, 18:54:36.865, 1553986476865
200, 10969.77, 10031.10, 0.00, 0.00, 0.00, 0.00, 6533.06, 17554.34, 0.000, 0.000, 0.000, 18:54:36.865, 1553986476865
201, 10952.24, 10007.46, 0.00, 0.00, 0.00, 0.00, 6565.58, 18216.20, 0.000, 0.000, 0.000, 18:54:36.872, 1553986476872
202, 10926.61, 9931.53, 0.00, 0.00, 0.00, 0.00, 6578.74, 18498.06, 0.000, 0.000, 0.000, 18:54:36.872, 1553986476872
203, 10961.54, 9962.93, 0.00, 0.00, 0.00, 0.00, 6529.79, 17416.19, 0.000, 0.000, 0.000, 18:54:36.880, 1553986476880
204, 10982.26, 10046.37, 0.00, 0.00, 0.00, 0.00, 6560.82, 17470.37, 0.000, 0.000, 0.000, 18:54:36.880, 1553986476880
205, 10956.27, 10025.20, 0.00, 0.00, 0.00, 0.00, 6586.41, 18112.76, 0.000, 0.000, 0.000, 18:54:36.888, 1553986476888
206, 10912.30, 9917.36, 0.00, 0.00, 0.00, 0.00, 6571.48, 18559.61, 0.000, 0.000, 0.000, 18:54:36.889, 1553986476889
207, 10948.60, 9928.51, 0.00, 0.00, 0.00, 0.00, 6514.39, 17567.44, 0.000, 0.000, 0.000, 18:54:36.896, 1553986476896
208, 10967.26, 10014.05, 0.00, 0.00, 0.00, 0.00, 6519.98, 17340.28, -0.046, -0.156, 1.016, 18:54:36.896, 1553986476896
209, 10950.95, 10022.34, 0.00, 0.00, 0.00, 0.00, 6556.12, 17974.33, 0.000, 0.000, 0.000, 18:54:36.902, 1553986476902
210, 10918.67, 9941.09, 0.00, 0.00, 0.00, 0.00, 6578.34, 18572.64, 0.000, 0.000, 0.000, 18:54:36.909, 1553986476909
211, 10951.24, 9937.16, 0.00, 0.00, 0.00, 0.00, 6546.07, 17794.76, 0.000, 0.000, 0.000, 18:54:36.909, 1553986476909
212, 10982.91, 10019.82, 0.00, 0.00, 0.00, 0.00, 6539.07, 17286.64, 0.000, 0.000, 0.000, 18:54:36.917, 1553986476917
213, 10963.96, 10036.89, 0.00, 0.00, 0.00, 0.00, 6575.61, 17878.51, 0.000, 0.000, 0.000, 18:54:36.918, 1553986476918
214, 10928.64, 9963.58, 0.00, 0.00, 0.00, 0.00, 6604.56, 18532.28, 0.000, 0.000, 0.000, 18:54:36.924, 1553986476924
215, 10935.57, 9918.65, 0.00, 0.00, 0.00, 0.00, 6557.87, 18002.92, 0.000, 0.000, 0.000, 18:54:36.925, 1553986476925
216, 10981.14, 10003.79, 0.00, 0.00, 0.00, 0.00, 6532.21, 17232.32, 0.000, 0.000, 0.000, 18:54:36.932, 1553986476932
217, 10975.24, 10056.90, 0.00, 0.00, 0.00, 0.00, 6576.75, 17776.81, 0.000, 0.000, 0.000, 18:54:36.932, 1553986476932
218, 10936.57, 9977.17, 0.00, 0.00, 0.00, 0.00, 6574.27, 18432.05, -0.056, -0.158, 1.016, 18:54:36.940, 1553986476940
219, 10939.50, 9919.23, 0.00, 0.00, 0.00, 0.00, 6563.14, 18222.28, 0.000, 0.000, 0.000, 18:54:36.940, 1553986476940
220, 10975.31, 9983.36, 0.00, 0.00, 0.00, 0.00, 6523.04, 17244.91, 0.000, 0.000, 0.000, 18:54:36.948, 1553986476948
221, 10972.69, 10033.76, 0.00, 0.00, 0.00, 0.00, 6556.30, 17646.84, 0.000, 0.000, 0.000, 18:54:36.948, 1553986476948
222, 10935.23, 9980.50, 0.00, 0.00, 0.00, 0.00, 6576.20, 18311.17, 0.000, 0.000, 0.000, 18:54:36.954, 1553986476954
223, 10921.08, 9908.39, 0.00, 0.00, 0.00, 0.00, 6570.99, 18389.32, 0.000, 0.000, 0.000, 18:54:36.955, 1553986476955
224, 10957.25, 9957.81, 0.00, 0.00, 0.00, 0.00, 6517.23, 17309.37, 0.000, 0.000, 0.000, 18:54:36.962, 1553986476962
225, 10961.14, 10029.47, 0.00, 0.00, 0.00, 0.00, 6544.55, 17535.28, 0.000, 0.000, 0.000, 18:54:36.969, 1553986476969
226, 10945.72, 10008.49, 0.00, 0.00, 0.00, 0.00, 6575.95, 18193.98, 0.000, 0.000, 0.000, 18:54:36.970, 1553986476970
227, 10928.39, 9926.01, 0.00, 0.00, 0.00, 0.00, 6574.99, 18516.65, 0.000, 0.000, 0.000, 18:54:36.977, 1553986476977
228, 10967.75, 9958.04, 0.00, 0.00, 0.00, 0.00, 6522.53, 17450.63, -0.052, -0.158, 1.022, 18:54:36.978, 1553986476978
229, 10980.92, 10037.70, 0.00, 0.00, 0.00, 0.00, 6543.18, 17432.01, 0.000, 0.000, 0.000, 18:54:36.984, 1553986476984
230, 10958.70, 10032.07, 0.00, 0.00, 0.00, 0.00, 6593.50, 18084.42, 0.000, 0.000, 0.000, 18:54:36.985, 1553986476985
231, 10926.09, 9934.14, 0.00, 0.00, 0.00, 0.00, 6590.39, 18583.87, 0.000, 0.000, 0.000, 18:54:36.992, 1553986476992
232, 10953.49, 9944.92, 0.00, 0.00, 0.00, 0.00, 6542.00, 17637.83, 0.000, 0.000, 0.000, 18:54:36.992, 1553986476992
233, 10978.80, 10032.78, 0.00, 0.00, 0.00, 0.00, 6543.56, 17334.87, 0.000, 0.000, 0.000, 18:54:37.000, 1553986477000
234, 10972.54, 10049.99, 0.00, 0.00, 0.00, 0.00, 6580.20, 17970.87, 0.000, 0.000, 0.000, 18:54:37.001, 1553986477001
235, 10932.28, 9956.90, 0.00, 0.00, 0.00, 0.00, 6583.21, 18585.12, 0.000, 0.000, 0.000, 18:54:37.008, 1553986477008
236, 10940.24, 9921.76, 0.00, 0.00, 0.00, 0.00, 6526.11, 17836.27, 0.000, 0.000, 0.000, 18:54:37.008, 1553986477008
237, 10982.22, 10014.01, 0.00, 0.00, 0.00, 0.00, 6529.30, 17258.74, 0.000, 0.000, 0.000, 18:54:37.015, 1553986477015
238, 10981.41, 10049.90, 0.00, 0.00, 0.00, 0.00, 6569.02, 17856.99, -0.052, -0.156, 1.024, 18:54:37.015, 1553986477015
239, 10929.62, 9961.79, 0.00, 0.00, 0.00, 0.00, 6587.04, 18517.55, 0.000, 0.000, 0.000, 18:54:37.022, 1553986477022
240, 10925.46, 9913.51, 0.00, 0.00, 0.00, 0.00, 6563.77, 18074.60, 0.000, 0.000, 0.000, 18:54:37.030, 1553986477030
241, 10975.80, 9997.11, 0.00, 0.00, 0.00, 0.00, 6529.86, 17232.43, 0.000, 0.000, 0.000, 18:54:37.030, 1553986477030
242, 10969.97, 10048.41, 0.00, 0.00, 0.00, 0.00, 6576.17, 17741.47, 0.000, 0.000, 0.000, 18:54:37.037, 1553986477037
243, 10929.22, 9983.94, 0.00, 0.00, 0.00, 0.00, 6591.28, 18414.37, 0.000, 0.000, 0.000, 18:54:37.037, 1553986477037
244, 10941.80, 9920.13, 0.00, 0.00, 0.00, 0.00, 6559.10, 18278.27, 0.000, 0.000, 0.000, 18:54:37.045, 1553986477045
245, 10971.78, 9966.08, 0.00, 0.00, 0.00, 0.00, 6488.11, 17236.66, 0.000, 0.000, 0.000, 18:54:37.045, 1553986477045
246, 10965.90, 10026.79, 0.00, 0.00, 0.00, 0.00, 6513.95, 17598.38, 0.000, 0.000, 0.000, 18:54:37.052, 1553986477052
247, 10953.45, 10004.28, 0.00, 0.00, 0.00, 0.00, 6572.96, 18288.13, -0.048, -0.154, 1.022, 18:54:37.053, 1553986477053
248, 10929.29, 9921.67, 0.00, 0.00, 0.00, 0.00, 6579.91, 18445.66, 0.000, 0.000, 0.000, 18:54:37.060, 1553986477060
249, 10967.26, 9962.31, 0.00, 0.00, 0.00, 0.00, 6524.83, 17347.08, 0.000, 0.000, 0.000, 18:54:37.061, 1553986477061
250, 10973.10, 10037.70, 0.00, 0.00, 0.00, 0.00, 6549.26, 17510.58, 0.000, 0.000, 0.000, 18:54:37.067, 1553986477067
251, 10955.22, 10013.27, 0.00, 0.00, 0.00, 0.00, 6576.98, 18162.83, 0.000, 0.000, 0.000, 18:54:37.067, 1553986477067
252, 10925.55, 9919.12, 0.00, 0.00, 0.00, 0.00, 6568.82, 18540.68, 0.000, 0.000, 0.000, 18:54:37.075, 1553986477075
253, 10948.96, 9938.39, 0.00, 0.00, 0.00, 0.00, 6510.77, 17486.64, 0.000, 0.000, 0.000, 18:54:37.075, 1553986477075
254, 10970.42, 10019.08, 0.00, 0.00, 0.00, 0.00, 6524.05, 17385.95, 0.000, 0.000, 0.000, 18:54:37.082, 1553986477082
255, 10966.41, 10029.14, 0.00, 0.00, 0.00, 0.00, 6571.61, 18043.74, 0.000, 0.000, 0.000, 18:54:37.082, 1553986477082
0, 10933.04, 9944.72, 0.00, 0.00, 0.00, 0.00, 6587.08, 18593.05, 0.000, 0.000, 0.000, 18:54:37.090, 1553986477090
1, 10960.94, 9947.02, 0.00, 0.00, 0.00, 0.00, 6545.08, 17705.58, -0.050, -0.156, 1.026, 18:54:37.097, 1553986477097
2, 10978.26, 10021.65, 0.00, 0.00, 0.00, 0.00, 6531.58, 17307.83, 0.000, 0.000, 0.000, 18:54:37.097, 1553986477097
3, 10964.89, 10034.23, 0.00, 0.00, 0.00, 0.00, 6561.71, 17922.77, 0.000, 0.000, 0.000, 18:54:37.105, 1553986477105
4, 10929.96, 9948.29, 0.00, 0.00, 0.00, 0.00, 6575.28, 18555.10, 0.000, 0.000, 0.000, 18:54:37.106, 1553986477106
5, 10951.66, 9927.17, 0.00, 0.00, 0.00, 0.00, 6536.03, 17903.10, 0.000, 0.000, 0.000, 18:54:37.113, 1553986477113
6, 10985.52, 10011.21, 0.00, 0.00, 0.00, 0.00, 6512.87, 17245.85, 0.000, 0.000, 0.000, 18:54:37.113, 1553986477113
7, 10980.14, 10042.55, 0.00, 0.00, 0.00, 0.00, 6548.03, 17808.21, 0.000, 0.000, 0.000, 18:54:37.119, 1553986477119
8, 10934.90, 9962.53, 0.00, 0.00, 0.00, 0.00, 6567.57, 18477.38, 0.000, 0.000, 0.000, 18:54:37.119, 1553986477119
