%OpenBCI Raw EEG Data
%Number of channels = 8
%Sample Rate = 250.0 Hz
%First Column = SampleIndex
%Last Column = Timestamp 
%Other Columns = EEG data in microvolts followed by Accel Data (in G) interleaved with Aux Data
0, 0.00, 0.00, 0.00, 0.00, 0.00, 0.00, 0.00, 0.00, 0.104, 0.038, 1.010, 16:43:47.138, 1552855427138
1, 31459.28, 47079.28, 1138.51, 26491.60, 28392.66, 19195.05, 70959.16, 21722.90, 0.000, 0.000, 0.000, 16:43:47.625, 1552855427625
2, 31430.04, 47038.64, 1071.56, 26480.09, 28327.84, 19152.67, 70938.69, 21636.02, 0.000, 0.000, 0.000, 16:43:47.625, 1552855427625
3, 31484.46, 47027.33, 1165.78, 26440.97, 28383.43, 19218.32, 70908.49, 21835.20, 0.000, 0.000, 0.000, 16:43:47.626, 1552855427626
4, 31513.95, 47062.51, 1235.90, 26447.54, 28419.48, 19209.29, 70864.95, 21778.82, 0.000, 0.000, 0.000, 16:43:47.626, 1552855427626
5, 31485.25, 47099.08, 1174.20, 26502.82, 28418.68, 19204.55, 70975.52, 21773.24, 0.000, 0.000, 0.000, 16:43:47.626, 1552855427626
6, 31442.55, 47061.75, 1080.17, 26495.02, 28340.42, 19150.77, 70967.16, 21661.14, 0.000, 0.000, 0.000, 16:43:47.626, 1552855427626
7, 31493.43, 47040.54, 1155.43, 26453.00, 28350.55, 19144.43, 70889.41, 21702.76, 0.000, 0.000, 0.000, 16:43:47.626, 1552855427626
8, 31515.22, 47053.30, 1231.13, 26431.59, 28402.23, 19171.83, 70849.64, 21805.71, 0.102, 0.040, 1.010, 16:43:47.626, 1552855427626
9, 31488.40, 47088.84, 1185.04, 26480.47, 28429.32, 19263.04, 70944.03, 21817.29, 0.000, 0.000, 0.000, 16:43:47.626, 1552855427626
10, 31472.48, 47092.69, 1108.71, 26516.90, 28377.21, 19214.77, 71005.25, 21728.46, 0.000, 0.000, 0.000, 16:43:47.626, 1552855427626
11, 31484.98, 47040.05, 1141.46, 26459.01, 28353.88, 19186.58, 70926.93, 21790.20, 0.000, 0.000, 0.000, 16:43:47.626, 1552855427626
12, 31540.08, 47069.13, 1254.09, 26452.78, 28428.02, 19238.21, 70889.74, 21882.31, 0.000, 0.000, 0.000, 16:43:47.626, 1552855427626
13, 31518.64, 47102.05, 1225.79, 26490.75, 28436.13, 19224.04, 70945.35, 21846.77, 0.000, 0.000, 0.000, 16:43:47.626, 1552855427626
14, 31449.15, 47066.09, 1100.98, 26493.77, 28329.72, 19117.45, 70941.73, 21607.88, 0.000, 0.000, 0.000, 16:43:47.626, 1552855427626
15, 31485.09, 47048.77, 1134.37, 26477.41, 28359.83, 19207.10, 70946.45, 21765.08, 0.000, 0.000, 0.000, 16:43:47.626, 1552855427626
16, 31526.44, 47045.93, 1232.48, 26435.16, 28388.97, 19192.12, 70846.60, 21770.84, 0.000, 0.000, 0.000, 16:43:47.626, 1552855427626
17, 31515.60, 47083.34, 1226.91, 26466.14, 28406.67, 19183.52, 70891.30, 21765.46, 0.104, 0.036, 1.016, 16:43:47.626, 1552855427626
18, 31471.08, 47086.94, 1126.59, 26507.20, 28375.58, 19202.34, 70977.09, 21704.17, 0.000, 0.000, 0.000, 16:43:47.626, 1552855427626
19, 31465.78, 47035.94, 1108.98, 26468.96, 28300.75, 19092.93, 70877.76, 21570.46, 0.000, 0.000, 0.000, 16:43:47.626, 1552855427626
20, 31532.16, 47056.79, 1230.15, 26451.08, 28405.09, 19202.09, 70885.56, 21892.77, 0.000, 0.000, 0.000, 16:43:47.626, 1552855427626
21, 31520.50, 47083.99, 1238.09, 26465.65, 28453.84, 19282.96, 70911.89, 21930.99, 0.000, 0.000, 0.000, 16:43:47.626, 1552855427626
22, 31466.74, 47083.79, 1133.86, 26497.28, 28377.26, 19189.51, 70940.39, 21686.78, 0.000, 0.000, 0.000, 16:43:47.627, 1552855427627
23, 31467.21, 47053.19, 1100.51, 26482.70, 28317.49, 19120.55, 70917.41, 21645.00, 0.000, 0.000, 0.000, 16:43:47.627, 1552855427627
24, 31525.59, 47048.81, 1207.24, 26446.56, 28388.08, 19216.13, 70876.66, 21838.75, 0.000, 0.000, 0.000, 16:43:47.627, 1552855427627
25, 31539.05, 47087.03, 1251.43, 26459.05, 28434.05, 19198.43, 70904.67, 21930.14, 0.000, 0.000, 0.000, 16:43:47.627, 1552855427627
26, 31479.26, 47085.85, 1149.73, 26483.80, 28373.17, 19161.93, 70932.27, 21699.43, 0.000, 0.000, 0.000, 16:43:47.627, 1552855427627
27, 31458.49, 47054.46, 1087.14, 26481.09, 28325.94, 19160.79, 70934.89, 21634.95, 0.100, 0.038, 1.008, 16:43:47.627, 1552855427627
28, 31527.71, 47058.09, 1195.59, 26457.00, 28387.83, 19203.93, 70918.66, 21886.20, 0.000, 0.000, 0.000, 16:43:47.627, 1552855427627
29, 31541.02, 47079.50, 1253.96, 26449.91, 28410.92, 19162.51, 70866.00, 21841.39, 0.000, 0.000, 0.000, 16:43:47.627, 1552855427627
30, 31499.60, 47098.54, 1182.85, 26492.85, 28379.74, 19152.05, 70895.71, 21629.45, 0.000, 0.000, 0.000, 16:43:47.627, 1552855427627
31, 31471.90, 47080.13, 1104.02, 26509.44, 28348.85, 19184.26, 70943.49, 21603.29, 0.000, 0.000, 0.000, 16:43:47.627, 1552855427627
32, 31515.94, 47061.66, 1176.01, 26472.60, 28397.73, 19246.77, 70939.61, 21860.68, 0.000, 0.000, 0.000, 16:43:47.627, 1552855427627
33, 31543.45, 47079.81, 1255.63, 26457.33, 28451.06, 19253.57, 70908.49, 21969.17, 0.000, 0.000, 0.000, 16:43:47.627, 1552855427627
34, 31510.77, 47105.81, 1200.65, 26494.66, 28417.25, 19183.41, 70933.33, 21784.37, 0.000, 0.000, 0.000, 16:43:47.627, 1552855427627
35, 31472.66, 47093.63, 1110.05, 26521.57, 28366.08, 19191.01, 70971.68, 21657.23, 0.000, 0.000, 0.000, 16:43:47.627, 1552855427627
36, 31518.84, 47080.55, 1170.14, 26499.85, 28386.67, 19203.63, 70951.72, 21820.44, 0.000, 0.000, 0.000, 16:43:47.627, 1552855427627
37, 31564.08, 47098.66, 1268.98, 26479.51, 28439.71, 19213.98, 70901.61, 21907.82, 0.102, 0.040, 1.010, 16:43:47.627, 1552855427627
38, 31532.46, 47118.48, 1228.18, 26503.60, 28436.54, 19195.19, 70936.41, 21825.65, 0.000, 0.000, 0.000, 16:43:47.627, 1552855427627
39, 31487.66, 47110.61, 1122.73, 26530.76, 28372.92, 19161.68, 70986.79, 21685.79, 0.000, 0.000, 0.000, 16:43:47.627, 1552855427627
40, 31487.30, 47053.64, 1120.09, 26476.91, 28327.48, 19141.92, 70886.52, 21628.73, 0.000, 0.000, 0.000, 16:43:47.627, 1552855427627
41, 31552.24, 47078.02, 1240.19, 26460.40, 28411.73, 19204.60, 70874.01, 21851.98, 0.000, 0.000, 0.000, 16:43:47.627, 1552855427627
42, 31539.38, 47114.68, 1235.05, 26488.49, 28447.33, 19238.79, 70946.06, 21907.08, 0.000, 0.000, 0.000, 16:43:47.627, 1552855427627
43, 31487.59, 47105.81, 1124.87, 26511.58, 28349.92, 19105.78, 70960.38, 21693.91, 0.000, 0.000, 0.000, 16:43:47.628, 1552855427628
44, 31496.49, 47066.16, 1112.29, 26483.82, 28313.63, 19114.54, 70911.66, 21651.38, 0.000, 0.000, 0.000, 16:43:47.628, 1552855427628
45, 31555.23, 47072.93, 1230.98, 26456.93, 28401.94, 19256.54, 70867.39, 21815.48, 0.000, 0.000, 0.000, 16:43:47.628, 1552855427628
46, 31535.72, 47094.63, 1237.71, 26464.26, 28419.33, 19226.32, 70882.19, 21844.16, 0.000, 0.000, 0.000, 16:43:47.628, 1552855427628
47, 31492.36, 47105.76, 1142.35, 26506.60, 28358.75, 19134.17, 70952.17, 21717.76, 0.102, 0.042, 1.014, 16:43:47.628, 1552855427628
48, 31497.32, 47083.90, 1114.82, 26507.40, 28338.50, 19180.05, 70960.10, 21722.27, 0.000, 0.000, 0.000, 16:43:47.628, 1552855427628
49, 31546.76, 47067.99, 1213.83, 26459.99, 28369.37, 19192.55, 70865.84, 21789.02, 0.000, 0.000, 0.000, 16:43:47.628, 1552855427628
50, 31543.92, 47085.98, 1245.98, 26453.76, 28394.94, 19185.73, 70843.23, 21793.04, 0.000, 0.000, 0.000, 16:43:47.628, 1552855427628
51, 31503.98, 47108.73, 1165.11, 26501.21, 28359.98, 19114.99, 70931.23, 21743.69, 0.000, 0.000, 0.000, 16:43:47.628, 1552855427628
52, 31491.77, 47088.44, 1110.50, 26511.65, 28311.63, 19094.40, 70926.84, 21590.73, 0.000, 0.000, 0.000, 16:43:47.628, 1552855427628
53, 31542.65, 47074.25, 1199.35, 26472.58, 28379.74, 19220.96, 70896.80, 21814.38, 0.000, 0.000, 0.000, 16:43:47.628, 1552855427628
54, 31569.47, 47111.46, 1273.54, 26480.18, 28450.98, 19263.13, 70911.20, 21965.19, 0.000, 0.000, 0.000, 16:43:47.628, 1552855427628
55, 31523.69, 47125.01, 1198.86, 26514.29, 28394.52, 19148.69, 70935.70, 21779.94, 0.000, 0.000, 0.000, 16:43:47.628, 1552855427628
56, 31496.96, 47106.61, 1120.11, 26530.98, 28352.11, 19174.24, 70971.68, 21707.14, 0.000, 0.000, 0.000, 16:43:47.628, 1552855427628
57, 31551.61, 47093.74, 1200.60, 26502.98, 28381.93, 19201.51, 70922.62, 21811.35, 0.098, 0.046, 1.016, 16:43:47.628, 1552855427628
58, 31571.03, 47099.24, 1273.51, 26476.22, 28420.35, 19215.19, 70850.98, 21845.57, 0.000, 0.000, 0.000, 16:43:47.628, 1552855427628
59, 31528.21, 47116.67, 1214.10, 26505.10, 28394.22, 19151.33, 70891.98, 21750.64, 0.000, 0.000, 0.000, 16:43:47.628, 1552855427628
60, 31499.06, 47113.39, 1125.75, 26537.20, 28349.37, 19140.80, 70971.48, 21680.59, 0.000, 0.000, 0.000, 16:43:47.628, 1552855427628
61, 31523.29, 47072.28, 1157.89, 26489.16, 28336.87, 19136.33, 70906.46, 21761.12, 0.000, 0.000, 0.000, 16:43:47.628, 1552855427628
62, 31561.20, 47083.14, 1251.00, 26462.30, 28416.29, 19242.97, 70869.35, 21910.23, 0.000, 0.000, 0.000, 16:43:47.628, 1552855427628
63, 31540.50, 47111.35, 1225.64, 26495.49, 28401.51, 19200.44, 70868.46, 21734.37, 0.000, 0.000, 0.000, 16:43:47.628, 1552855427628
64, 31481.89, 47088.93, 1108.38, 26511.38, 28306.25, 19058.04, 70901.32, 21584.12, 0.000, 0.000, 0.000, 16:43:47.629, 1552855427629
65, 31512.96, 47067.16, 1136.12, 26493.25, 28303.99, 19100.59, 70866.72, 21581.59, 0.000, 0.000, 0.000, 16:43:47.629, 1552855427629
66, 31567.32, 47079.39, 1246.91, 26463.71, 28406.12, 19246.77, 70855.81, 21880.32, 0.000, 0.000, 0.000, 16:43:47.629, 1552855427629
67, 31565.67, 47127.00, 1254.92, 26499.42, 28447.24, 19234.19, 70945.73, 21978.78, 0.104, 0.044, 1.012, 16:43:47.629, 1552855427629
68, 31500.13, 47106.10, 1136.09, 26517.04, 28345.95, 19125.81, 70944.37, 21702.78, 0.000, 0.000, 0.000, 16:43:47.629, 1552855427629
69, 31496.15, 47061.35, 1113.32, 26485.27, 28298.29, 19100.48, 70894.55, 21659.29, 0.000, 0.000, 0.000, 16:43:47.629, 1552855427629
70, 31549.66, 47063.25, 1225.84, 26448.55, 28359.80, 19137.45, 70825.66, 21774.71, 0.000, 0.000, 0.000, 16:43:47.629, 1552855427629
71, 31556.10, 47105.23, 1257.53, 26476.69, 28423.73, 19204.91, 70865.47, 21847.85, 0.000, 0.000, 0.000, 16:43:47.629, 1552855427629
72, 31511.31, 47115.48, 1161.64, 26517.95, 28364.52, 19131.82, 70931.85, 21721.85, 0.000, 0.000, 0.000, 16:43:47.629, 1552855427629
73, 31510.66, 47092.91, 1127.40, 26517.04, 28322.97, 19127.42, 70929.70, 21693.82, 0.000, 0.000, 0.000, 16:43:47.629, 1552855427629
74, 31550.22, 47069.87, 1216.78, 26459.61, 28352.25, 19140.18, 70838.24, 21795.16, 0.000, 0.000, 0.000, 16:43:47.629, 1552855427629
75, 31546.16, 47087.19, 1251.65, 26452.91, 28392.88, 19160.90, 70831.20, 21851.91, 0.000, 0.000, 0.000, 16:43:47.629, 1552855427629
76, 31518.80, 47122.97, 1182.76, 26514.42, 28372.74, 19130.12, 70933.77, 21757.05, 0.000, 0.000, 0.000, 16:43:47.629, 1552855427629
77, 31494.86, 47091.39, 1112.58, 26512.50, 28312.46, 19111.39, 70933.77, 21684.90, 0.102, 0.044, 1.010, 16:43:47.629, 1552855427629
78, 31551.90, 47075.32, 1203.48, 26471.19, 28353.59, 19187.94, 70846.16, 21740.49, 0.000, 0.000, 0.000, 16:43:47.629, 1552855427629
79, 31562.14, 47091.91, 1260.33, 26455.55, 28393.51, 19179.23, 70823.27, 21815.66, 0.000, 0.000, 0.000, 16:43:47.630, 1552855427630
80, 31526.75, 47122.80, 1198.70, 26507.02, 28391.54, 19173.46, 70924.50, 21833.59, 0.000, 0.000, 0.000, 16:43:47.630, 1552855427630
81, 31490.39, 47094.03, 1111.06, 26515.20, 28304.88, 19093.55, 70911.78, 21627.28, 0.000, 0.000, 0.000, 16:43:47.630, 1552855427630
82, 31525.10, 47059.45, 1171.03, 26463.68, 28316.73, 19128.49, 70825.73, 21678.76, 0.000, 0.000, 0.000, 16:43:47.630, 1552855427630
83, 31549.73, 47069.87, 1251.16, 26439.45, 28374.49, 19155.31, 70795.26, 21807.43, 0.000, 0.000, 0.000, 16:43:47.630, 1552855427630
84, 31507.71, 47084.60, 1196.09, 26469.34, 28361.93, 19150.28, 70851.77, 21769.73, 0.000, 0.000, 0.000, 16:43:47.630, 1552855427630
85, 31476.60, 47078.47, 1105.92, 26502.71, 28298.43, 19078.29, 70909.09, 21674.51, 0.000, 0.000, 0.000, 16:43:47.630, 1552855427630
86, 31483.35, 47024.63, 1123.26, 26445.91, 28280.77, 19093.73, 70830.24, 21688.30, 0.000, 0.000, 0.000, 16:43:47.630, 1552855427630
87, 31540.59, 47052.99, 1240.88, 26438.42, 28367.96, 19164.01, 70803.26, 21845.54, 0.104, 0.044, 1.016, 16:43:47.630, 1552855427630
88, 31506.77, 47068.70, 1205.25, 26456.66, 28347.42, 19107.59, 70802.77, 21729.90, 0.000, 0.000, 0.000, 16:43:47.630, 1552855427630
89, 31441.33, 47044.79, 1079.79, 26467.04, 28252.47, 19006.00, 70834.87, 21572.32, 0.000, 0.000, 0.000, 16:43:47.630, 1552855427630
90, 31473.31, 47030.26, 1103.15, 26455.03, 28281.19, 19114.63, 70853.82, 21699.79, 0.000, 0.000, 0.000, 16:43:47.630, 1552855427630
91, 31529.84, 47042.51, 1219.87, 26429.44, 28344.22, 19153.86, 70785.09, 21807.75, 0.000, 0.000, 0.000, 16:43:47.630, 1552855427630
92, 31515.71, 47064.61, 1217.34, 26445.22, 28325.89, 19068.70, 70754.96, 21635.62, 0.000, 0.000, 0.000, 16:43:47.630, 1552855427630
93, 31466.99, 47065.75, 1115.66, 26484.34, 28268.50, 19029.89, 70815.45, 21509.84, 0.000, 0.000, 0.000, 16:43:47.630, 1552855427630
94, 31462.49, 47031.18, 1090.68, 26466.68, 28266.08, 19079.16, 70850.67, 21659.51, 0.000, 0.000, 0.000, 16:43:47.630, 1552855427630
95, 31523.31, 47038.30, 1206.86, 26438.69, 28337.61, 19138.12, 70801.45, 21810.56, 0.000, 0.000, 0.000, 16:43:47.630, 1552855427630
96, 31527.40, 47074.00, 1229.75, 26450.03, 28376.97, 19163.31, 70825.30, 21856.07, 0.000, 0.000, 0.000, 16:43:47.630, 1552855427630
97, 31478.77, 47077.98, 1130.06, 26484.63, 28320.20, 19123.75, 70864.15, 21675.16, 0.104, 0.048, 1.010, 16:43:47.630, 1552855427630
98, 31465.91, 47039.58, 1082.56, 26472.64, 28245.99, 19043.53, 70813.74, 21522.92, 0.000, 0.000, 0.000, 16:43:47.630, 1552855427630
99, 31523.42, 47034.37, 1185.78, 26437.11, 28313.71, 19116.64, 70787.73, 21768.21, 0.000, 0.000, 0.000, 16:43:47.631, 1552855427631
100, 31534.26, 47061.02, 1234.06, 26439.99, 28344.76, 19107.34, 70753.77, 21730.23, 0.000, 0.000, 0.000, 16:43:47.631, 1552855427631
101, 31489.96, 47078.88, 1152.41, 26480.92, 28311.86, 19063.69, 70838.17, 21677.48, 0.000, 0.000, 0.000, 16:43:47.631, 1552855427631
102, 31464.39, 47056.54, 1083.77, 26490.46, 28285.93, 19125.87, 70888.31, 21681.10, 0.000, 0.000, 0.000, 16:43:47.631, 1552855427631
103, 31504.22, 47026.04, 1158.11, 26438.67, 28293.02, 19106.36, 70790.19, 21727.30, 0.000, 0.000, 0.000, 16:43:47.631, 1552855427631
104, 31548.86, 47070.49, 1247.09, 26448.91, 28349.77, 19101.91, 70772.30, 21784.43, 0.000, 0.000, 0.000, 16:43:47.631, 1552855427631
105, 31512.56, 47092.17, 1180.19, 26488.16, 28343.22, 19144.38, 70847.47, 21726.41, 0.000, 0.000, 0.000, 16:43:47.631, 1552855427631
106, 31472.10, 47063.30, 1087.61, 26493.52, 28259.53, 19055.17, 70861.84, 21616.62, 0.000, 0.000, 0.000, 16:43:47.631, 1552855427631
107, 31513.97, 47041.64, 1151.58, 26459.08, 28292.41, 19115.39, 70806.66, 21707.21, 0.102, 0.044, 1.008, 16:43:47.631, 1552855427631
108, 31553.49, 47066.60, 1245.46, 26447.50, 28350.04, 19135.84, 70759.98, 21775.85, 0.000, 0.000, 0.000, 16:43:47.631, 1552855427631
109, 31534.24, 47105.65, 1213.30, 26491.55, 28348.83, 19122.70, 70825.19, 21720.98, 0.000, 0.000, 0.000, 16:43:47.631, 1552855427631
110, 31489.79, 47093.85, 1113.94, 26514.80, 28296.23, 19107.23, 70895.84, 21658.86, 0.000, 0.000, 0.000, 16:43:47.631, 1552855427631
111, 31511.69, 47055.47, 1142.33, 26471.95, 28277.39, 19094.29, 70807.66, 21652.98, 0.000, 0.000, 0.000, 16:43:47.631, 1552855427631
112, 31538.31, 47052.03, 1226.08, 26429.46, 28312.26, 19068.74, 70740.90, 21752.98, 0.000, 0.000, 0.000, 16:43:47.631, 1552855427631
113, 31530.35, 47093.18, 1215.44, 26470.54, 28349.68, 19146.53, 70810.48, 21759.40, 0.000, 0.000, 0.000, 16:43:47.631, 1552855427631
114, 31493.99, 47094.95, 1123.94, 26510.24, 28288.46, 19092.66, 70864.93, 21618.83, 0.000, 0.000, 0.000, 16:43:47.631, 1552855427631
115, 31513.34, 47066.76, 1133.19, 26488.07, 28279.29, 19096.46, 70847.52, 21702.04, 0.000, 0.000, 0.000, 16:43:47.631, 1552855427631
116, 31560.73, 47069.62, 1233.68, 26456.02, 28332.80, 19136.89, 70772.62, 21760.99, 0.000, 0.000, 0.000, 16:43:47.632, 1552855427632
117, 31559.68, 47105.18, 1243.27, 26482.77, 28341.47, 19097.22, 70779.88, 21694.69, 0.100, 0.038, 1.010, 16:43:47.632, 1552855427632
118, 31509.34, 47104.63, 1140.56, 26514.04, 28302.45, 19097.15, 70867.34, 21672.38, 0.000, 0.000, 0.000, 16:43:47.632, 1552855427632
119, 31514.08, 47077.18, 1123.40, 26500.52, 28271.60, 19096.19, 70846.42, 21662.04, 0.000, 0.000, 0.000, 16:43:47.633, 1552855427633
120, 31556.64, 47069.93, 1219.20, 26456.71, 28330.50, 19154.46, 70782.92, 21777.73, 0.000, 0.000, 0.000, 16:43:47.633, 1552855427633
121, 31572.73, 47118.57, 1260.15, 26485.68, 28386.67, 19183.61, 70818.55, 21831.62, 0.000, 0.000, 0.000, 16:43:48.107, 1552855428107
122, 31525.93, 47123.98, 1169.11, 26521.04, 28316.89, 19078.00, 70865.27, 21669.37, 0.000, 0.000, 0.000, 16:43:48.107, 1552855428107
123, 31509.54, 47086.74, 1117.14, 26508.88, 28263.91, 19068.47, 70847.56, 21597.33, 0.000, 0.000, 0.000, 16:43:48.107, 1552855428107
124, 31550.07, 47061.35, 1199.71, 26454.00, 28276.54, 19037.79, 70735.40, 21636.00, 0.000, 0.000, 0.000, 16:43:48.107, 1552855428107
125, 31575.32, 47108.82, 1260.06, 26474.70, 28376.86, 19154.15, 70809.63, 21875.14, 0.000, 0.000, 0.000, 16:43:48.107, 1552855428107
126, 31537.82, 47127.63, 1185.27, 26516.30, 28343.87, 19137.54, 70876.02, 21771.74, 0.104, 0.032, 1.008, 16:43:48.107, 1552855428107
127, 31516.16, 47099.35, 1118.97, 26517.48, 28268.34, 19090.29, 70851.74, 21595.67, 0.000, 0.000, 0.000, 16:43:48.107, 1552855428107
128, 31560.13, 47077.09, 1195.19, 26471.13, 28280.21, 19070.37, 70759.45, 21646.05, 0.000, 0.000, 0.000, 16:43:48.107, 1552855428107
129, 31585.94, 47107.26, 1267.25, 26471.37, 28363.49, 19136.31, 70786.63, 21858.31, 0.000, 0.000, 0.000, 16:43:48.108, 1552855428108
130, 31552.26, 47132.92, 1211.11, 26512.97, 28356.58, 19159.20, 70858.02, 21769.77, 0.000, 0.000, 0.000, 16:43:48.108, 1552855428108
131, 31515.31, 47102.97, 1120.34, 26515.16, 28259.76, 19038.86, 70856.48, 21606.11, 0.000, 0.000, 0.000, 16:43:48.108, 1552855428108
132, 31536.41, 47060.16, 1163.72, 26464.04, 28274.15, 19074.58, 70785.54, 21689.33, 0.000, 0.000, 0.000, 16:43:48.108, 1552855428108
133, 31565.06, 47077.15, 1247.36, 26450.09, 28335.95, 19122.68, 70741.23, 21759.02, 0.000, 0.000, 0.000, 16:43:48.108, 1552855428108
134, 31538.71, 47107.48, 1205.85, 26486.50, 28334.05, 19120.33, 70815.71, 21735.21, 0.000, 0.000, 0.000, 16:43:48.108, 1552855428108
135, 31501.27, 47095.37, 1112.09, 26509.79, 28254.91, 19052.29, 70827.29, 21524.71, 0.000, 0.000, 0.000, 16:43:48.108, 1552855428108
136, 31537.93, 47075.92, 1151.23, 26486.50, 28271.74, 19083.34, 70814.10, 21700.93, 0.094, 0.030, 1.010, 16:43:48.108, 1552855428108
137, 31587.33, 47090.32, 1249.26, 26462.43, 28323.71, 19108.64, 70736.25, 21775.78, 0.000, 0.000, 0.000, 16:43:48.108, 1552855428108
138, 31568.60, 47115.60, 1231.04, 26490.66, 28324.38, 19089.57, 70759.23, 21707.81, 0.000, 0.000, 0.000, 16:43:48.108, 1552855428108
139, 31531.16, 47120.79, 1142.46, 26529.82, 28285.53, 19073.75, 70868.64, 21638.66, 0.000, 0.000, 0.000, 16:43:48.109, 1552855428109
140, 31540.10, 47080.37, 1144.01, 26497.28, 28239.77, 18998.58, 70803.59, 21622.43, 0.000, 0.000, 0.000, 16:43:48.109, 1552855428109
141, 31576.87, 47074.85, 1239.20, 26456.96, 28302.98, 19076.83, 70745.30, 21770.17, 0.000, 0.000, 0.000, 16:43:48.109, 1552855428109
142, 31567.48, 47109.54, 1247.05, 26485.79, 28359.42, 19163.67, 70795.26, 21812.33, 0.000, 0.000, 0.000, 16:43:48.109, 1552855428109
143, 31520.16, 47110.82, 1149.42, 26520.75, 28304.19, 19119.70, 70855.72, 21694.13, 0.000, 0.000, 0.000, 16:43:48.109, 1552855428109
144, 31515.94, 47074.09, 1122.64, 26496.23, 28247.89, 19053.05, 70821.08, 21648.47, 0.000, 0.000, 0.000, 16:43:48.109, 1552855428109
145, 31552.97, 47059.38, 1211.29, 26446.18, 28286.71, 19080.23, 70731.84, 21726.25, 0.000, 0.000, 0.000, 16:43:48.109, 1552855428109
146, 31554.34, 47089.31, 1236.48, 26456.42, 28320.02, 19101.04, 70748.59, 21748.34, 0.100, 0.034, 1.012, 16:43:48.109, 1552855428109
147, 31529.57, 47115.11, 1164.95, 26511.47, 28290.36, 19089.15, 70825.27, 21623.86, 0.000, 0.000, 0.000, 16:43:48.109, 1552855428109
148, 31524.21, 47091.01, 1122.86, 26511.02, 28233.78, 19013.09, 70815.09, 21609.60, 0.000, 0.000, 0.000, 16:43:48.109, 1552855428109
149, 31567.17, 47079.30, 1207.87, 26468.00, 28292.90, 19101.49, 70775.08, 21758.28, 0.000, 0.000, 0.000, 16:43:48.109, 1552855428109
150, 31577.72, 47107.30, 1256.39, 26470.54, 28343.82, 19133.83, 70778.30, 21822.03, 0.000, 0.000, 0.000, 16:43:48.109, 1552855428109
151, 31530.91, 47115.51, 1175.70, 26502.22, 28306.67, 19108.39, 70830.75, 21699.54, 0.000, 0.000, 0.000, 16:43:48.109, 1552855428109
152, 31509.39, 47087.95, 1110.12, 26505.39, 28231.10, 19033.05, 70816.27, 21558.01, 0.000, 0.000, 0.000, 16:43:48.109, 1552855428109
153, 31562.32, 47072.73, 1190.50, 26465.38, 28242.52, 18997.66, 70730.98, 21615.59, 0.000, 0.000, 0.000, 16:43:48.109, 1552855428109
154, 31591.20, 47104.98, 1262.76, 26466.28, 28339.48, 19125.40, 70760.23, 21810.03, 0.000, 0.000, 0.000, 16:43:48.109, 1552855428109
155, 31554.20, 47127.11, 1205.12, 26505.75, 28331.46, 19120.91, 70837.98, 21774.38, 0.000, 0.000, 0.000, 16:43:48.109, 1552855428109
156, 31512.67, 47097.27, 1112.65, 26510.69, 28246.61, 19049.65, 70830.33, 21594.15, 0.102, 0.038, 1.004, 16:43:48.109, 1552855428109
157, 31544.75, 47066.18, 1162.36, 26466.34, 28240.87, 19041.72, 70744.79, 21593.51, 0.000, 0.000, 0.000, 16:43:48.110, 1552855428110
158, 31574.99, 47082.96, 1242.49, 26449.06, 28321.07, 19114.96, 70744.27, 21817.89, 0.000, 0.000, 0.000, 16:43:48.110, 1552855428110
159, 31562.85, 47122.86, 1217.32, 26498.80, 28347.67, 19156.03, 70828.30, 21819.59, 0.000, 0.000, 0.000, 16:43:48.110, 1552855428110
160, 31519.51, 47102.63, 1120.90, 26513.86, 28240.15, 19001.69, 70810.73, 21561.79, 0.000, 0.000, 0.000, 16:43:48.110, 1552855428110
161, 31546.45, 47075.68, 1153.98, 26483.31, 28247.64, 19056.76, 70777.02, 21630.30, 0.000, 0.000, 0.000, 16:43:48.110, 1552855428110
162, 31595.84, 47101.41, 1259.32, 26469.36, 28348.81, 19172.39, 70786.99, 21895.39, 0.000, 0.000, 0.000, 16:43:48.110, 1552855428110
163, 31572.98, 47123.71, 1238.69, 26488.65, 28325.67, 19104.79, 70774.78, 21756.88, 0.000, 0.000, 0.000, 16:43:48.110, 1552855428110
164, 31514.08, 47101.32, 1125.88, 26501.95, 28220.89, 18978.80, 70771.97, 21524.24, 0.000, 0.000, 0.000, 16:43:48.110, 1552855428110
165, 31532.21, 47079.79, 1132.63, 26484.22, 28222.18, 19026.32, 70781.00, 21605.33, 0.000, 0.000, 0.000, 16:43:48.110, 1552855428110
166, 31585.36, 47093.18, 1239.25, 26458.47, 28302.74, 19114.83, 70751.47, 21778.62, 0.098, 0.036, 1.006, 16:43:48.110, 1552855428110
167, 31571.70, 47117.83, 1241.35, 26473.94, 28313.76, 19095.68, 70760.44, 21768.79, 0.000, 0.000, 0.000, 16:43:48.110, 1552855428110
168, 31521.23, 47114.37, 1139.56, 26502.98, 28251.78, 19050.08, 70826.13, 21651.82, 0.000, 0.000, 0.000, 16:43:48.110, 1552855428110
169, 31528.77, 47089.94, 1123.80, 26496.63, 28213.47, 19015.39, 70805.09, 21612.71, 0.000, 0.000, 0.000, 16:43:48.110, 1552855428110
170, 31557.78, 47064.12, 1203.55, 26437.33, 28243.04, 19027.57, 70712.29, 21715.37, 0.000, 0.000, 0.000, 16:43:48.110, 1552855428110
171, 31583.77, 47119.46, 1255.97, 26477.09, 28333.67, 19153.95, 70773.51, 21834.14, 0.000, 0.000, 0.000, 16:43:48.110, 1552855428110
172, 31541.95, 47126.48, 1169.60, 26513.91, 28265.75, 19052.00, 70810.46, 21643.82, 0.000, 0.000, 0.000, 16:43:48.110, 1552855428110
173, 31526.60, 47094.63, 1117.43, 26504.32, 28208.77, 19012.13, 70797.77, 21585.86, 0.000, 0.000, 0.000, 16:43:48.111, 1552855428111
174, 31568.98, 47076.64, 1204.22, 26457.96, 28254.48, 19051.80, 70734.80, 21747.22, 0.000, 0.000, 0.000, 16:43:48.111, 1552855428111
175, 31584.22, 47106.16, 1258.49, 26464.78, 28331.95, 19144.34, 70755.27, 21846.13, 0.000, 0.000, 0.000, 16:43:48.111, 1552855428111
176, 31547.65, 47122.44, 1190.36, 26507.98, 28288.39, 19092.72, 70798.84, 21696.86, 0.102, 0.036, 1.010, 16:43:48.111, 1552855428111
177, 31517.21, 47091.52, 1115.04, 26508.70, 28211.79, 19020.17, 70799.06, 21578.48, 0.000, 0.000, 0.000, 16:43:48.111, 1552855428111
178, 31536.03, 47048.54, 1168.01, 26446.31, 28221.74, 19041.54, 70701.83, 21637.22, 0.000, 0.000, 0.000, 16:43:48.111, 1552855428111
179, 31572.40, 47085.87, 1250.74, 26452.78, 28293.37, 19075.22, 70697.65, 21762.46, 0.000, 0.000, 0.000, 16:43:48.111, 1552855428111
180, 31529.24, 47097.67, 1184.66, 26479.75, 28246.72, 18994.71, 70724.47, 21623.08, 0.000, 0.000, 0.000, 16:43:48.111, 1552855428111
181, 31471.14, 47062.96, 1076.59, 26478.66, 28201.93, 19030.65, 70791.57, 21617.15, 0.000, 0.000, 0.000, 16:43:48.111, 1552855428111
182, 31517.93, 47047.34, 1138.22, 26450.63, 28216.84, 19047.51, 70731.00, 21655.69, 0.000, 0.000, 0.000, 16:43:48.111, 1552855428111
183, 31553.04, 47061.24, 1226.19, 26429.69, 28251.96, 19007.39, 70655.56, 21679.96, 0.000, 0.000, 0.000, 16:43:48.111, 1552855428111
184, 31508.83, 47068.14, 1173.38, 26446.56, 28236.20, 18978.84, 70694.34, 21652.98, 0.000, 0.000, 0.000, 16:43:48.111, 1552855428111
185, 31479.77, 47069.73, 1089.76, 26487.60, 28209.98, 19032.89, 70780.88, 21606.40, 0.000, 0.000, 0.000, 16:43:48.111, 1552855428111
186, 31507.82, 47041.91, 1118.21, 26457.54, 28189.68, 18985.68, 70715.42, 21600.75, 0.096, 0.036, 1.012, 16:43:48.111, 1552855428111
187, 31553.11, 47058.02, 1218.91, 26434.09, 28274.46, 19072.14, 70687.30, 21775.83, 0.000, 0.000, 0.000, 16:43:48.111, 1552855428111
188, 31528.03, 47075.25, 1196.53, 26448.46, 28255.64, 19004.75, 70696.51, 21708.15, 0.000, 0.000, 0.000, 16:43:48.111, 1552855428111
189, 31475.68, 47064.64, 1091.01, 26475.24, 28193.82, 18997.71, 70746.53, 21561.01, 0.000, 0.000, 0.000, 16:43:48.111, 1552855428111
190, 31487.15, 47031.27, 1086.03, 26448.42, 28163.04, 18972.45, 70705.47, 21552.18, 0.000, 0.000, 0.000, 16:43:48.111, 1552855428111
191, 31549.35, 47049.77, 1201.43, 26428.37, 28249.27, 19058.73, 70668.77, 21725.85, 0.000, 0.000, 0.000, 16:43:48.111, 1552855428111
192, 31543.05, 47078.18, 1208.85, 26444.82, 28264.56, 19045.52, 70679.52, 21700.39, 0.000, 0.000, 0.000, 16:43:48.112, 1552855428112
193, 31489.43, 47071.52, 1107.04, 26471.59, 28188.23, 18966.66, 70714.48, 21525.13, 0.000, 0.000, 0.000, 16:43:48.112, 1552855428112
194, 31498.05, 47051.29, 1088.40, 26466.52, 28160.98, 18966.97, 70715.95, 21529.67, 0.000, 0.000, 0.000, 16:43:48.112, 1552855428112
195, 31556.48, 47051.40, 1193.16, 26432.81, 28228.84, 19039.93, 70661.59, 21690.74, 0.000, 0.000, 0.000, 16:43:48.112, 1552855428112
196, 31558.63, 47075.75, 1224.38, 26441.33, 28263.98, 19050.84, 70667.56, 21732.15, 0.094, 0.040, 1.010, 16:43:48.112, 1552855428112
197, 31517.72, 47088.11, 1143.54, 26483.87, 28222.63, 19023.70, 70733.91, 21611.70, 0.000, 0.000, 0.000, 16:43:48.112, 1552855428112
198, 31499.75, 47054.64, 1087.81, 26475.66, 28152.29, 18947.97, 70711.41, 21499.94, 0.000, 0.000, 0.000, 16:43:48.112, 1552855428112
199, 31538.65, 47034.39, 1169.47, 26425.86, 28192.61, 18974.08, 70654.42, 21665.59, 0.000, 0.000, 0.000, 16:43:48.112, 1552855428112
200, 31556.68, 47069.75, 1228.43, 26433.24, 28272.88, 19075.74, 70678.02, 21773.64, 0.000, 0.000, 0.000, 16:43:48.112, 1552855428112
201, 31512.52, 47078.90, 1150.44, 26463.55, 28227.14, 19031.91, 70720.38, 21638.37, 0.000, 0.000, 0.000, 16:43:48.112, 1552855428112
202, 31477.58, 47044.86, 1066.67, 26460.20, 28136.15, 18928.93, 70698.27, 21455.01, 0.000, 0.000, 0.000, 16:43:48.112, 1552855428112
203, 31529.41, 47033.46, 1145.75, 26429.53, 28180.30, 18971.20, 70655.45, 21612.04, 0.000, 0.000, 0.000, 16:43:48.112, 1552855428112
204, 31571.46, 47073.02, 1234.60, 26437.93, 28274.64, 19074.04, 70666.67, 21788.90, 0.000, 0.000, 0.000, 16:43:48.112, 1552855428112
205, 31525.77, 47082.59, 1168.62, 26459.77, 28241.65, 19026.45, 70718.41, 21691.50, 0.000, 0.000, 0.000, 16:43:48.113, 1552855428113
206, 31492.42, 47061.86, 1079.34, 26475.37, 28168.47, 18985.13, 70734.84, 21553.18, 0.100, 0.034, 1.006, 16:43:48.113, 1552855428113
207, 31534.29, 47040.68, 1133.66, 26443.92, 28183.69, 19014.88, 70678.88, 21624.06, 0.000, 0.000, 0.000, 16:43:48.113, 1552855428113
208, 31583.93, 47070.38, 1236.48, 26439.81, 28252.09, 19047.75, 70638.46, 21713.11, 0.000, 0.000, 0.000, 16:43:48.113, 1552855428113
209, 31561.89, 47101.23, 1206.39, 26474.81, 28255.24, 19038.12, 70707.20, 21709.20, 0.000, 0.000, 0.000, 16:43:48.113, 1552855428113
210, 31513.88, 47083.14, 1103.86, 26492.25, 28173.77, 18970.01, 70728.92, 21545.49, 0.000, 0.000, 0.000, 16:43:48.113, 1552855428113
211, 31523.40, 47035.54, 1115.64, 26445.49, 28129.18, 18910.96, 70624.38, 21452.67, 0.000, 0.000, 0.000, 16:43:48.113, 1552855428113
212, 31565.96, 47047.45, 1215.47, 26424.25, 28217.36, 19012.59, 70592.69, 21618.25, 0.000, 0.000, 0.000, 16:43:48.113, 1552855428113
213, 31563.79, 47094.09, 1214.01, 26463.82, 28254.06, 19015.34, 70682.00, 21711.19, 0.000, 0.000, 0.000, 16:43:48.113, 1552855428113
214, 31507.73, 47076.75, 1102.57, 26480.20, 28168.20, 18914.40, 70718.62, 21593.71, 0.000, 0.000, 0.000, 16:43:48.113, 1552855428113
215, 31530.35, 47064.79, 1112.69, 26475.84, 28180.99, 18996.03, 70733.08, 21650.08, 0.000, 0.000, 0.000, 16:43:48.113, 1552855428113
216, 31589.07, 47079.23, 1225.81, 26454.38, 28263.76, 19101.89, 70676.19, 21759.71, 0.100, 0.040, 1.006, 16:43:48.113, 1552855428113
217, 31566.38, 47091.30, 1221.28, 26453.02, 28259.38, 19063.56, 70656.25, 21699.70, 0.000, 0.000, 0.000, 16:43:48.113, 1552855428113
218, 31522.13, 47093.98, 1131.31, 26486.19, 28186.69, 18974.78, 70710.26, 21553.52, 0.000, 0.000, 0.000, 16:43:48.113, 1552855428113
219, 31516.58, 47059.47, 1099.46, 26472.36, 28148.36, 18965.99, 70694.01, 21511.86, 0.000, 0.000, 0.000, 16:43:48.113, 1552855428113
220, 31557.85, 47047.94, 1189.74, 26432.59, 28216.77, 19036.71, 70654.06, 21726.65, 0.000, 0.000, 0.000, 16:43:48.113, 1552855428113
221, 31564.51, 47079.61, 1223.07, 26445.06, 28255.06, 19050.01, 70663.52, 21772.25, 0.000, 0.000, 0.000, 16:43:48.113, 1552855428113
222, 31536.05, 47100.42, 1151.09, 26492.81, 28224.44, 19046.32, 70734.44, 21663.73, 0.000, 0.000, 0.000, 16:43:48.114, 1552855428114
223, 31512.79, 47065.82, 1090.30, 26484.13, 28168.00, 19019.30, 70730.13, 21576.16, 0.000, 0.000, 0.000, 16:43:48.114, 1552855428114
224, 31555.48, 47046.49, 1172.64, 26439.97, 28193.69, 19023.81, 70642.89, 21648.42, 0.000, 0.000, 0.000, 16:43:48.114, 1552855428114
225, 31558.11, 47060.14, 1217.57, 26430.18, 28224.31, 19020.87, 70612.94, 21668.41, 0.000, 0.000, 0.000, 16:43:48.114, 1552855428114
226, 31532.01, 47088.51, 1159.85, 26477.76, 28218.92, 19034.72, 70711.10, 21673.21, 0.096, 0.034, 1.010, 16:43:48.114, 1552855428114
227, 31508.05, 47066.36, 1086.99, 26484.56, 28159.71, 18983.31, 70731.65, 21600.59, 0.000, 0.000, 0.000, 16:43:48.114, 1552855428114
228, 31553.93, 47051.96, 1159.16, 26451.75, 28196.68, 19032.93, 70670.96, 21680.95, 0.000, 0.000, 0.000, 16:43:48.114, 1552855428114
229, 31569.16, 47062.40, 1218.86, 26429.55, 28230.68, 19035.35, 70610.16, 21701.87, 0.000, 0.000, 0.000, 16:43:48.114, 1552855428114
230, 31533.21, 47080.64, 1164.06, 26457.51, 28196.90, 18965.10, 70655.38, 21614.43, 0.000, 0.000, 0.000, 16:43:48.114, 1552855428114
231, 31497.83, 47068.66, 1077.29, 26479.42, 28151.33, 18969.95, 70713.63, 21562.64, 0.000, 0.000, 0.000, 16:43:48.114, 1552855428114
232, 31541.69, 47052.39, 1131.36, 26456.78, 28173.54, 19017.40, 70667.59, 21631.37, 0.000, 0.000, 0.000, 16:43:48.114, 1552855428114
233, 31591.78, 47082.54, 1235.34, 26454.50, 28247.82, 19061.03, 70643.34, 21756.92, 0.000, 0.000, 0.000, 16:43:48.114, 1552855428114
234, 31556.37, 47097.02, 1196.62, 26472.96, 28230.32, 19011.57, 70677.04, 21700.62, 0.000, 0.000, 0.000, 16:43:48.114, 1552855428114
235, 31518.95, 47092.11, 1106.93, 26501.61, 28170.93, 18974.95, 70718.81, 21547.64, 0.100, 0.040, 1.010, 16:43:48.114, 1552855428114
236, 31537.48, 47060.95, 1124.40, 26469.05, 28156.22, 18972.12, 70667.14, 21575.45, 0.000, 0.000, 0.000, 16:43:48.114, 1552855428114
237, 31570.14, 47058.94, 1210.10, 26431.29, 28224.84, 19034.95, 70622.19, 21727.64, 0.000, 0.000, 0.000, 16:43:48.114, 1552855428114
238, 31562.83, 47092.66, 1205.56, 26459.57, 28258.39, 19073.55, 70674.41, 21740.67, 0.000, 0.000, 0.000, 16:43:48.114, 1552855428114
239, 31523.56, 47092.80, 1114.77, 26490.55, 28202.60, 19034.21, 70732.56, 21610.07, 0.000, 0.000, 0.000, 16:43:48.114, 1552855428114
240, 31528.10, 47057.30, 1105.16, 26463.88, 28160.56, 18999.00, 70684.69, 21578.46, 0.000, 0.000, 0.000, 16:43:48.115, 1552855428115
241, 31564.98, 47045.75, 1191.95, 26417.57, 28203.01, 19026.94, 70607.73, 21685.35, 0.000, 0.000, 0.000, 16:43:48.586, 1552855428586
242, 31564.93, 47074.14, 1207.08, 26435.50, 28220.11, 19010.13, 70617.32, 21672.88, 0.000, 0.000, 0.000, 16:43:48.586, 1552855428586
243, 31525.32, 47080.77, 1123.67, 26474.54, 28173.46, 18979.18, 70682.25, 21567.98, 0.000, 0.000, 0.000, 16:43:48.586, 1552855428586
244, 31518.62, 47051.27, 1087.21, 26461.71, 28143.51, 18983.58, 70692.75, 21595.43, 0.000, 0.000, 0.000, 16:43:48.586, 1552855428586
245, 31562.47, 47040.45, 1174.81, 26420.50, 28192.32, 19021.69, 70622.41, 21706.94, 0.098, 0.040, 1.008, 16:43:48.586, 1552855428586
246, 31580.91, 47081.40, 1222.26, 26443.59, 28245.59, 19045.68, 70635.96, 21747.49, 0.000, 0.000, 0.000, 16:43:48.586, 1552855428586
247, 31528.39, 47084.46, 1137.03, 26472.02, 28196.54, 19004.55, 70687.32, 21630.92, 0.000, 0.000, 0.000, 16:43:48.586, 1552855428586
248, 31520.96, 47070.52, 1090.97, 26482.75, 28152.42, 18990.35, 70689.34, 21546.84, 0.000, 0.000, 0.000, 16:43:48.586, 1552855428586
249, 31579.64, 47065.60, 1181.27, 26451.75, 28186.69, 19000.35, 70614.26, 21601.62, 0.000, 0.000, 0.000, 16:43:48.586, 1552855428586
250, 31599.71, 47096.22, 1240.41, 26456.93, 28250.12, 19032.46, 70630.62, 21729.98, 0.000, 0.000, 0.000, 16:43:48.586, 1552855428586
251, 31555.19, 47105.83, 1168.26, 26486.03, 28227.50, 19031.86, 70699.26, 21702.25, 0.000, 0.000, 0.000, 16:43:48.587, 1552855428587
252, 31528.77, 47084.35, 1096.60, 26499.24, 28163.38, 18977.30, 70708.16, 21569.34, 0.000, 0.000, 0.000, 16:43:48.587, 1552855428587
253, 31567.44, 47060.41, 1159.81, 26458.85, 28182.15, 18979.78, 70642.44, 21646.28, 0.000, 0.000, 0.000, 16:43:48.587, 1552855428587
254, 31598.35, 47085.56, 1237.19, 26454.27, 28266.78, 19088.46, 70644.12, 21784.48, 0.000, 0.000, 0.000, 16:43:48.587, 1552855428587
255, 31569.45, 47105.68, 1190.10, 26486.68, 28230.10, 19019.90, 70666.45, 21652.11, 0.094, 0.032, 1.004, 16:43:48.587, 1552855428587
0, 31519.29, 47074.52, 1089.63, 26490.71, 28138.54, 18952.13, 70668.10, 21475.60, 0.000, 0.000, 0.000, 16:43:48.587, 1552855428587
1, 31566.21, 47070.34, 1146.06, 26474.95, 28187.20, 19031.21, 70680.39, 21669.26, 0.000, 0.000, 0.000, 16:43:48.587, 1552855428587
2, 31608.29, 47093.45, 1237.30, 26458.03, 28259.73, 19089.04, 70651.83, 21802.79, 0.000, 0.000, 0.000, 16:43:48.587, 1552855428587
3, 31582.92, 47112.07, 1202.59, 26479.28, 28240.49, 19046.37, 70672.21, 21712.97, 0.000, 0.000, 0.000, 16:43:48.587, 1552855428587
4, 31540.52, 47098.14, 1106.81, 26502.19, 28167.73, 18996.61, 70702.14, 21572.38, 0.000, 0.000, 0.000, 16:43:48.587, 1552855428587
5, 31554.65, 47062.80, 1118.37, 26468.98, 28161.32, 19010.92, 70675.45, 21633.38, 0.000, 0.000, 0.000, 16:43:48.587, 1552855428587
6, 31596.80, 47068.66, 1212.67, 26436.37, 28217.82, 19043.80, 70609.96, 21729.76, 0.000, 0.000, 0.000, 16:43:48.587, 1552855428587
7, 31581.40, 47094.81, 1204.71, 26458.27, 28225.71, 19029.98, 70633.23, 21696.48, 0.000, 0.000, 0.000, 16:43:48.587, 1552855428587
8, 31531.56, 47087.23, 1110.61, 26485.86, 28162.28, 18983.60, 70685.06, 21573.99, 0.000, 0.000, 0.000, 16:43:48.587, 1552855428587
9, 31536.66, 47059.09, 1101.47, 26465.07, 28141.94, 18989.21, 70668.59, 21596.25, 0.098, 0.032, 1.002, 16:43:48.587, 1552855428587
10, 31578.28, 47055.72, 1192.06, 26426.71, 28197.91, 19027.99, 70598.72, 21695.97, 0.000, 0.000, 0.000, 16:43:48.587, 1552855428587
11, 31595.06, 47105.90, 1227.94, 26467.50, 28248.80, 19050.55, 70646.93, 21738.28, 0.000, 0.000, 0.000, 16:43:48.587, 1552855428587
12, 31551.23, 47110.97, 1142.82, 26503.42, 28190.80, 18993.75, 70697.29, 21602.16, 0.000, 0.000, 0.000, 16:43:48.587, 1552855428587
13, 31544.52, 47084.82, 1107.66, 26496.52, 28165.48, 19018.50, 70697.65, 21583.43, 0.000, 0.000, 0.000, 16:43:48.588, 1552855428588
14, 31590.37, 47073.64, 1196.47, 26455.37, 28209.49, 19025.38, 70622.66, 21691.52, 0.000, 0.000, 0.000, 16:43:48.588, 1552855428588
15, 31595.73, 47100.11, 1230.98, 26461.58, 28247.66, 19032.20, 70619.06, 21727.37, 0.000, 0.000, 0.000, 16:43:48.588, 1552855428588
16, 31566.56, 47123.36, 1165.51, 26509.32, 28222.70, 19037.25, 70702.56, 21648.20, 0.000, 0.000, 0.000, 16:43:48.588, 1552855428588
17, 31556.39, 47108.07, 1115.82, 26519.76, 28187.22, 19045.54, 70733.50, 21627.86, 0.000, 0.000, 0.000, 16:43:48.590, 1552855428590
18, 31591.24, 47080.66, 1184.64, 26465.85, 28206.36, 19044.45, 70647.11, 21707.14, 0.000, 0.000, 0.000, 16:43:48.590, 1552855428590
19, 31608.74, 47105.90, 1241.66, 26463.15, 28255.35, 19073.03, 70626.15, 21743.33, 0.100, 0.034, 0.996, 16:43:48.591, 1552855428591
20, 31570.79, 47118.04, 1176.13, 26493.59, 28214.90, 19035.10, 70669.40, 21635.17, 0.000, 0.000, 0.000, 16:43:48.591, 1552855428591
21, 31538.76, 47092.17, 1096.44, 26498.86, 28151.26, 18989.66, 70696.95, 21582.93, 0.000, 0.000, 0.000, 16:43:48.592, 1552855428592
22, 31577.40, 47071.18, 1156.95, 26461.36, 28172.43, 19006.43, 70630.93, 21642.50, 0.000, 0.000, 0.000, 16:43:48.592, 1552855428592
23, 31615.74, 47102.68, 1242.40, 26463.48, 28245.41, 19060.11, 70613.05, 21740.22, 0.000, 0.000, 0.000, 16:43:48.592, 1552855428592
24, 31581.65, 47114.04, 1190.36, 26484.00, 28208.01, 18996.43, 70644.41, 21626.85, 0.000, 0.000, 0.000, 16:43:48.592, 1552855428592
25, 31551.63, 47104.40, 1108.13, 26507.22, 28168.45, 19015.10, 70712.89, 21605.51, 0.000, 0.000, 0.000, 16:43:48.592, 1552855428592
26, 31588.33, 47084.77, 1152.03, 26480.13, 28174.46, 19009.73, 70660.55, 21654.79, 0.000, 0.000, 0.000, 16:43:48.592, 1552855428592
27, 31627.49, 47108.45, 1242.15, 26468.42, 28260.38, 19103.39, 70646.24, 21789.51, 0.000, 0.000, 0.000, 16:43:48.592, 1552855428592
28, 31604.03, 47131.16, 1215.93, 26496.29, 28257.81, 19073.82, 70680.37, 21740.38, 0.000, 0.000, 0.000, 16:43:48.592, 1552855428592
29, 31553.93, 47111.29, 1116.92, 26512.72, 28182.82, 19019.28, 70712.76, 21611.99, 0.098, 0.038, 1.004, 16:43:48.592, 1552855428592
30, 31562.81, 47072.46, 1124.43, 26477.94, 28153.65, 18996.81, 70649.23, 21600.37, 0.000, 0.000, 0.000, 16:43:48.592, 1552855428592
31, 31604.54, 47078.92, 1217.34, 26449.67, 28211.57, 19032.13, 70594.30, 21716.02, 0.000, 0.000, 0.000, 16:43:48.592, 1552855428592
32, 31587.53, 47104.29, 1210.93, 26472.49, 28235.30, 19058.79, 70638.57, 21735.57, 0.000, 0.000, 0.000, 16:43:48.592, 1552855428592
33, 31551.36, 47107.44, 1128.67, 26511.40, 28181.21, 19014.81, 70690.90, 21605.11, 0.000, 0.000, 0.000, 16:43:48.592, 1552855428592
34, 31556.10, 47073.87, 1116.72, 26492.72, 28140.49, 18960.27, 70646.84, 21571.44, 0.000, 0.000, 0.000, 16:43:48.592, 1552855428592
35, 31596.69, 47070.29, 1205.56, 26455.05, 28205.73, 19036.64, 70586.02, 21686.06, 0.000, 0.000, 0.000, 16:43:48.592, 1552855428592
36, 31609.43, 47116.65, 1239.25, 26488.85, 28273.64, 19105.78, 70655.63, 21805.56, 0.000, 0.000, 0.000, 16:43:48.592, 1552855428592
37, 31562.54, 47112.58, 1151.94, 26513.82, 28207.41, 19042.86, 70687.66, 21646.75, 0.000, 0.000, 0.000, 16:43:48.593, 1552855428593
38, 31551.86, 47078.27, 1113.74, 26499.00, 28147.64, 18986.00, 70656.14, 21566.50, 0.000, 0.000, 0.000, 16:43:48.593, 1552855428593
39, 31592.49, 47065.20, 1194.68, 26456.11, 28185.82, 19007.39, 70586.45, 21663.29, 0.102, 0.042, 1.006, 16:43:48.593, 1552855428593
40, 31591.71, 47086.52, 1224.83, 26457.04, 28219.43, 19021.00, 70582.70, 21702.04, 0.000, 0.000, 0.000, 16:43:48.593, 1552855428593
41, 31543.38, 47091.84, 1143.94, 26486.97, 28195.36, 19041.65, 70656.90, 21674.46, 0.000, 0.000, 0.000, 16:43:48.593, 1552855428593
42, 31516.58, 47055.79, 1076.37, 26476.40, 28115.28, 18944.38, 70635.29, 21558.70, 0.000, 0.000, 0.000, 16:43:48.593, 1552855428593
43, 31563.01, 47044.16, 1158.47, 26445.33, 28163.29, 19009.42, 70561.30, 21621.60, 0.000, 0.000, 0.000, 16:43:48.593, 1552855428593
44, 31590.10, 47083.23, 1226.02, 26457.27, 28233.18, 19052.87, 70569.57, 21698.65, 0.000, 0.000, 0.000, 16:43:48.593, 1552855428593
45, 31556.50, 47102.34, 1168.75, 26491.35, 28216.77, 19040.15, 70655.56, 21688.01, 0.000, 0.000, 0.000, 16:43:48.593, 1552855428593
46, 31532.66, 47085.16, 1098.21, 26504.50, 28149.81, 18993.26, 70660.74, 21558.44, 0.000, 0.000, 0.000, 16:43:48.593, 1552855428593
47, 31553.64, 47051.40, 1142.42, 26457.74, 28159.78, 19004.12, 70583.55, 21613.02, 0.000, 0.000, 0.000, 16:43:48.593, 1552855428593
48, 31571.64, 47058.96, 1205.47, 26436.48, 28214.92, 19037.40, 70556.12, 21733.12, 0.000, 0.000, 0.000, 16:43:48.593, 1552855428593
49, 31542.80, 47072.64, 1164.70, 26462.39, 28185.86, 18991.85, 70585.89, 21629.65, 0.098, 0.038, 1.006, 16:43:48.593, 1552855428593
50, 31512.52, 47062.00, 1084.04, 26484.11, 28133.02, 18979.76, 70636.61, 21552.24, 0.000, 0.000, 0.000, 16:43:48.593, 1552855428593
51, 31528.83, 47025.54, 1106.72, 26439.86, 28128.91, 18984.32, 70577.30, 21594.36, 0.000, 0.000, 0.000, 16:43:48.593, 1552855428593
52, 31583.21, 47059.20, 1210.53, 26438.29, 28209.71, 19038.57, 70552.50, 21717.94, 0.000, 0.000, 0.000, 16:43:48.594, 1552855428594
53, 31559.61, 47077.42, 1184.66, 26457.94, 28201.33, 19013.47, 70580.80, 21658.71, 0.000, 0.000, 0.000, 16:43:48.594, 1552855428594
54, 31515.87, 47064.88, 1092.49, 26477.16, 28130.43, 18953.21, 70618.84, 21522.07, 0.000, 0.000, 0.000, 16:43:48.594, 1552855428594
55, 31521.44, 47029.36, 1092.35, 26444.77, 28117.40, 18963.22, 70586.00, 21566.42, 0.000, 0.000, 0.000, 16:43:48.594, 1552855428594
56, 31574.34, 47047.58, 1192.04, 26427.54, 28189.19, 19020.08, 70541.16, 21686.60, 0.000, 0.000, 0.000, 16:43:48.594, 1552855428594
57, 31566.63, 47078.20, 1190.41, 26450.34, 28203.59, 19005.73, 70566.91, 21664.49, 0.000, 0.000, 0.000, 16:43:48.594, 1552855428594
58, 31509.34, 47062.80, 1091.93, 26470.01, 28148.15, 18986.87, 70621.38, 21575.47, 0.000, 0.000, 0.000, 16:43:48.594, 1552855428594
59, 31521.10, 47040.27, 1081.96, 26458.23, 28118.14, 18962.28, 70597.45, 21549.12, 0.104, 0.036, 1.006, 16:43:48.594, 1552855428594
60, 31574.90, 47046.91, 1182.14, 26433.24, 28178.20, 19000.14, 70539.91, 21665.77, 0.000, 0.000, 0.000, 16:43:48.594, 1552855428594
61, 31577.13, 47080.35, 1201.99, 26450.96, 28218.50, 19032.35, 70573.89, 21716.44, 0.000, 0.000, 0.000, 16:43:48.594, 1552855428594
62, 31525.73, 47076.44, 1113.39, 26475.42, 28164.90, 19002.18, 70623.15, 21590.85, 0.000, 0.000, 0.000, 16:43:48.594, 1552855428594
63, 31511.60, 47041.68, 1071.63, 26463.19, 28115.63, 18960.60, 70609.83, 21550.23, 0.000, 0.000, 0.000, 16:43:48.594, 1552855428594
64, 31576.73, 47049.59, 1174.52, 26442.58, 28178.78, 19013.29, 70565.17, 21685.26, 0.000, 0.000, 0.000, 16:43:48.594, 1552855428594
65, 31584.20, 47075.16, 1211.82, 26447.01, 28220.53, 19040.09, 70558.30, 21701.80, 0.000, 0.000, 0.000, 16:43:48.594, 1552855428594
66, 31543.29, 47081.51, 1135.31, 26474.63, 28165.86, 18982.46, 70592.38, 21555.48, 0.000, 0.000, 0.000, 16:43:48.594, 1552855428594
67, 31534.42, 47068.12, 1082.74, 26485.52, 28117.09, 18939.30, 70615.17, 21509.44, 0.000, 0.000, 0.000, 16:43:48.594, 1552855428594
68, 31579.93, 47053.46, 1153.15, 26446.49, 28159.53, 18982.60, 70569.41, 21671.29, 0.000, 0.000, 0.000, 16:43:48.594, 1552855428594
69, 31604.40, 47085.18, 1219.13, 26453.24, 28235.79, 19075.94, 70576.16, 21769.62, 0.102, 0.042, 1.006, 16:43:48.594, 1552855428594
70, 31567.32, 47095.26, 1160.64, 26480.80, 28200.37, 19035.79, 70611.75, 21644.11, 0.000, 0.000, 0.000, 16:43:48.594, 1552855428594
71, 31542.69, 47082.05, 1090.85, 26497.79, 28146.39, 18989.79, 70648.43, 21582.29, 0.000, 0.000, 0.000, 16:43:48.594, 1552855428594
72, 31576.46, 47058.33, 1143.98, 26460.40, 28165.05, 19021.13, 70591.86, 21660.72, 0.000, 0.000, 0.000, 16:43:48.594, 1552855428594
73, 31606.93, 47076.95, 1217.88, 26448.60, 28218.85, 19044.67, 70559.91, 21737.61, 0.000, 0.000, 0.000, 16:43:48.595, 1552855428595
74, 31580.82, 47096.75, 1178.99, 26478.28, 28198.38, 18994.49, 70602.74, 21679.47, 0.000, 0.000, 0.000, 16:43:48.595, 1552855428595
75, 31548.84, 47088.60, 1100.20, 26506.13, 28157.01, 19016.75, 70645.46, 21563.17, 0.000, 0.000, 0.000, 16:43:48.595, 1552855428595
76, 31571.90, 47060.57, 1130.19, 26472.85, 28152.94, 19005.31, 70598.48, 21626.36, 0.000, 0.000, 0.000, 16:43:48.595, 1552855428595
77, 31611.29, 47077.09, 1218.51, 26454.83, 28213.11, 19031.32, 70560.74, 21744.85, 0.000, 0.000, 0.000, 16:43:48.595, 1552855428595
78, 31593.88, 47100.64, 1198.08, 26480.80, 28223.59, 19048.49, 70603.30, 21715.79, 0.000, 0.000, 0.000, 16:43:48.595, 1552855428595
79, 31554.38, 47093.09, 1109.29, 26505.41, 28157.70, 18992.68, 70637.79, 21565.88, 0.096, 0.040, 1.010, 16:43:48.595, 1552855428595
80, 31568.89, 47063.56, 1117.45, 26479.93, 28140.20, 18988.88, 70596.38, 21577.93, 0.000, 0.000, 0.000, 16:43:48.595, 1552855428595
81, 31616.50, 47076.19, 1211.00, 26456.22, 28214.07, 19050.82, 70567.43, 21756.07, 0.000, 0.000, 0.000, 16:43:48.595, 1552855428595
82, 31600.00, 47097.47, 1203.26, 26470.86, 28228.31, 19049.18, 70587.70, 21730.70, 0.000, 0.000, 0.000, 16:43:48.595, 1552855428595
83, 31555.70, 47090.74, 1112.85, 26496.03, 28157.59, 18987.92, 70614.37, 21547.93, 0.000, 0.000, 0.000, 16:43:48.595, 1552855428595
84, 31565.69, 47069.17, 1102.57, 26486.39, 28139.68, 18984.19, 70612.42, 21588.90, 0.000, 0.000, 0.000, 16:43:48.595, 1552855428595
85, 31619.51, 47074.36, 1203.57, 26460.02, 28206.74, 19034.25, 70566.87, 21731.73, 0.000, 0.000, 0.000, 16:43:48.595, 1552855428595
86, 31620.01, 47101.92, 1226.53, 26475.04, 28235.97, 19041.72, 70572.70, 21720.42, 0.000, 0.000, 0.000, 16:43:48.595, 1552855428595
87, 31569.11, 47098.79, 1137.73, 26500.41, 28180.03, 19004.64, 70615.26, 21592.03, 0.000, 0.000, 0.000, 16:43:48.595, 1552855428595
88, 31567.32, 47081.58, 1104.69, 26503.80, 28153.56, 19007.34, 70637.34, 21611.41, 0.094, 0.046, 1.004, 16:43:48.595, 1552855428595
89, 31618.33, 47077.15, 1196.38, 26471.24, 28205.04, 19042.57, 70582.94, 21732.55, 0.000, 0.000, 0.000, 16:43:48.595, 1552855428595
90, 31623.38, 47096.53, 1230.91, 26470.54, 28241.72, 19053.32, 70574.20, 21762.28, 0.000, 0.000, 0.000, 16:43:48.595, 1552855428595
91, 31592.51, 47111.91, 1166.00, 26511.80, 28215.75, 19046.50, 70636.27, 21665.68, 0.000, 0.000, 0.000, 16:43:48.595, 1552855428595
92, 31569.51, 47087.82, 1100.58, 26510.98, 28159.64, 19007.30, 70648.14, 21592.03, 0.000, 0.000, 0.000, 16:43:48.595, 1552855428595
93, 31613.03, 47075.21, 1175.28, 26474.03, 28195.54, 19035.35, 70590.85, 21696.12, 0.000, 0.000, 0.000, 16:43:48.595, 1552855428595
94, 31637.35, 47104.33, 1239.47, 26475.08, 28259.51, 19081.04, 70589.27, 21789.33, 0.000, 0.000, 0.000, 16:43:48.596, 1552855428596
95, 31599.82, 47116.20, 1178.45, 26502.71, 28223.48, 19041.50, 70631.55, 21687.43, 0.000, 0.000, 0.000, 16:43:48.596, 1552855428596
96, 31557.85, 47084.64, 1092.15, 26501.35, 28136.49, 18963.11, 70628.74, 21545.58, 0.000, 0.000, 0.000, 16:43:48.596, 1552855428596
97, 31592.78, 47060.72, 1148.01, 26464.98, 28162.62, 19011.41, 70573.53, 21627.64, 0.000, 0.000, 0.000, 16:43:48.596, 1552855428596
98, 31629.44, 47087.61, 1231.98, 26460.58, 28244.76, 19088.23, 70573.41, 21788.68, 0.096, 0.046, 1.002, 16:43:48.596, 1552855428596
99, 31593.63, 47100.58, 1184.87, 26482.55, 28225.54, 19060.88, 70614.61, 21741.56, 0.000, 0.000, 0.000, 16:43:48.596, 1552855428596
100, 31563.37, 47094.30, 1106.70, 26511.49, 28162.48, 19014.31, 70649.26, 21615.39, 0.000, 0.000, 0.000, 16:43:48.596, 1552855428596
101, 31596.34, 47073.44, 1144.45, 26486.77, 28166.13, 19028.51, 70602.79, 21652.47, 0.000, 0.000, 0.000, 16:43:48.596, 1552855428596
102, 31633.73, 47087.82, 1231.60, 26466.99, 28227.75, 19067.58, 70558.04, 21754.42, 0.000, 0.000, 0.000, 16:43:48.596, 1552855428596
103, 31615.58, 47116.94, 1211.62, 26494.10, 28232.67, 19059.80, 70605.65, 21743.31, 0.000, 0.000, 0.000, 16:43:48.596, 1552855428596
104, 31580.40, 47117.86, 1126.44, 26525.62, 28169.21, 18998.83, 70652.92, 21617.24, 0.000, 0.000, 0.000, 16:43:48.596, 1552855428596
105, 31591.02, 47089.25, 1128.52, 26500.74, 28166.59, 19036.44, 70629.12, 21653.39, 0.000, 0.000, 0.000, 16:43:49.067, 1552855429067
106, 31634.60, 47095.26, 1219.65, 26471.08, 28230.59, 19071.04, 70580.86, 21777.77, 0.000, 0.000, 0.000, 16:43:49.067, 1552855429067
107, 31633.39, 47128.96, 1223.40, 26494.77, 28258.10, 19082.27, 70617.96, 21789.29, 0.000, 0.000, 0.000, 16:43:49.067, 1552855429067
108, 31585.90, 47119.06, 1126.86, 26516.23, 28186.24, 19014.00, 70655.63, 21643.39, 0.098, 0.040, 1.000, 16:43:49.067, 1552855429067
109, 31589.65, 47092.53, 1107.91, 26504.14, 28161.12, 19019.97, 70640.95, 21627.50, 0.000, 0.000, 0.000, 16:43:49.068, 1552855429068
110, 31642.83, 47094.99, 1206.01, 26475.15, 28226.79, 19074.46, 70587.95, 21759.38, 0.000, 0.000, 0.000, 16:43:49.068, 1552855429068
111, 31646.25, 47125.03, 1235.96, 26492.52, 28263.98, 19095.77, 70605.34, 21790.29, 0.000, 0.000, 0.000, 16:43:49.068, 1552855429068
112, 31599.62, 47124.70, 1150.96, 26518.80, 28206.13, 19049.90, 70653.98, 21671.98, 0.000, 0.000, 0.000, 16:43:49.068, 1552855429068
113, 31584.53, 47094.66, 1105.72, 26511.98, 28156.04, 19016.53, 70645.57, 21610.74, 0.000, 0.000, 0.000, 16:43:49.068, 1552855429068
114, 31636.28, 47091.05, 1197.70, 26482.70, 28207.10, 19056.38, 70592.02, 21735.08, 0.000, 0.000, 0.000, 16:43:49.068, 1552855429068
115, 31652.24, 47123.69, 1244.90, 26491.73, 28264.76, 19100.79, 70608.04, 21816.44, 0.000, 0.000, 0.000, 16:43:49.068, 1552855429068
116, 31606.46, 47126.19, 1167.61, 26514.89, 28217.04, 19053.48, 70648.41, 21697.80, 0.000, 0.000, 0.000, 16:43:49.068, 1552855429068
117, 31580.76, 47100.33, 1099.68, 26515.61, 28162.33, 19020.69, 70658.71, 21624.06, 0.000, 0.000, 0.000, 16:43:49.068, 1552855429068
118, 31624.68, 47084.26, 1169.51, 26482.41, 28197.04, 19050.03, 70599.28, 21718.63, 0.096, 0.040, 1.004, 16:43:49.068, 1552855429068
119, 31647.74, 47110.05, 1233.88, 26482.30, 28257.16, 19089.22, 70588.75, 21802.81, 0.000, 0.000, 0.000, 16:43:49.068, 1552855429068
120, 31611.56, 47124.00, 1179.39, 26508.77, 28234.01, 19070.69, 70640.88, 21729.98, 0.000, 0.000, 0.000, 16:43:49.068, 1552855429068
121, 31574.74, 47096.84, 1094.14, 26511.87, 28163.49, 19021.71, 70654.17, 21612.21, 0.000, 0.000, 0.000, 16:43:49.068, 1552855429068
122, 31610.71, 47073.24, 1146.40, 26480.02, 28180.32, 19041.67, 70599.66, 21686.02, 0.000, 0.000, 0.000, 16:43:49.068, 1552855429068
123, 31646.18, 47097.54, 1229.57, 26476.71, 28250.82, 19096.62, 70580.57, 21801.09, 0.000, 0.000, 0.000, 16:43:49.068, 1552855429068
124, 31614.84, 47113.36, 1190.28, 26499.45, 28233.78, 19071.49, 70614.81, 21731.28, 0.000, 0.000, 0.000, 16:43:49.068, 1552855429068
125, 31575.86, 47098.43, 1102.52, 26516.79, 28165.28, 19013.31, 70646.15, 21607.68, 0.000, 0.000, 0.000, 16:43:49.068, 1552855429068
126, 31603.85, 47073.91, 1133.37, 26490.84, 28170.19, 19032.38, 70604.98, 21657.90, 0.000, 0.000, 0.000, 16:43:49.068, 1552855429068
127, 31650.94, 47095.14, 1228.54, 26479.69, 28247.53, 19092.30, 70580.01, 21803.25, 0.000, 0.000, 0.000, 16:43:49.068, 1552855429068
128, 31631.43, 47120.05, 1209.92, 26503.60, 28254.91, 19093.80, 70618.45, 21775.70, 0.100, 0.036, 1.002, 16:43:49.068, 1552855429068
129, 31584.00, 47110.41, 1115.51, 26527.00, 28188.07, 19040.47, 70660.21, 21644.51, 0.000, 0.000, 0.000, 16:43:49.069, 1552855429069
130, 31603.15, 47087.28, 1125.10, 26515.11, 28175.15, 19036.44, 70630.41, 21655.64, 0.000, 0.000, 0.000, 16:43:49.069, 1552855429069
131, 31656.35, 47101.18, 1224.56, 26496.09, 28241.32, 19084.46, 70585.64, 21786.36, 0.000, 0.000, 0.000, 16:43:49.069, 1552855429069
132, 31652.60, 47134.22, 1231.45, 26518.64, 28268.00, 19104.75, 70620.54, 21794.80, 0.000, 0.000, 0.000, 16:43:49.069, 1552855429069
133, 31606.53, 47132.29, 1140.48, 26541.82, 28207.19, 19057.16, 70667.23, 21663.60, 0.000, 0.000, 0.000, 16:43:49.069, 1552855429069
134, 31607.36, 47105.29, 1118.32, 26528.93, 28171.00, 19031.55, 70645.79, 21635.82, 0.000, 0.000, 0.000, 16:43:49.069, 1552855429069
135, 31648.04, 47098.41, 1203.80, 26493.32, 28227.44, 19076.07, 70590.07, 21769.77, 0.000, 0.000, 0.000, 16:43:49.069, 1552855429069
136, 31646.52, 47124.43, 1224.72, 26501.17, 28264.52, 19097.91, 70606.95, 21806.25, 0.000, 0.000, 0.000, 16:43:49.069, 1552855429069
137, 31608.47, 47132.21, 1148.16, 26530.20, 28217.42, 19058.10, 70659.63, 21689.10, 0.000, 0.000, 0.000, 16:43:49.069, 1552855429069
138, 31597.27, 47105.94, 1105.74, 26527.81, 28170.71, 19027.62, 70653.37, 21624.44, 0.102, 0.034, 1.008, 16:43:49.069, 1552855429069
139, 31641.08, 47092.13, 1186.70, 26490.28, 28215.34, 19065.10, 70592.38, 21745.63, 0.000, 0.000, 0.000, 16:43:49.069, 1552855429069
140, 31651.05, 47115.31, 1230.17, 26491.91, 28264.05, 19095.61, 70594.98, 21811.28, 0.000, 0.000, 0.000, 16:43:49.069, 1552855429069
141, 31609.19, 47120.07, 1159.12, 26517.48, 28220.75, 19057.79, 70639.04, 21705.24, 0.000, 0.000, 0.000, 16:43:49.069, 1552855429069
142, 31585.47, 47096.22, 1095.39, 26522.82, 28161.25, 19020.08, 70644.50, 21608.97, 0.000, 0.000, 0.000, 16:43:49.069, 1552855429069
143, 31626.80, 47078.05, 1164.70, 26487.67, 28190.69, 19045.50, 70583.59, 21705.58, 0.000, 0.000, 0.000, 16:43:49.069, 1552855429069
144, 31655.70, 47106.70, 1234.04, 26489.16, 28258.93, 19097.75, 70583.23, 21813.40, 0.000, 0.000, 0.000, 16:43:49.069, 1552855429069
145, 31622.11, 47119.02, 1180.60, 26515.16, 28233.18, 19073.73, 70628.80, 21727.08, 0.000, 0.000, 0.000, 16:43:49.069, 1552855429069
146, 31587.48, 47096.44, 1098.72, 26524.79, 28168.38, 19030.45, 70650.04, 21615.12, 0.000, 0.000, 0.000, 16:43:49.069, 1552855429069
147, 31620.43, 47074.65, 1147.52, 26492.27, 28184.01, 19046.55, 70599.68, 21691.36, 0.000, 0.000, 0.000, 16:43:49.069, 1552855429069
148, 31655.50, 47099.28, 1229.99, 26485.90, 28251.93, 19093.87, 70579.97, 21804.51, 0.100, 0.032, 1.006, 16:43:49.069, 1552855429069
149, 31631.16, 47120.56, 1196.65, 26514.04, 28245.59, 19081.46, 70623.04, 21751.85, 0.000, 0.000, 0.000, 16:43:49.070, 1552855429070
150, 31596.38, 47110.23, 1110.84, 26537.15, 28190.94, 19049.72, 70664.93, 21645.21, 0.000, 0.000, 0.000, 16:43:49.070, 1552855429070
151, 31615.67, 47078.23, 1128.74, 26502.26, 28179.18, 19044.20, 70612.42, 21674.75, 0.000, 0.000, 0.000, 16:43:49.070, 1552855429070
152, 31659.10, 47095.88, 1218.75, 26484.89, 28250.77, 19096.95, 70579.81, 21804.82, 0.000, 0.000, 0.000, 16:43:49.070, 1552855429070
153, 31643.56, 47122.84, 1206.77, 26511.98, 28263.40, 19095.03, 70617.96, 21779.79, 0.000, 0.000, 0.000, 16:43:49.070, 1552855429070
154, 31599.20, 47114.48, 1116.60, 26536.75, 28201.29, 19047.78, 70662.94, 21655.62, 0.000, 0.000, 0.000, 16:43:49.070, 1552855429070
155, 31609.43, 47088.44, 1116.42, 26516.75, 28183.47, 19045.21, 70634.21, 21659.80, 0.000, 0.000, 0.000, 16:43:49.070, 1552855429070
156, 31655.81, 47100.02, 1213.23, 26494.39, 28250.32, 19097.73, 70590.14, 21784.88, 0.000, 0.000, 0.000, 16:43:49.070, 1552855429070
157, 31653.60, 47133.93, 1224.18, 26518.44, 28278.55, 19112.91, 70622.99, 21801.31, 0.000, 0.000, 0.000, 16:43:49.070, 1552855429070
158, 31608.14, 47129.52, 1135.56, 26543.79, 28223.52, 19074.40, 70673.62, 21695.12, 0.096, 0.036, 1.002, 16:43:49.070, 1552855429070
159, 31615.83, 47107.84, 1118.93, 26538.52, 28195.00, 19061.37, 70660.19, 21667.42, 0.000, 0.000, 0.000, 16:43:49.070, 1552855429070
160, 31660.22, 47099.93, 1203.89, 26500.45, 28245.21, 19101.11, 70599.66, 21784.99, 0.000, 0.000, 0.000, 16:43:49.070, 1552855429070
161, 31654.12, 47117.81, 1222.55, 26503.94, 28279.22, 19119.66, 70608.24, 21817.11, 0.000, 0.000, 0.000, 16:43:49.070, 1552855429070
162, 31612.03, 47121.14, 1147.16, 26535.41, 28234.48, 19082.47, 70656.97, 21704.08, 0.000, 0.000, 0.000, 16:43:49.070, 1552855429070
163, 31602.77, 47096.09, 1103.51, 26534.83, 28188.14, 19055.80, 70654.76, 21646.35, 0.000, 0.000, 0.000, 16:43:49.070, 1552855429070
164, 31645.55, 47081.27, 1180.71, 26492.87, 28224.29, 19085.06, 70589.76, 21753.48, 0.000, 0.000, 0.000, 16:43:49.070, 1552855429070
165, 31659.79, 47109.23, 1229.10, 26497.01, 28273.50, 19116.20, 70589.13, 21815.32, 0.000, 0.000, 0.000, 16:43:49.070, 1552855429070
166, 31620.90, 47120.38, 1164.26, 26528.81, 28237.18, 19083.11, 70635.89, 21712.26, 0.000, 0.000, 0.000, 16:43:49.070, 1552855429070
167, 31597.52, 47097.88, 1099.06, 26536.86, 28178.57, 19045.12, 70647.45, 21627.97, 0.000, 0.000, 0.000, 16:43:49.070, 1552855429070
168, 31637.75, 47079.01, 1162.04, 26498.51, 28204.53, 19069.66, 70586.05, 21714.79, 0.098, 0.036, 1.006, 16:43:49.070, 1552855429070
169, 31660.42, 47104.87, 1224.61, 26493.19, 28263.42, 19111.14, 70577.06, 21806.99, 0.000, 0.000, 0.000, 16:43:49.070, 1552855429070
170, 31622.60, 47115.42, 1170.65, 26517.55, 28236.53, 19081.04, 70618.41, 21723.77, 0.000, 0.000, 0.000, 16:43:49.071, 1552855429071
171, 31589.43, 47098.14, 1091.53, 26531.43, 28175.29, 19037.74, 70645.59, 21617.20, 0.000, 0.000, 0.000, 16:43:49.071, 1552855429071
172, 31625.48, 47079.25, 1142.13, 26501.41, 28193.69, 19060.49, 70596.59, 21686.67, 0.000, 0.000, 0.000, 16:43:49.071, 1552855429071
173, 31658.90, 47101.54, 1223.60, 26492.31, 28267.67, 19119.86, 70578.89, 21809.67, 0.000, 0.000, 0.000, 16:43:49.071, 1552855429071
174, 31631.65, 47119.09, 1188.58, 26516.68, 28256.67, 19105.80, 70618.08, 21758.21, 0.000, 0.000, 0.000, 16:43:49.071, 1552855429071
175, 31586.88, 47098.45, 1095.66, 26528.66, 28181.48, 19049.90, 70643.71, 21626.32, 0.000, 0.000, 0.000, 16:43:49.071, 1552855429071
176, 31604.92, 47066.09, 1113.16, 26493.95, 28171.13, 19048.33, 70595.79, 21655.40, 0.000, 0.000, 0.000, 16:43:49.071, 1552855429071
177, 31643.05, 47075.63, 1199.98, 26470.70, 28237.79, 19099.95, 70558.55, 21785.26, 0.000, 0.000, 0.000, 16:43:49.071, 1552855429071
178, 31625.55, 47097.63, 1186.23, 26493.19, 28245.74, 19100.37, 70589.89, 21758.95, 0.100, 0.038, 1.010, 16:43:49.071, 1552855429071
179, 31583.66, 47095.08, 1098.34, 26521.80, 28186.42, 19057.16, 70638.46, 21639.44, 0.000, 0.000, 0.000, 16:43:49.071, 1552855429071
180, 31598.23, 47071.48, 1098.66, 26506.80, 28172.99, 19055.35, 70616.63, 21650.39, 0.000, 0.000, 0.000, 16:43:49.071, 1552855429071
181, 31646.25, 47078.18, 1194.95, 26482.57, 28243.02, 19105.69, 70572.70, 21784.12, 0.000, 0.000, 0.000, 16:43:49.071, 1552855429071
182, 31639.63, 47107.71, 1205.09, 26505.10, 28273.95, 19123.06, 70600.76, 21796.55, 0.000, 0.000, 0.000, 16:43:49.071, 1552855429071
183, 31593.05, 47105.03, 1116.58, 26532.21, 28217.24, 19080.74, 70649.23, 21676.32, 0.000, 0.000, 0.000, 16:43:49.071, 1552855429071
184, 31593.27, 47083.86, 1094.77, 26526.09, 28187.92, 19068.83, 70642.09, 21655.40, 0.000, 0.000, 0.000, 16:43:49.071, 1552855429071
185, 31633.78, 47076.68, 1181.09, 26489.41, 28239.17, 19109.40, 70581.24, 21775.25, 0.000, 0.000, 0.000, 16:43:49.071, 1552855429071
186, 31638.76, 47107.24, 1211.06, 26502.57, 28280.66, 19135.95, 70596.04, 21818.52, 0.000, 0.000, 0.000, 16:43:49.071, 1552855429071
187, 31596.92, 47112.47, 1136.16, 26532.91, 28229.27, 19093.33, 70641.81, 21696.05, 0.000, 0.000, 0.000, 16:43:49.071, 1552855429071
188, 31583.15, 47088.38, 1089.56, 26534.00, 28180.59, 19063.53, 70643.87, 21631.30, 0.102, 0.038, 1.014, 16:43:49.071, 1552855429071
189, 31631.45, 47081.64, 1174.87, 26504.94, 28228.69, 19102.52, 70592.53, 21754.35, 0.000, 0.000, 0.000, 16:43:49.071, 1552855429071
190, 31654.52, 47116.43, 1230.75, 26517.10, 28292.79, 19154.10, 70606.61, 21846.10, 0.000, 0.000, 0.000, 16:43:49.072, 1552855429072
191, 31611.80, 47120.92, 1159.18, 26542.20, 28256.20, 19123.62, 70653.55, 21749.81, 0.000, 0.000, 0.000, 16:43:49.072, 1552855429072
192, 31588.24, 47099.59, 1095.17, 26550.74, 28201.33, 19088.48, 70671.59, 21661.07, 0.000, 0.000, 0.000, 16:43:49.072, 1552855429072
193, 31635.61, 47087.73, 1167.54, 26520.90, 28233.40, 19118.52, 70620.49, 21756.25, 0.000, 0.000, 0.000, 16:43:49.072, 1552855429072
194, 31661.56, 47112.45, 1233.46, 26516.88, 28296.95, 19164.01, 70608.78, 21856.90, 0.000, 0.000, 0.000, 16:43:49.072, 1552855429072
195, 31620.52, 47118.82, 1173.78, 26535.50, 28269.05, 19137.83, 70645.77, 21774.42, 0.000, 0.000, 0.000, 16:43:49.072, 1552855429072
196, 31589.79, 47105.36, 1096.67, 26552.42, 28211.66, 19101.08, 70679.05, 21672.63, 0.000, 0.000, 0.000, 16:43:49.072, 1552855429072
197, 31632.25, 47088.20, 1148.88, 26526.36, 28229.51, 19122.30, 70635.96, 21743.64, 0.104, 0.042, 1.010, 16:43:49.072, 1552855429072
198, 31661.27, 47101.34, 1225.48, 26508.56, 28293.35, 19168.72, 70607.39, 21857.59, 0.000, 0.000, 0.000, 16:43:49.073, 1552855429073
199, 31641.53, 47128.38, 1199.71, 26539.19, 28292.59, 19162.22, 70653.70, 21813.92, 0.000, 0.000, 0.000, 16:43:49.073, 1552855429073
200, 31609.68, 47124.09, 1118.91, 26566.30, 28230.61, 19116.53, 70695.57, 21694.63, 0.000, 0.000, 0.000, 16:43:49.073, 1552855429073
201, 31635.05, 47102.19, 1143.09, 26543.93, 28226.41, 19119.19, 70658.09, 21728.42, 0.000, 0.000, 0.000, 16:43:49.073, 1552855429073
202, 31676.69, 47115.44, 1234.76, 26524.23, 28294.96, 19170.69, 70618.79, 21856.68, 0.000, 0.000, 0.000, 16:43:49.073, 1552855429073
203, 31669.25, 47148.39, 1232.72, 26554.05, 28315.28, 19184.12, 70660.77, 21849.75, 0.000, 0.000, 0.000, 16:43:49.073, 1552855429073
204, 31623.89, 47139.76, 1139.31, 26575.62, 28252.96, 19136.06, 70703.84, 21722.52, 0.000, 0.000, 0.000, 16:43:49.073, 1552855429073
205, 31636.39, 47113.41, 1136.99, 26559.91, 28231.39, 19128.02, 70677.89, 21724.96, 0.000, 0.000, 0.000, 16:43:49.073, 1552855429073
206, 31686.90, 47122.50, 1234.44, 26538.81, 28302.65, 19182.89, 70635.04, 21865.12, 0.000, 0.000, 0.000, 16:43:49.073, 1552855429073
207, 31684.31, 47153.98, 1246.07, 26559.24, 28335.28, 19200.55, 70664.95, 21881.64, 0.098, 0.040, 1.008, 16:43:49.073, 1552855429073
208, 31645.24, 47158.78, 1162.49, 26589.23, 28281.64, 19156.32, 70717.19, 21755.24, 0.000, 0.000, 0.000, 16:43:49.073, 1552855429073
209, 31643.23, 47133.82, 1132.07, 26579.49, 28244.11, 19138.55, 70707.82, 21723.73, 0.000, 0.000, 0.000, 16:43:49.073, 1552855429073
210, 31690.21, 47131.00, 1221.41, 26546.96, 28298.00, 19181.57, 70652.50, 21851.82, 0.000, 0.000, 0.000, 16:43:49.073, 1552855429073
211, 31693.16, 47157.73, 1251.94, 26553.89, 28336.02, 19208.17, 70662.45, 21896.44, 0.000, 0.000, 0.000, 16:43:49.073, 1552855429073
212, 31650.65, 47161.75, 1175.99, 26580.07, 28285.55, 19167.92, 70712.13, 21786.54, 0.000, 0.000, 0.000, 16:43:49.073, 1552855429073
213, 31645.06, 47146.42, 1133.30, 26588.00, 28242.97, 19146.93, 70723.22, 21730.48, 0.000, 0.000, 0.000, 16:43:49.073, 1552855429073
214, 31683.96, 47130.33, 1210.26, 26551.46, 28281.37, 19181.91, 70659.07, 21837.50, 0.000, 0.000, 0.000, 16:43:49.073, 1552855429073
215, 31704.27, 47163.03, 1269.94, 26559.48, 28341.92, 19225.70, 70664.86, 21918.05, 0.000, 0.000, 0.000, 16:43:49.073, 1552855429073
216, 31666.54, 47174.05, 1206.30, 26584.81, 28308.24, 19196.19, 70712.67, 21820.89, 0.000, 0.000, 0.000, 16:43:49.074, 1552855429074
217, 31641.66, 47153.48, 1137.44, 26592.83, 28250.26, 19158.82, 70729.19, 21729.49, 0.100, 0.040, 1.004, 16:43:49.074, 1552855429074
218, 31673.58, 47126.44, 1190.16, 26551.77, 28267.18, 19175.18, 70661.55, 21807.61, 0.000, 0.000, 0.000, 16:43:49.074, 1552855429074
219, 31702.82, 47152.43, 1261.64, 26549.83, 28333.83, 19220.51, 70651.09, 21913.11, 0.000, 0.000, 0.000, 16:43:49.074, 1552855429074
220, 31676.85, 47171.59, 1218.80, 26579.55, 28318.23, 19202.29, 70698.68, 21844.74, 0.000, 0.000, 0.000, 16:43:49.074, 1552855429074
221, 31641.87, 47153.30, 1136.27, 26594.17, 28256.72, 19159.18, 70727.04, 21731.57, 0.000, 0.000, 0.000, 16:43:49.074, 1552855429074
222, 31676.15, 47131.09, 1181.16, 26568.15, 28266.39, 19172.19, 70677.71, 21786.63, 0.000, 0.000, 0.000, 16:43:49.074, 1552855429074
223, 31718.11, 47158.16, 1270.83, 26562.66, 28340.54, 19226.52, 70659.63, 21917.43, 0.000, 0.000, 0.000, 16:43:49.074, 1552855429074
224, 31698.53, 47185.29, 1246.36, 26590.44, 28347.51, 19229.38, 70709.48, 21891.83, 0.000, 0.000, 0.000, 16:43:49.074, 1552855429074
225, 31657.04, 47173.51, 1158.78, 26610.06, 28285.82, 19184.26, 70747.67, 21764.52, 0.000, 0.000, 0.000, 16:43:49.548, 1552855429548
226, 31670.54, 47136.83, 1168.71, 26576.11, 28264.25, 19175.09, 70696.42, 21784.08, 0.000, 0.000, 0.000, 16:43:49.548, 1552855429548
227, 31713.23, 47148.12, 1260.15, 26557.54, 28330.68, 19228.51, 70655.96, 21916.18, 0.094, 0.036, 1.002, 16:43:49.549, 1552855429549
228, 31698.48, 47172.39, 1247.96, 26576.07, 28343.96, 19233.07, 70688.75, 21900.98, 0.000, 0.000, 0.000, 16:43:49.549, 1552855429549
229, 31654.16, 47166.16, 1155.76, 26595.87, 28280.21, 19180.99, 70731.49, 21769.97, 0.000, 0.000, 0.000, 16:43:49.549, 1552855429549
230, 31654.00, 47132.81, 1143.60, 26572.45, 28250.28, 19164.14, 70702.16, 21761.10, 0.000, 0.000, 0.000, 16:43:49.549, 1552855429549
231, 31698.64, 47133.57, 1232.16, 26540.46, 28308.84, 19209.96, 70650.46, 21890.78, 0.000, 0.000, 0.000, 16:43:49.550, 1552855429550
232, 31696.98, 47162.11, 1247.43, 26555.41, 28339.17, 19226.97, 70675.01, 21908.84, 0.000, 0.000, 0.000, 16:43:49.550, 1552855429550
233, 31662.14, 47170.02, 1173.11, 26587.47, 28292.48, 19191.07, 70731.96, 21793.13, 0.000, 0.000, 0.000, 16:43:49.550, 1552855429550
234, 31650.87, 47137.52, 1136.05, 26573.38, 28247.44, 19165.84, 70714.08, 21752.09, 0.000, 0.000, 0.000, 16:43:49.550, 1552855429550
235, 31682.21, 47118.13, 1209.79, 26528.64, 28284.52, 19198.76, 70645.41, 21865.71, 0.000, 0.000, 0.000, 16:43:49.551, 1552855429551
236, 31693.30, 47149.13, 1246.89, 26543.23, 28330.10, 19229.34, 70663.02, 21917.18, 0.000, 0.000, 0.000, 16:43:49.551, 1552855429551
237, 31667.53, 47170.54, 1188.51, 26588.81, 28299.45, 19199.03, 70725.59, 21812.80, 0.098, 0.036, 1.002, 16:43:49.551, 1552855429551
238, 31653.04, 47148.10, 1136.94, 26592.67, 28249.43, 19167.71, 70730.48, 21743.46, 0.000, 0.000, 0.000, 16:43:49.551, 1552855429551
239, 31699.15, 47135.56, 1214.37, 26560.98, 28289.10, 19207.12, 70675.19, 21857.93, 0.000, 0.000, 0.000, 16:43:49.551, 1552855429551
240, 31717.48, 47162.58, 1266.38, 26564.00, 28345.23, 19247.82, 70675.84, 21940.49, 0.000, 0.000, 0.000, 16:43:49.551, 1552855429551
241, 31675.13, 47170.25, 1197.23, 26587.98, 28312.89, 19213.25, 70718.48, 21843.38, 0.000, 0.000, 0.000, 16:43:49.552, 1552855429552
242, 31646.85, 47149.62, 1125.63, 26596.14, 28255.49, 19171.25, 70734.57, 21746.53, 0.000, 0.000, 0.000, 16:43:49.552, 1552855429552
243, 31688.87, 47131.73, 1188.44, 26562.12, 28275.45, 19198.90, 70681.04, 21833.88, 0.000, 0.000, 0.000, 16:43:49.552, 1552855429552
244, 31725.24, 47163.61, 1264.26, 26560.67, 28344.60, 19253.95, 70675.43, 21945.12, 0.000, 0.000, 0.000, 16:43:49.552, 1552855429552
245, 31693.21, 47181.94, 1216.07, 26585.28, 28333.61, 19235.89, 70722.08, 21879.27, 0.000, 0.000, 0.000, 16:43:49.552, 1552855429552
246, 31658.45, 47167.39, 1134.87, 26602.17, 28273.64, 19191.10, 70753.95, 21767.31, 0.000, 0.000, 0.000, 16:43:49.552, 1552855429552
247, 31680.78, 47136.86, 1169.51, 26566.52, 28273.64, 19200.37, 70702.01, 21816.82, 0.104, 0.038, 1.002, 16:43:49.552, 1552855429552
248, 31720.88, 47158.69, 1258.27, 26556.49, 28343.40, 19256.16, 70678.20, 21939.76, 0.000, 0.000, 0.000, 16:43:49.552, 1552855429552
249, 31703.06, 47186.79, 1237.97, 26587.09, 28349.59, 19255.60, 70722.02, 21904.98, 0.000, 0.000, 0.000, 16:43:49.552, 1552855429552
250, 31659.48, 47176.11, 1145.73, 26606.09, 28286.87, 19204.64, 70760.01, 21783.70, 0.000, 0.000, 0.000, 16:43:49.552, 1552855429552
251, 31674.41, 47144.16, 1153.33, 26576.09, 28267.27, 19197.71, 70717.52, 21800.44, 0.000, 0.000, 0.000, 16:43:49.553, 1552855429553
252, 31717.19, 47151.36, 1241.15, 26547.79, 28323.82, 19244.38, 70675.21, 21929.92, 0.000, 0.000, 0.000, 16:43:49.553, 1552855429553
253, 31704.34, 47179.68, 1236.30, 26569.16, 28338.86, 19248.05, 70707.28, 21922.17, 0.000, 0.000, 0.000, 16:43:49.553, 1552855429553
254, 31658.47, 47174.79, 1147.38, 26593.99, 28278.04, 19195.54, 70746.38, 21788.97, 0.000, 0.000, 0.000, 16:43:49.553, 1552855429553
255, 31667.71, 47149.77, 1139.25, 26578.03, 28250.12, 19182.89, 70719.77, 21777.77, 0.000, 0.000, 0.000, 16:43:49.553, 1552855429553
0, 31714.29, 47150.85, 1231.34, 26546.81, 28305.64, 19227.89, 70666.94, 21907.30, 0.000, 0.000, 0.000, 16:43:49.553, 1552855429553
1, 31718.33, 47184.69, 1253.78, 26569.81, 28342.05, 19251.36, 70692.77, 21932.54, 0.106, 0.042, 1.006, 16:43:49.553, 1552855429553
2, 31676.06, 47187.41, 1173.11, 26604.63, 28293.37, 19207.99, 70741.97, 21811.37, 0.000, 0.000, 0.000, 16:43:49.553, 1552855429553
3, 31666.36, 47155.50, 1135.04, 26594.82, 28253.25, 19182.94, 70730.10, 21769.10, 0.000, 0.000, 0.000, 16:43:49.553, 1552855429553
4, 31710.96, 47144.57, 1218.35, 26555.79, 28301.64, 19226.61, 70672.44, 21893.94, 0.000, 0.000, 0.000, 16:43:49.553, 1552855429553
5, 31714.58, 47168.37, 1253.82, 26560.87, 28347.53, 19259.92, 70679.72, 21947.33, 0.000, 0.000, 0.000, 16:43:49.553, 1552855429553
6, 31674.39, 47175.66, 1183.32, 26591.27, 28310.25, 19223.08, 70731.04, 21838.75, 0.000, 0.000, 0.000, 16:43:49.553, 1552855429553
7, 31660.31, 47153.84, 1130.86, 26593.95, 28262.15, 19194.27, 70741.32, 21771.31, 0.000, 0.000, 0.000, 16:43:49.554, 1552855429554
8, 31707.38, 47139.78, 1207.31, 26556.91, 28299.07, 19232.20, 70685.18, 21878.31, 0.000, 0.000, 0.000, 16:43:49.554, 1552855429554
9, 31722.96, 47162.65, 1259.03, 26555.53, 28356.94, 19274.22, 70682.77, 21959.11, 0.000, 0.000, 0.000, 16:43:49.554, 1552855429554
10, 31685.18, 47172.82, 1197.87, 26585.21, 28329.03, 19242.91, 70729.81, 21866.78, 0.000, 0.000, 0.000, 16:43:49.554, 1552855429554
11, 31660.96, 47157.11, 1130.84, 26602.22, 28273.68, 19203.19, 70752.70, 21771.29, 0.104, 0.040, 1.006, 16:43:49.554, 1552855429554
12, 31705.90, 47145.06, 1195.48, 26574.90, 28300.62, 19230.88, 70704.58, 21859.49, 0.000, 0.000, 0.000, 16:43:49.554, 1552855429554
13, 31741.20, 47175.79, 1274.85, 26574.84, 28372.61, 19284.88, 70697.36, 21972.61, 0.000, 0.000, 0.000, 16:43:49.554, 1552855429554
14, 31715.04, 47199.30, 1237.12, 26609.30, 28364.74, 19268.83, 70748.01, 21910.61, 0.000, 0.000, 0.000, 16:43:49.554, 1552855429554
15, 31683.04, 47191.64, 1157.35, 26633.91, 28307.72, 19226.75, 70786.12, 21799.88, 0.000, 0.000, 0.000, 16:43:49.554, 1552855429554
16, 31710.98, 47165.91, 1191.88, 26601.28, 28307.70, 19232.58, 70733.95, 21847.96, 0.000, 0.000, 0.000, 16:43:49.554, 1552855429554
17, 31749.49, 47182.09, 1275.59, 26583.60, 28372.95, 19282.87, 70699.80, 21968.79, 0.000, 0.000, 0.000, 16:43:49.554, 1552855429554
18, 31725.08, 47200.71, 1249.75, 26605.24, 28370.67, 19272.86, 70732.77, 21925.88, 0.000, 0.000, 0.000, 16:43:49.554, 1552855429554
19, 31681.14, 47188.80, 1161.04, 26628.28, 28307.57, 19224.18, 70771.72, 21798.38, 0.000, 0.000, 0.000, 16:43:49.555, 1552855429555
20, 31693.28, 47156.84, 1165.89, 26597.79, 28287.27, 19217.65, 70730.70, 21811.75, 0.000, 0.000, 0.000, 16:43:49.555, 1552855429555
21, 31734.76, 47163.50, 1254.40, 26569.58, 28348.58, 19271.43, 70689.11, 21942.91, 0.110, 0.038, 1.012, 16:43:49.555, 1552855429555
22, 31715.36, 47180.60, 1243.52, 26580.27, 28358.10, 19272.52, 70713.43, 21929.14, 0.000, 0.000, 0.000, 16:43:49.555, 1552855429555
23, 31673.72, 47177.25, 1155.92, 26605.68, 28299.97, 19223.19, 70759.81, 21799.63, 0.000, 0.000, 0.000, 16:43:49.555, 1552855429555
24, 31686.37, 47157.46, 1149.33, 26596.14, 28279.83, 19214.27, 70744.79, 21793.69, 0.000, 0.000, 0.000, 16:43:49.555, 1552855429555
25, 31739.72, 47167.10, 1250.76, 26575.46, 28349.63, 19274.13, 70702.12, 21936.81, 0.000, 0.000, 0.000, 16:43:49.555, 1552855429555
26, 31739.21, 47195.44, 1271.95, 26591.89, 28385.08, 19293.53, 70723.55, 21965.37, 0.000, 0.000, 0.000, 16:43:49.555, 1552855429555
27, 31690.30, 47190.59, 1184.13, 26614.78, 28330.12, 19245.66, 70767.05, 21840.63, 0.000, 0.000, 0.000, 16:43:49.555, 1552855429555
28, 31674.90, 47155.38, 1139.20, 26601.84, 28282.24, 19218.34, 70753.39, 21788.95, 0.000, 0.000, 0.000, 16:43:49.555, 1552855429555
29, 31726.74, 47152.10, 1230.49, 26573.96, 28336.33, 19271.83, 70703.77, 21921.23, 0.000, 0.000, 0.000, 16:43:49.556, 1552855429556
30, 31728.86, 47171.70, 1264.62, 26575.98, 28376.63, 19298.65, 70708.13, 21974.04, 0.000, 0.000, 0.000, 16:43:49.556, 1552855429556
31, 31685.74, 47178.00, 1188.91, 26603.29, 28334.34, 19259.96, 70758.27, 21862.04, 0.106, 0.042, 1.018, 16:43:49.556, 1552855429556
32, 31672.00, 47160.97, 1134.08, 26611.38, 28286.40, 19230.37, 70770.85, 21793.91, 0.000, 0.000, 0.000, 16:43:49.556, 1552855429556
33, 31708.05, 47139.65, 1199.15, 26571.11, 28315.10, 19256.05, 70704.35, 21890.85, 0.000, 0.000, 0.000, 16:43:49.556, 1552855429556
34, 31728.37, 47168.93, 1258.05, 26571.89, 28377.13, 19301.27, 70705.16, 21980.10, 0.000, 0.000, 0.000, 16:43:49.556, 1552855429556
35, 31699.15, 47191.77, 1204.56, 26603.80, 28357.39, 19278.07, 70764.01, 21900.66, 0.000, 0.000, 0.000, 16:43:49.556, 1552855429556
36, 31675.97, 47178.96, 1131.87, 26616.90, 28300.50, 19240.69, 70787.52, 21801.06, 0.000, 0.000, 0.000, 16:43:49.556, 1552855429556
37, 31706.04, 47151.09, 1177.18, 26575.89, 28306.16, 19250.55, 70722.50, 21874.04, 0.000, 0.000, 0.000, 16:43:49.556, 1552855429556
38, 31740.28, 47178.07, 1256.53, 26575.49, 28371.16, 19301.96, 70708.96, 21987.21, 0.000, 0.000, 0.000, 16:43:49.556, 1552855429556
39, 31719.92, 47202.03, 1222.73, 26605.79, 28358.78, 19283.14, 70753.28, 21919.60, 0.000, 0.000, 0.000, 16:43:49.556, 1552855429556
40, 31684.33, 47187.46, 1139.78, 26623.38, 28298.18, 19239.22, 70786.90, 21801.53, 0.000, 0.000, 0.000, 16:43:49.557, 1552855429557
41, 31700.94, 47151.09, 1162.42, 26586.04, 28290.27, 19240.43, 70730.95, 21843.93, 0.100, 0.042, 1.018, 16:43:49.557, 1552855429557
42, 31741.80, 47167.25, 1249.19, 26569.25, 28355.73, 19291.19, 70700.11, 21969.78, 0.000, 0.000, 0.000, 16:43:49.557, 1552855429557
43, 31729.78, 47197.45, 1238.42, 26600.34, 28366.96, 19290.47, 70743.13, 21933.99, 0.000, 0.000, 0.000, 16:43:49.557, 1552855429557
44, 31687.66, 47187.84, 1150.67, 26621.91, 28310.12, 19249.57, 70787.93, 21816.29, 0.000, 0.000, 0.000, 16:43:49.557, 1552855429557
45, 31704.58, 47159.61, 1160.08, 26601.06, 28295.29, 19252.59, 70756.88, 21840.02, 0.000, 0.000, 0.000, 16:43:49.557, 1552855429557
46, 31753.11, 47172.37, 1261.49, 26585.05, 28360.83, 19307.50, 70717.77, 21979.79, 0.000, 0.000, 0.000, 16:43:49.557, 1552855429557
47, 31742.70, 47200.91, 1264.95, 26606.69, 28383.67, 19317.90, 70751.41, 21983.37, 0.000, 0.000, 0.000, 16:43:49.557, 1552855429557
48, 31691.11, 47197.34, 1173.80, 26628.75, 28326.19, 19267.45, 70795.82, 21845.16, 0.000, 0.000, 0.000, 16:43:49.558, 1552855429558
49, 31686.37, 47166.05, 1151.18, 26610.18, 28290.18, 19250.37, 70769.78, 21822.81, 0.000, 0.000, 0.000, 16:43:49.558, 1552855429558
50, 31744.21, 47173.94, 1250.98, 26588.23, 28348.49, 19304.57, 70721.37, 21964.19, 0.104, 0.042, 1.016, 16:43:49.558, 1552855429558
51, 31745.85, 47201.41, 1275.37, 26603.43, 28381.82, 19322.75, 70739.60, 21992.75, 0.000, 0.000, 0.000, 16:43:49.558, 1552855429558
52, 31704.96, 47203.29, 1196.56, 26633.31, 28335.55, 19280.30, 70790.54, 21871.70, 0.000, 0.000, 0.000, 16:43:49.558, 1552855429558
53, 31697.59, 47176.33, 1155.16, 26627.50, 28292.10, 19255.24, 70782.92, 21820.62, 0.000, 0.000, 0.000, 16:43:49.558, 1552855429558
54, 31735.56, 47159.05, 1228.65, 26585.21, 28327.82, 19290.09, 70716.96, 21935.44, 0.000, 0.000, 0.000, 16:43:49.558, 1552855429558
55, 31748.77, 47190.86, 1272.15, 26595.38, 28383.12, 19328.83, 70731.11, 22004.24, 0.000, 0.000, 0.000, 16:43:49.558, 1552855429558
56, 31710.33, 47202.10, 1205.68, 26627.59, 28353.28, 19294.90, 70785.70, 21898.56, 0.000, 0.000, 0.000, 16:43:49.558, 1552855429558
57, 31691.33, 47182.21, 1150.13, 26636.28, 28305.60, 19262.64, 70798.12, 21820.20, 0.000, 0.000, 0.000, 16:43:49.559, 1552855429559
58, 31729.37, 47160.68, 1214.91, 26593.93, 28329.74, 19287.05, 70735.45, 21918.63, 0.000, 0.000, 0.000, 16:43:49.559, 1552855429559
59, 31742.18, 47178.07, 1267.75, 26585.16, 28382.11, 19325.07, 70723.11, 22000.71, 0.000, 0.000, 0.000, 16:43:49.559, 1552855429559
60, 31703.85, 47187.93, 1206.28, 26607.49, 28354.44, 19295.66, 70766.31, 21908.51, 0.102, 0.036, 1.016, 16:43:49.559, 1552855429559
61, 31677.70, 47173.89, 1135.76, 26622.54, 28299.52, 19257.88, 70792.87, 21809.40, 0.000, 0.000, 0.000, 16:43:49.559, 1552855429559
62, 31717.86, 47157.78, 1193.52, 26594.13, 28320.42, 19283.03, 70743.45, 21891.63, 0.000, 0.000, 0.000, 16:43:49.559, 1552855429559
63, 31758.88, 47190.92, 1278.07, 26594.08, 28396.95, 19343.04, 70737.70, 22017.67, 0.000, 0.000, 0.000, 16:43:49.559, 1552855429559
64, 31730.54, 47212.45, 1239.63, 26619.68, 28387.14, 19329.70, 70783.79, 21958.17, 0.000, 0.000, 0.000, 16:43:49.559, 1552855429559
65, 31694.73, 47199.46, 1152.97, 26636.80, 28325.29, 19283.36, 70818.23, 21839.13, 0.000, 0.000, 0.000, 16:43:49.559, 1552855429559
66, 31719.58, 47171.63, 1181.40, 26606.31, 28320.02, 19286.38, 70767.50, 21880.97, 0.000, 0.000, 0.000, 16:43:49.559, 1552855429559
67, 31762.21, 47190.19, 1272.06, 26593.03, 28389.98, 19343.71, 70738.64, 22012.22, 0.000, 0.000, 0.000, 16:43:49.559, 1552855429559
68, 31746.16, 47218.21, 1255.07, 26619.79, 28399.19, 19340.67, 70780.48, 21984.08, 0.000, 0.000, 0.000, 16:43:49.559, 1552855429559
69, 31703.45, 47210.75, 1163.68, 26642.23, 28337.96, 19293.82, 70824.49, 21856.72, 0.000, 0.000, 0.000, 16:43:49.560, 1552855429560
70, 31716.10, 47181.94, 1168.66, 26616.50, 28318.38, 19287.39, 70787.95, 21865.50, 0.104, 0.036, 1.018, 16:43:49.560, 1552855429560
71, 31757.20, 47187.26, 1258.67, 26587.94, 28379.96, 19333.68, 70740.61, 21996.60, 0.000, 0.000, 0.000, 16:43:49.561, 1552855429561
72, 31749.33, 47216.92, 1261.38, 26609.91, 28402.34, 19341.93, 70774.43, 21998.68, 0.000, 0.000, 0.000, 16:43:49.561, 1552855429561
73, 31704.94, 47216.34, 1174.79, 26640.93, 28345.19, 19295.63, 70823.06, 21871.72, 0.000, 0.000, 0.000, 16:43:49.561, 1552855429561
74, 31708.18, 47190.66, 1158.67, 26630.27, 28310.34, 19271.96, 70800.04, 21841.39, 0.000, 0.000, 0.000, 16:43:49.561, 1552855429561
75, 31758.41, 47192.93, 1251.83, 26597.66, 28368.14, 19322.37, 70746.71, 21977.98, 0.000, 0.000, 0.000, 16:43:49.562, 1552855429562
76, 31753.78, 47219.20, 1271.03, 26607.16, 28407.19, 19355.67, 70765.42, 22020.36, 0.000, 0.000, 0.000, 16:43:49.562, 1552855429562
77, 31713.44, 47222.15, 1191.21, 26637.94, 28356.09, 19306.50, 70812.78, 21896.68, 0.000, 0.000, 0.000, 16:43:49.562, 1552855429562
78, 31708.59, 47198.03, 1153.55, 26635.86, 28312.95, 19282.98, 70810.16, 21845.97, 0.000, 0.000, 0.000, 16:43:49.562, 1552855429562
79, 31753.98, 47183.91, 1237.91, 26596.68, 28357.81, 19329.79, 70750.00, 21962.73, 0.000, 0.000, 0.000, 16:43:49.562, 1552855429562
80, 31759.59, 47205.34, 1275.73, 26595.71, 28401.24, 19355.45, 70751.80, 22024.47, 0.094, 0.034, 1.016, 16:43:49.562, 1552855429562
81, 31711.02, 47205.61, 1196.27, 26616.14, 28352.74, 19308.29, 70789.36, 21906.52, 0.000, 0.000, 0.000, 16:43:49.562, 1552855429562
82, 31690.62, 47182.07, 1135.76, 26620.39, 28295.52, 19263.74, 70796.65, 21820.31, 0.000, 0.000, 0.000, 16:43:49.563, 1552855429563
83, 31731.34, 47164.86, 1205.23, 26582.95, 28327.97, 19298.92, 70737.95, 21919.75, 0.000, 0.000, 0.000, 16:43:49.563, 1552855429563
84, 31752.06, 47192.55, 1266.99, 26582.10, 28393.78, 19350.13, 70736.67, 22020.00, 0.000, 0.000, 0.000, 16:43:49.563, 1552855429563
85, 31710.73, 47202.66, 1207.17, 26607.18, 28366.87, 19315.33, 70782.01, 21931.49, 0.000, 0.000, 0.000, 16:43:49.563, 1552855429563
86, 31679.30, 47184.64, 1128.45, 26620.57, 28306.58, 19262.38, 70808.89, 21828.62, 0.000, 0.000, 0.000, 16:43:49.563, 1552855429563
87, 31712.50, 47160.93, 1179.14, 26584.58, 28323.21, 19294.27, 70753.28, 21897.53, 0.000, 0.000, 0.000, 16:43:49.563, 1552855429563
88, 31744.88, 47182.56, 1256.06, 26572.96, 28391.52, 19343.91, 70733.28, 22018.75, 0.000, 0.000, 0.000, 16:43:49.563, 1552855429563
89, 31714.67, 47200.67, 1216.40, 26597.75, 28380.37, 19319.64, 70773.53, 21960.23, 0.000, 0.000, 0.000, 16:43:49.563, 1552855429563
90, 31679.86, 47190.25, 1134.64, 26622.65, 28323.88, 19286.00, 70814.26, 21843.31, 0.098, 0.040, 1.008, 16:43:50.027, 1552855430027
91, 31705.68, 47164.01, 1165.71, 26594.62, 28316.84, 19276.79, 70762.24, 21872.63, 0.000, 0.000, 0.000, 16:43:50.028, 1552855430028
92, 31750.63, 47182.09, 1259.70, 26581.50, 28390.87, 19347.40, 70731.94, 22000.02, 0.000, 0.000, 0.000, 16:43:50.028, 1552855430028
93, 31733.26, 47208.76, 1242.13, 26607.43, 28403.52, 19356.54, 70775.19, 21986.72, 0.000, 0.000, 0.000, 16:43:50.028, 1552855430028
94, 31687.15, 47199.93, 1150.53, 26631.52, 28338.61, 19298.07, 70817.43, 21856.74, 0.000, 0.000, 0.000, 16:43:50.029, 1552855430029
95, 31692.78, 47162.96, 1147.78, 26603.11, 28314.56, 19283.01, 70781.11, 21866.13, 0.000, 0.000, 0.000, 16:43:50.029, 1552855430029
96, 31748.57, 47174.23, 1246.87, 26578.97, 28377.48, 19315.97, 70739.67, 22005.34, 0.000, 0.000, 0.000, 16:43:50.029, 1552855430029
97, 31751.79, 47210.10, 1262.40, 26607.43, 28424.22, 19372.48, 70784.75, 22023.42, 0.000, 0.000, 0.000, 16:43:50.029, 1552855430029
98, 31703.13, 47204.54, 1170.47, 26632.15, 28370.67, 19325.18, 70835.41, 21901.76, 0.000, 0.000, 0.000, 16:43:50.029, 1552855430029
99, 31703.69, 47178.72, 1150.47, 26621.84, 28340.54, 19306.34, 70821.45, 21881.82, 0.000, 0.000, 0.000, 16:43:50.029, 1552855430029
100, 31750.14, 47177.51, 1241.48, 26588.83, 28396.39, 19358.02, 70766.80, 22003.35, 0.100, 0.040, 1.006, 16:43:50.029, 1552855430029
101, 31754.47, 47212.29, 1269.53, 26607.92, 28441.54, 19389.76, 70788.06, 22037.90, 0.000, 0.000, 0.000, 16:43:50.029, 1552855430029
102, 31711.49, 47218.08, 1189.34, 26639.99, 28390.38, 19341.93, 70836.81, 21921.90, 0.000, 0.000, 0.000, 16:43:50.030, 1552855430030
103, 31700.12, 47191.21, 1143.78, 26636.42, 28342.77, 19318.03, 70833.75, 21873.60, 0.000, 0.000, 0.000, 16:43:50.030, 1552855430030
104, 31741.89, 47176.46, 1225.61, 26598.42, 28377.19, 19338.71, 70764.95, 21974.51, 0.000, 0.000, 0.000, 16:43:50.030, 1552855430030
105, 31754.99, 47204.54, 1271.77, 26603.40, 28426.81, 19372.05, 70769.27, 22041.08, 0.000, 0.000, 0.000, 16:43:50.030, 1552855430030
106, 31713.53, 47212.92, 1201.36, 26630.31, 28390.00, 19335.22, 70818.91, 21938.17, 0.000, 0.000, 0.000, 16:43:50.030, 1552855430030
107, 31689.86, 47191.10, 1138.44, 26636.08, 28336.74, 19303.55, 70831.63, 21851.94, 0.000, 0.000, 0.000, 16:43:50.030, 1552855430030
108, 31730.33, 47172.06, 1206.88, 26597.90, 28361.72, 19329.38, 70770.47, 21945.37, 0.000, 0.000, 0.000, 16:43:50.030, 1552855430030
109, 31754.14, 47196.73, 1270.45, 26593.90, 28420.09, 19366.58, 70760.44, 22033.75, 0.000, 0.000, 0.000, 16:43:50.031, 1552855430031
110, 31717.04, 47211.15, 1215.24, 26622.67, 28402.21, 19347.63, 70814.08, 21964.05, 0.102, 0.040, 1.004, 16:43:50.031, 1552855430031
111, 31683.02, 47192.18, 1135.80, 26636.75, 28344.34, 19307.12, 70843.49, 21860.21, 0.000, 0.000, 0.000, 16:43:50.031, 1552855430031
112, 31717.55, 47169.85, 1185.04, 26603.38, 28353.81, 19321.21, 70787.10, 21921.65, 0.000, 0.000, 0.000, 16:43:50.031, 1552855430031
113, 31750.41, 47193.98, 1263.92, 26593.28, 28420.55, 19371.85, 70766.45, 22041.37, 0.000, 0.000, 0.000, 16:43:50.031, 1552855430031
114, 31727.27, 47220.00, 1231.94, 26622.13, 28416.78, 19362.00, 70811.76, 21993.02, 0.000, 0.000, 0.000, 16:43:50.031, 1552855430031
115, 31689.05, 47209.57, 1146.29, 26641.74, 28351.67, 19313.56, 70847.52, 21868.99, 0.000, 0.000, 0.000, 16:43:50.031, 1552855430031
116, 31715.25, 47185.83, 1172.71, 26615.41, 28344.09, 19317.81, 70804.69, 21908.38, 0.000, 0.000, 0.000, 16:43:50.031, 1552855430031
117, 31761.83, 47204.34, 1264.30, 26598.96, 28411.82, 19370.27, 70773.66, 22040.29, 0.000, 0.000, 0.000, 16:43:50.031, 1552855430031
118, 31744.42, 47230.13, 1251.32, 26622.58, 28422.25, 19363.70, 70809.99, 22015.44, 0.000, 0.000, 0.000, 16:43:50.031, 1552855430031
119, 31704.03, 47226.08, 1165.38, 26650.23, 28361.37, 19305.54, 70849.91, 21876.61, 0.000, 0.000, 0.000, 16:43:50.032, 1552855430032
120, 31710.96, 47194.45, 1159.90, 26625.93, 28340.54, 19312.85, 70816.91, 21883.99, 0.104, 0.040, 1.006, 16:43:50.032, 1552855430032
121, 31754.50, 47199.30, 1250.47, 26597.10, 28400.15, 19361.71, 70766.76, 22014.03, 0.000, 0.000, 0.000, 16:43:50.032, 1552855430032
122, 31747.93, 47229.66, 1258.07, 26615.54, 28428.36, 19373.84, 70796.76, 22018.37, 0.000, 0.000, 0.000, 16:43:50.032, 1552855430032
123, 31705.97, 47231.20, 1175.30, 26646.74, 28380.14, 19335.51, 70856.10, 21908.44, 0.000, 0.000, 0.000, 16:43:50.032, 1552855430032
124, 31697.63, 47195.48, 1146.80, 26631.01, 28335.75, 19307.55, 70831.96, 21865.06, 0.000, 0.000, 0.000, 16:43:50.032, 1552855430032
125, 31747.77, 47193.79, 1239.81, 26602.08, 28387.52, 19346.35, 70773.29, 21992.57, 0.000, 0.000, 0.000, 16:43:50.033, 1552855430033
126, 31748.89, 47219.76, 1265.18, 26611.58, 28425.94, 19367.99, 70790.21, 22051.31, 0.000, 0.000, 0.000, 16:43:50.033, 1552855430033
127, 31707.42, 47226.15, 1187.10, 26643.59, 28388.57, 19351.98, 70847.45, 21934.95, 0.000, 0.000, 0.000, 16:43:50.033, 1552855430033
128, 31698.26, 47202.32, 1142.58, 26642.18, 28342.10, 19321.03, 70847.61, 21867.74, 0.000, 0.000, 0.000, 16:43:50.033, 1552855430033
129, 31742.00, 47189.61, 1223.11, 26603.36, 28381.48, 19351.20, 70782.97, 21988.08, 0.000, 0.000, 0.000, 16:43:50.033, 1552855430033
130, 31758.59, 47218.19, 1275.03, 26607.38, 28431.06, 19372.55, 70781.69, 22054.35, 0.100, 0.038, 1.006, 16:43:50.033, 1552855430033
131, 31720.16, 47229.73, 1211.89, 26638.65, 28407.99, 19366.45, 70839.45, 21960.12, 0.000, 0.000, 0.000, 16:43:50.033, 1552855430033
132, 31692.45, 47204.76, 1143.67, 26642.90, 28347.49, 19325.00, 70851.18, 21869.75, 0.000, 0.000, 0.000, 16:43:50.034, 1552855430034
133, 31722.04, 47176.71, 1201.21, 26600.77, 28360.32, 19337.75, 70781.45, 21947.04, 0.000, 0.000, 0.000, 16:43:50.034, 1552855430034
134, 31741.94, 47195.39, 1264.13, 26593.79, 28416.69, 19383.01, 70764.37, 22040.14, 0.000, 0.000, 0.000, 16:43:50.034, 1552855430034
135, 31701.10, 47203.29, 1206.86, 26614.85, 28392.97, 19358.76, 70810.41, 21965.80, 0.000, 0.000, 0.000, 16:43:50.034, 1552855430034
136, 31661.85, 47180.53, 1119.98, 26622.78, 28326.54, 19309.98, 70837.46, 21857.66, 0.000, 0.000, 0.000, 16:43:50.034, 1552855430034
137, 31694.08, 47152.64, 1164.91, 26588.47, 28329.96, 19320.24, 70777.67, 21914.95, 0.000, 0.000, 0.000, 16:43:50.035, 1552855430035
138, 31736.37, 47177.02, 1252.23, 26581.21, 28400.68, 19376.17, 70756.12, 22035.62, 0.000, 0.000, 0.000, 16:43:50.035, 1552855430035
139, 31708.27, 47196.24, 1216.69, 26603.18, 28397.26, 19366.56, 70798.73, 21986.94, 0.000, 0.000, 0.000, 16:43:50.035, 1552855430035
140, 31663.64, 47181.60, 1124.76, 26617.66, 28332.69, 19318.57, 70834.87, 21859.36, 0.098, 0.040, 1.012, 16:43:50.035, 1552855430035
141, 31678.97, 47150.07, 1142.64, 26585.25, 28321.80, 19319.75, 70789.02, 21889.89, 0.000, 0.000, 0.000, 16:43:50.035, 1552855430035
142, 31724.14, 47165.04, 1235.74, 26567.17, 28387.81, 19367.76, 70755.27, 22023.08, 0.000, 0.000, 0.000, 16:43:50.035, 1552855430035
143, 31715.07, 47198.59, 1231.65, 26598.31, 28407.50, 19381.46, 70799.04, 22007.82, 0.000, 0.000, 0.000, 16:43:50.035, 1552855430035
144, 31673.02, 47196.40, 1143.78, 26626.83, 28351.80, 19334.17, 70846.71, 21877.55, 0.000, 0.000, 0.000, 16:43:50.035, 1552855430035
145, 31682.77, 47170.49, 1142.51, 26612.30, 28335.24, 19331.69, 70822.26, 21885.91, 0.000, 0.000, 0.000, 16:43:50.036, 1552855430036
146, 31724.79, 47172.08, 1231.74, 26579.26, 28391.83, 19374.69, 70768.05, 22011.19, 0.000, 0.000, 0.000, 16:43:50.036, 1552855430036
147, 31722.11, 47204.67, 1243.83, 26599.89, 28424.04, 19385.78, 70799.23, 22030.75, 0.000, 0.000, 0.000, 16:43:50.036, 1552855430036
148, 31680.54, 47207.20, 1160.03, 26630.45, 28374.62, 19347.42, 70849.80, 21904.22, 0.000, 0.000, 0.000, 16:43:50.036, 1552855430036
149, 31677.79, 47178.09, 1132.59, 26617.73, 28336.22, 19335.40, 70833.13, 21870.53, 0.104, 0.038, 1.016, 16:43:50.036, 1552855430036
150, 31716.30, 47164.01, 1215.78, 26574.03, 28375.07, 19362.60, 70765.06, 21989.27, 0.000, 0.000, 0.000, 16:43:50.036, 1552855430036
151, 31718.26, 47191.30, 1244.37, 26581.45, 28413.34, 19385.11, 70775.77, 22030.37, 0.000, 0.000, 0.000, 16:43:50.036, 1552855430036
152, 31674.43, 47196.09, 1164.82, 26608.21, 28366.46, 19342.73, 70819.84, 21898.29, 0.000, 0.000, 0.000, 16:43:50.036, 1552855430036
153, 31652.60, 47165.53, 1109.05, 26601.62, 28313.51, 19307.21, 70820.54, 21840.27, 0.000, 0.000, 0.000, 16:43:50.037, 1552855430037
154, 31691.24, 47145.82, 1181.74, 26557.80, 28346.91, 19345.08, 70757.30, 21956.59, 0.000, 0.000, 0.000, 16:43:50.037, 1552855430037
155, 31715.74, 47178.72, 1238.44, 26564.85, 28401.96, 19383.61, 70760.28, 22028.85, 0.000, 0.000, 0.000, 16:43:50.037, 1552855430037
156, 31675.15, 47191.66, 1171.81, 26594.13, 28369.57, 19343.62, 70813.01, 21936.43, 0.000, 0.000, 0.000, 16:43:50.037, 1552855430037
157, 31642.20, 47163.25, 1095.82, 26595.49, 28307.52, 19296.97, 70822.02, 21834.01, 0.000, 0.000, 0.000, 16:43:50.039, 1552855430039
158, 31673.29, 47133.90, 1153.31, 26551.17, 28324.64, 19323.37, 70752.34, 21910.65, 0.000, 0.000, 0.000, 16:43:50.039, 1552855430039
159, 31701.50, 47160.93, 1224.43, 26547.50, 28391.81, 19378.27, 70743.29, 22018.90, 0.102, 0.042, 1.010, 16:43:50.039, 1552855430039
160, 31667.01, 47175.66, 1172.66, 26572.80, 28371.49, 19351.11, 70787.59, 21941.88, 0.000, 0.000, 0.000, 16:43:50.040, 1552855430040
161, 31631.43, 47157.33, 1090.92, 26586.53, 28307.01, 19303.48, 70811.04, 21824.40, 0.000, 0.000, 0.000, 16:43:50.040, 1552855430040
162, 31658.16, 47126.66, 1129.10, 26547.90, 28306.29, 19311.21, 70750.53, 21886.04, 0.000, 0.000, 0.000, 16:43:50.040, 1552855430040
163, 31693.79, 47144.99, 1211.96, 26532.99, 28369.32, 19357.19, 70721.23, 22008.60, 0.000, 0.000, 0.000, 16:43:50.040, 1552855430040
164, 31669.58, 47167.41, 1184.80, 26560.35, 28370.67, 19349.32, 70761.66, 21957.93, 0.000, 0.000, 0.000, 16:43:50.040, 1552855430040
165, 31627.27, 47155.47, 1094.48, 26581.56, 28305.22, 19296.17, 70796.58, 21824.31, 0.000, 0.000, 0.000, 16:43:50.040, 1552855430040
166, 31643.61, 47123.93, 1111.75, 26552.37, 28293.82, 19295.14, 70753.17, 21850.28, 0.000, 0.000, 0.000, 16:43:50.040, 1552855430040
167, 31691.82, 47140.07, 1209.54, 26533.73, 28365.62, 19352.16, 70722.37, 21993.40, 0.000, 0.000, 0.000, 16:43:50.040, 1552855430040
168, 31668.46, 47159.18, 1191.48, 26548.35, 28374.40, 19351.60, 70753.41, 21974.78, 0.000, 0.000, 0.000, 16:43:50.040, 1552855430040
169, 31627.58, 47156.88, 1102.57, 26577.68, 28315.28, 19300.37, 70800.94, 21838.95, 0.102, 0.044, 1.004, 16:43:50.040, 1552855430040
170, 31639.32, 47128.41, 1097.52, 26558.41, 28291.85, 19293.94, 70772.95, 21830.75, 0.000, 0.000, 0.000, 16:43:50.041, 1552855430041
171, 31684.51, 47130.06, 1189.47, 26525.89, 28349.41, 19342.24, 70718.68, 21960.83, 0.000, 0.000, 0.000, 16:43:50.041, 1552855430041
172, 31681.94, 47162.38, 1203.06, 26544.28, 28386.09, 19365.26, 70751.70, 21998.61, 0.000, 0.000, 0.000, 16:43:50.041, 1552855430041
173, 31641.98, 47166.98, 1120.02, 26577.27, 28337.67, 19316.56, 70805.43, 21873.35, 0.000, 0.000, 0.000, 16:43:50.041, 1552855430041
174, 31638.85, 47138.13, 1088.22, 26567.37, 28296.37, 19291.10, 70791.30, 21834.23, 0.000, 0.000, 0.000, 16:43:50.041, 1552855430041
175, 31675.01, 47121.12, 1167.86, 26523.38, 28336.67, 19333.56, 70724.31, 21953.57, 0.000, 0.000, 0.000, 16:43:50.042, 1552855430042
176, 31682.99, 47151.92, 1204.71, 26536.17, 28384.30, 19368.32, 70740.20, 22006.50, 0.000, 0.000, 0.000, 16:43:50.042, 1552855430042
177, 31638.71, 47157.57, 1127.06, 26564.06, 28341.12, 19324.11, 70788.17, 21883.07, 0.000, 0.000, 0.000, 16:43:50.042, 1552855430042
178, 31615.24, 47124.81, 1066.13, 26552.96, 28280.23, 19274.76, 70780.06, 21793.24, 0.000, 0.000, 0.000, 16:43:50.042, 1552855430042
179, 31651.10, 47099.39, 1136.74, 26506.11, 28304.97, 19297.40, 70711.33, 21900.53, 0.102, 0.042, 1.004, 16:43:50.042, 1552855430042
180, 31667.97, 47125.63, 1192.00, 26511.09, 28365.44, 19348.65, 70718.32, 21994.47, 0.000, 0.000, 0.000, 16:43:50.042, 1552855430042
181, 31623.43, 47133.70, 1123.76, 26536.62, 28341.18, 19337.57, 70769.71, 21903.01, 0.000, 0.000, 0.000, 16:43:50.042, 1552855430042
182, 31591.60, 47107.30, 1048.05, 26539.81, 28279.83, 19288.19, 70783.41, 21801.80, 0.000, 0.000, 0.000, 16:43:50.042, 1552855430042
183, 31620.68, 47075.75, 1101.56, 26494.21, 28292.72, 19302.96, 70718.26, 21882.27, 0.000, 0.000, 0.000, 16:43:50.042, 1552855430042
184, 31648.19, 47099.71, 1170.18, 26485.01, 28350.91, 19346.37, 70702.77, 21985.46, 0.000, 0.000, 0.000, 16:43:50.042, 1552855430042
185, 31625.17, 47124.61, 1127.91, 26518.67, 28338.23, 19325.61, 70751.12, 21905.85, 0.000, 0.000, 0.000, 16:43:50.042, 1552855430042
186, 31590.93, 47112.60, 1046.44, 26538.54, 28279.94, 19272.90, 70785.94, 21792.91, 0.000, 0.000, 0.000, 16:43:50.042, 1552855430042
187, 31627.05, 47092.31, 1091.08, 26511.94, 28288.21, 19295.72, 70738.89, 21853.43, 0.000, 0.000, 0.000, 16:43:50.042, 1552855430042
188, 31667.10, 47110.32, 1180.24, 26498.84, 28350.75, 19344.14, 70705.70, 21966.71, 0.000, 0.000, 0.000, 16:43:50.043, 1552855430043
189, 31641.64, 47133.01, 1154.78, 26523.99, 28351.87, 19333.52, 70747.80, 21934.19, 0.100, 0.040, 1.006, 16:43:50.043, 1552855430043
190, 31600.67, 47124.11, 1066.92, 26545.76, 28291.68, 19290.85, 70791.95, 21813.11, 0.000, 0.000, 0.000, 16:43:50.043, 1552855430043
191, 31616.70, 47090.96, 1078.78, 26515.05, 28267.76, 19268.16, 70741.39, 21821.81, 0.000, 0.000, 0.000, 16:43:50.043, 1552855430043
192, 31663.35, 47105.70, 1175.99, 26496.05, 28336.49, 19327.98, 70704.51, 21960.83, 0.000, 0.000, 0.000, 16:43:50.043, 1552855430043
193, 31650.74, 47136.12, 1172.64, 26520.81, 28359.29, 19342.08, 70743.41, 21953.53, 0.000, 0.000, 0.000, 16:43:50.043, 1552855430043
194, 31604.18, 47131.25, 1078.65, 26543.99, 28300.97, 19295.90, 70791.46, 21821.81, 0.000, 0.000, 0.000, 16:43:50.043, 1552855430043
195, 31607.51, 47097.88, 1064.35, 26520.12, 28269.37, 19276.41, 70762.11, 21812.26, 0.000, 0.000, 0.000, 16:43:50.043, 1552855430043
196, 31657.27, 47101.11, 1161.06, 26493.72, 28327.66, 19328.11, 70711.84, 21942.88, 0.000, 0.000, 0.000, 16:43:50.043, 1552855430043
197, 31654.18, 47128.72, 1174.16, 26509.48, 28358.69, 19346.19, 70736.67, 21960.30, 0.000, 0.000, 0.000, 16:43:50.043, 1552855430043
198, 31613.72, 47135.11, 1092.64, 26544.35, 28315.88, 19310.25, 70796.04, 21847.06, 0.000, 0.000, 0.000, 16:43:50.043, 1552855430043
199, 31608.70, 47110.68, 1062.36, 26539.50, 28275.85, 19285.55, 70787.99, 21813.60, 0.098, 0.040, 1.008, 16:43:50.043, 1552855430043
200, 31649.69, 47100.58, 1148.63, 26503.04, 28318.54, 19324.15, 70728.45, 21942.88, 0.000, 0.000, 0.000, 16:43:50.043, 1552855430043
201, 31659.72, 47132.47, 1186.88, 26515.36, 28365.10, 19356.12, 70741.57, 21993.54, 0.000, 0.000, 0.000, 16:43:50.043, 1552855430043
202, 31618.20, 47140.39, 1107.15, 26540.68, 28323.73, 19327.87, 70790.23, 21872.03, 0.000, 0.000, 0.000, 16:43:50.044, 1552855430044
203, 31601.41, 47115.29, 1049.88, 26539.39, 28269.52, 19284.71, 70794.70, 21797.55, 0.000, 0.000, 0.000, 16:43:50.044, 1552855430044
204, 31642.83, 47094.48, 1126.17, 26500.43, 28297.13, 19301.74, 70733.41, 21911.06, 0.000, 0.000, 0.000, 16:43:50.044, 1552855430044
205, 31662.88, 47122.24, 1183.17, 26505.10, 28356.41, 19350.64, 70735.73, 21997.54, 0.000, 0.000, 0.000, 16:43:50.044, 1552855430044
206, 31627.56, 47138.69, 1123.64, 26538.85, 28335.33, 19335.44, 70787.39, 21898.65, 0.000, 0.000, 0.000, 16:43:50.044, 1552855430044
207, 31603.33, 47122.71, 1056.77, 26552.89, 28277.62, 19280.35, 70808.16, 21801.33, 0.000, 0.000, 0.000, 16:43:50.044, 1552855430044
208, 31638.98, 47098.39, 1117.45, 26517.62, 28300.66, 19313.07, 70752.92, 21898.14, 0.000, 0.000, 0.000, 16:43:50.044, 1552855430044
209, 31671.17, 47123.46, 1194.01, 26513.71, 28368.23, 19369.87, 70738.93, 22002.79, 0.096, 0.034, 1.008, 16:43:50.044, 1552855430044
210, 31638.80, 47142.38, 1150.98, 26542.52, 28357.41, 19352.38, 70788.87, 21939.20, 0.000, 0.000, 0.000, 16:43:50.508, 1552855430508
211, 31612.54, 47134.20, 1073.22, 26564.18, 28299.95, 19309.74, 70826.10, 21827.42, 0.000, 0.000, 0.000, 16:43:50.508, 1552855430508
212, 31637.06, 47098.99, 1106.01, 26525.26, 28293.22, 19315.66, 70765.27, 21871.43, 0.000, 0.000, 0.000, 16:43:50.508, 1552855430508
213, 31666.77, 47108.31, 1188.40, 26503.54, 28352.07, 19356.25, 70726.91, 21989.11, 0.000, 0.000, 0.000, 16:43:50.508, 1552855430508
214, 31640.39, 47131.47, 1161.17, 26527.14, 28356.45, 19353.21, 70771.68, 21959.69, 0.000, 0.000, 0.000, 16:43:50.508, 1552855430508
215, 31589.96, 47116.16, 1063.50, 26542.03, 28287.00, 19295.84, 70802.73, 21811.70, 0.000, 0.000, 0.000, 16:43:50.508, 1552855430508
216, 31603.04, 47080.26, 1070.38, 26509.21, 28258.59, 19270.94, 70751.90, 21819.30, 0.000, 0.000, 0.000, 16:43:50.508, 1552855430508
217, 31646.80, 47087.59, 1162.02, 26484.00, 28321.54, 19338.55, 70710.08, 21961.35, 0.000, 0.000, 0.000, 16:43:50.508, 1552855430508
218, 31638.27, 47120.52, 1162.94, 26511.83, 28343.75, 19345.34, 70747.16, 21953.28, 0.000, 0.000, 0.000, 16:43:50.508, 1552855430508
219, 31599.20, 47125.93, 1076.82, 26545.67, 28297.29, 19310.12, 70809.52, 21843.33, 0.098, 0.040, 1.004, 16:43:50.508, 1552855430508
220, 31604.70, 47095.41, 1062.89, 26527.45, 28265.88, 19291.97, 70782.45, 21827.39, 0.000, 0.000, 0.000, 16:43:50.508, 1552855430508
221, 31657.71, 47099.93, 1162.22, 26501.26, 28324.60, 19338.26, 70732.38, 21961.39, 0.000, 0.000, 0.000, 16:43:50.509, 1552855430509
222, 31662.43, 47135.56, 1187.24, 26523.88, 28368.03, 19367.07, 70762.23, 21992.75, 0.000, 0.000, 0.000, 16:43:50.509, 1552855430509
223, 31624.50, 47146.51, 1110.68, 26560.87, 28328.71, 19328.65, 70821.70, 21872.16, 0.000, 0.000, 0.000, 16:43:50.509, 1552855430509
224, 31613.93, 47115.09, 1073.06, 26550.25, 28284.32, 19301.02, 70810.50, 21824.78, 0.000, 0.000, 0.000, 16:43:50.509, 1552855430509
225, 31653.18, 47098.16, 1153.80, 26506.11, 28321.02, 19331.38, 70744.72, 21946.62, 0.000, 0.000, 0.000, 16:43:50.509, 1552855430509
226, 31652.73, 47118.88, 1186.52, 26506.35, 28365.50, 19375.94, 70751.18, 21998.83, 0.000, 0.000, 0.000, 16:43:50.509, 1552855430509
227, 31609.77, 47127.36, 1110.59, 26535.07, 28323.93, 19336.00, 70802.44, 21882.04, 0.000, 0.000, 0.000, 16:43:50.509, 1552855430509
228, 31586.68, 47099.68, 1047.54, 26532.62, 28264.74, 19292.73, 70802.84, 21795.79, 0.000, 0.000, 0.000, 16:43:50.509, 1552855430509
229, 31625.91, 47077.60, 1118.93, 26489.97, 28290.69, 19321.79, 70735.91, 21905.25, 0.104, 0.042, 1.008, 16:43:50.509, 1552855430509
230, 31639.81, 47100.85, 1173.00, 26487.17, 28344.34, 19363.56, 70729.27, 21991.01, 0.000, 0.000, 0.000, 16:43:50.509, 1552855430509
231, 31602.37, 47117.03, 1112.49, 26518.22, 28318.74, 19328.69, 70780.66, 21901.38, 0.000, 0.000, 0.000, 16:43:50.509, 1552855430509
232, 31570.47, 47095.13, 1036.16, 26525.26, 28254.86, 19278.92, 70795.70, 21792.48, 0.000, 0.000, 0.000, 16:43:50.509, 1552855430509
233, 31603.33, 47068.05, 1090.70, 26484.69, 28265.12, 19306.01, 70731.55, 21862.17, 0.000, 0.000, 0.000, 16:43:50.509, 1552855430509
234, 31640.86, 47100.22, 1174.94, 26485.23, 28335.51, 19359.54, 70722.34, 21987.10, 0.000, 0.000, 0.000, 16:43:50.510, 1552855430510
235, 31612.83, 47123.31, 1135.13, 26515.00, 28327.35, 19341.68, 70773.24, 21929.72, 0.000, 0.000, 0.000, 16:43:50.510, 1552855430510
236, 31578.72, 47111.78, 1051.31, 26534.40, 28266.10, 19296.95, 70806.28, 21802.20, 0.000, 0.000, 0.000, 16:43:50.510, 1552855430510
237, 31618.44, 47094.74, 1096.78, 26512.52, 28272.32, 19304.84, 70765.20, 21863.00, 0.000, 0.000, 0.000, 16:43:50.510, 1552855430510
238, 31662.97, 47114.21, 1190.81, 26498.93, 28342.39, 19366.45, 70740.99, 21997.71, 0.000, 0.000, 0.000, 16:43:50.510, 1552855430510
239, 31639.63, 47135.00, 1167.54, 26523.07, 28348.94, 19365.62, 70781.45, 21962.33, 0.106, 0.044, 1.004, 16:43:50.510, 1552855430510
240, 31591.60, 47119.60, 1069.78, 26539.30, 28280.72, 19302.25, 70814.13, 21819.68, 0.000, 0.000, 0.000, 16:43:50.510, 1552855430510
241, 31610.17, 47090.83, 1079.19, 26513.35, 28264.18, 19299.12, 70778.63, 21846.91, 0.000, 0.000, 0.000, 16:43:50.511, 1552855430511
242, 31651.41, 47097.09, 1171.37, 26487.62, 28331.53, 19370.31, 70736.45, 21989.29, 0.000, 0.000, 0.000, 16:43:50.511, 1552855430511
243, 31639.65, 47124.74, 1170.31, 26509.12, 28350.73, 19374.07, 70764.21, 21979.61, 0.000, 0.000, 0.000, 16:43:50.511, 1552855430511
244, 31594.19, 47123.46, 1077.31, 26536.10, 28295.43, 19319.51, 70813.09, 21846.55, 0.000, 0.000, 0.000, 16:43:50.512, 1552855430512
245, 31592.38, 47090.12, 1057.22, 26517.71, 28267.22, 19313.14, 70791.55, 21830.43, 0.000, 0.000, 0.000, 16:43:50.512, 1552855430512
246, 31638.16, 47089.34, 1151.20, 26487.69, 28323.88, 19362.02, 70738.80, 21962.18, 0.000, 0.000, 0.000, 16:43:50.512, 1552855430512
247, 31640.01, 47124.16, 1174.00, 26505.95, 28365.41, 19383.95, 70769.84, 22004.46, 0.000, 0.000, 0.000, 16:43:50.512, 1552855430512
248, 31599.93, 47131.65, 1094.25, 26538.25, 28322.30, 19343.60, 70826.87, 21889.80, 0.000, 0.000, 0.000, 16:43:50.512, 1552855430512
249, 31589.03, 47100.67, 1054.96, 26528.48, 28274.11, 19306.52, 70814.64, 21829.79, 0.100, 0.040, 1.004, 16:43:50.512, 1552855430512
250, 31634.94, 47090.34, 1144.50, 26492.36, 28315.41, 19345.43, 70753.77, 21948.00, 0.000, 0.000, 0.000, 16:43:50.512, 1552855430512
251, 31647.03, 47121.70, 1189.98, 26503.29, 28367.07, 19383.63, 70764.64, 22009.34, 0.000, 0.000, 0.000, 16:43:50.512, 1552855430512
252, 31604.11, 47130.62, 1116.42, 26532.10, 28330.57, 19345.41, 70816.18, 21907.64, 0.000, 0.000, 0.000, 16:43:50.512, 1552855430512
253, 31583.33, 47106.05, 1056.30, 26535.41, 28277.57, 19306.34, 70820.94, 21823.71, 0.000, 0.000, 0.000, 16:43:50.512, 1552855430512
254, 31621.66, 47081.24, 1126.51, 26496.05, 28305.31, 19338.30, 70754.11, 21920.91, 0.000, 0.000, 0.000, 16:43:50.512, 1552855430512
255, 31645.73, 47106.52, 1190.45, 26497.34, 28362.26, 19376.10, 70747.29, 22004.69, 0.000, 0.000, 0.000, 16:43:50.513, 1552855430513
0, 31609.48, 47121.41, 1133.97, 26528.64, 28340.25, 19350.24, 70798.59, 21917.14, 0.000, 0.000, 0.000, 16:43:50.513, 1552855430513
1, 31584.51, 47109.18, 1063.29, 26546.45, 28290.85, 19326.66, 70829.41, 21819.57, 0.000, 0.000, 0.000, 16:43:50.513, 1552855430513
2, 31617.57, 47081.85, 1114.70, 26507.11, 28299.68, 19344.36, 70769.95, 21899.48, 0.102, 0.040, 1.008, 16:43:50.513, 1552855430513
3, 31651.32, 47108.16, 1192.76, 26502.17, 28365.75, 19394.79, 70757.33, 22020.49, 0.000, 0.000, 0.000, 16:43:50.513, 1552855430513
4, 31623.25, 47133.43, 1153.44, 26534.36, 28362.35, 19383.95, 70809.48, 21962.94, 0.000, 0.000, 0.000, 16:43:50.513, 1552855430513
5, 31585.49, 47122.32, 1064.52, 26553.11, 28304.64, 19337.83, 70846.40, 21845.95, 0.000, 0.000, 0.000, 16:43:50.513, 1552855430513
6, 31601.57, 47083.12, 1086.45, 26511.27, 28293.26, 19338.24, 70788.62, 21885.78, 0.000, 0.000, 0.000, 16:43:50.513, 1552855430513
7, 31634.29, 47089.29, 1167.90, 26483.58, 28351.33, 19385.42, 70748.01, 22007.44, 0.000, 0.000, 0.000, 16:43:50.513, 1552855430513
8, 31612.81, 47113.65, 1147.09, 26506.84, 28361.26, 19380.39, 70787.26, 21972.50, 0.000, 0.000, 0.000, 16:43:50.513, 1552855430513
9, 31569.96, 47107.95, 1058.06, 26530.96, 28305.76, 19331.26, 70831.91, 21844.31, 0.000, 0.000, 0.000, 16:43:50.513, 1552855430513
10, 31585.63, 47077.49, 1064.64, 26503.56, 28278.73, 19309.87, 70789.20, 21851.40, 0.000, 0.000, 0.000, 16:43:50.513, 1552855430513
11, 31630.04, 47079.97, 1156.46, 26472.94, 28335.26, 19365.46, 70741.16, 21984.28, 0.000, 0.000, 0.000, 16:43:50.513, 1552855430513
12, 31613.03, 47098.72, 1146.06, 26480.76, 28348.29, 19372.55, 70762.96, 21974.45, 0.102, 0.038, 1.006, 16:43:50.514, 1552855430514
13, 31577.74, 47108.65, 1064.23, 26516.16, 28298.43, 19326.73, 70815.95, 21841.68, 0.000, 0.000, 0.000, 16:43:50.514, 1552855430514
14, 31587.91, 47088.64, 1056.50, 26507.96, 28269.99, 19311.91, 70797.90, 21831.06, 0.000, 0.000, 0.000, 16:43:50.514, 1552855430514
15, 31637.75, 47087.64, 1153.62, 26476.00, 28316.82, 19346.87, 70736.88, 21956.74, 0.000, 0.000, 0.000, 16:43:50.514, 1552855430514
16, 31645.91, 47124.56, 1183.41, 26497.54, 28358.06, 19380.79, 70761.33, 21987.10, 0.000, 0.000, 0.000, 16:43:50.514, 1552855430514
17, 31604.34, 47133.70, 1104.35, 26530.02, 28313.91, 19339.87, 70818.59, 21869.53, 0.000, 0.000, 0.000, 16:43:50.515, 1552855430515
18, 31590.55, 47100.42, 1059.58, 26519.00, 28266.06, 19302.41, 70810.28, 21810.34, 0.000, 0.000, 0.000, 16:43:50.515, 1552855430515
19, 31636.63, 47086.05, 1146.60, 26482.79, 28313.22, 19351.18, 70752.84, 21935.64, 0.000, 0.000, 0.000, 16:43:50.515, 1552855430515
20, 31645.38, 47114.70, 1190.86, 26491.60, 28368.03, 19387.52, 70766.67, 22005.63, 0.000, 0.000, 0.000, 16:43:50.515, 1552855430515
21, 31601.21, 47125.77, 1116.58, 26523.43, 28332.53, 19347.20, 70816.78, 21891.88, 0.000, 0.000, 0.000, 16:43:50.515, 1552855430515
22, 31580.69, 47104.60, 1053.71, 26530.98, 28283.65, 19323.60, 70828.83, 21813.13, 0.096, 0.038, 1.010, 16:43:50.516, 1552855430516
23, 31620.61, 47082.61, 1121.99, 26491.35, 28309.51, 19350.89, 70765.42, 21916.13, 0.000, 0.000, 0.000, 16:43:50.516, 1552855430516
24, 31644.82, 47111.73, 1188.98, 26493.41, 28371.58, 19397.29, 70763.12, 22012.73, 0.000, 0.000, 0.000, 16:43:50.516, 1552855430516
25, 31608.63, 47127.40, 1133.55, 26520.14, 28344.54, 19362.71, 70808.73, 21914.72, 0.000, 0.000, 0.000, 16:43:50.517, 1552855430517
26, 31575.59, 47106.48, 1049.03, 26524.90, 28277.08, 19312.91, 70826.84, 21800.26, 0.000, 0.000, 0.000, 16:43:50.517, 1552855430517
27, 31608.36, 47078.05, 1095.17, 26482.95, 28283.09, 19324.78, 70765.11, 21870.20, 0.000, 0.000, 0.000, 16:43:50.517, 1552855430517
28, 31644.10, 47104.36, 1177.67, 26476.80, 28355.33, 19379.16, 70753.73, 22001.13, 0.000, 0.000, 0.000, 16:43:50.517, 1552855430517
29, 31610.98, 47121.59, 1134.82, 26498.35, 28343.89, 19358.94, 70797.85, 21942.95, 0.000, 0.000, 0.000, 16:43:50.517, 1552855430517
30, 31571.75, 47109.79, 1047.96, 26518.24, 28285.88, 19320.02, 70838.33, 21822.21, 0.000, 0.000, 0.000, 16:43:50.517, 1552855430517
31, 31595.64, 47080.04, 1076.12, 26486.01, 28284.25, 19327.04, 70793.63, 21872.70, 0.000, 0.000, 0.000, 16:43:50.518, 1552855430518
32, 31636.50, 47093.92, 1166.63, 26465.47, 28353.10, 19379.10, 70759.70, 22007.71, 0.094, 0.036, 1.012, 16:43:50.518, 1552855430518
33, 31615.96, 47116.83, 1147.90, 26489.23, 28363.54, 19376.48, 70796.42, 21973.91, 0.000, 0.000, 0.000, 16:43:50.518, 1552855430518
34, 31572.73, 47108.27, 1057.53, 26514.04, 28308.39, 19340.99, 70840.23, 21844.34, 0.000, 0.000, 0.000, 16:43:50.518, 1552855430518
35, 31584.49, 47076.04, 1063.05, 26490.24, 28289.55, 19336.05, 70801.72, 21851.33, 0.000, 0.000, 0.000, 16:43:50.518, 1552855430518
36, 31630.09, 47080.24, 1163.18, 26467.13, 28352.25, 19386.34, 70753.30, 21984.39, 0.000, 0.000, 0.000, 16:43:50.518, 1552855430518
37, 31621.26, 47107.55, 1168.82, 26489.74, 28376.90, 19395.46, 70783.46, 21985.76, 0.000, 0.000, 0.000, 16:43:50.518, 1552855430518
38, 31578.57, 47108.54, 1084.22, 26521.28, 28324.00, 19346.93, 70834.98, 21854.78, 0.000, 0.000, 0.000, 16:43:50.519, 1552855430519
39, 31577.96, 47079.23, 1064.86, 26506.91, 28286.98, 19327.60, 70811.58, 21820.93, 0.000, 0.000, 0.000, 16:43:50.519, 1552855430519
40, 31628.92, 47079.34, 1162.87, 26478.88, 28340.69, 19374.20, 70757.66, 21956.03, 0.000, 0.000, 0.000, 16:43:50.519, 1552855430519
41, 31637.53, 47115.98, 1194.43, 26501.66, 28387.07, 19405.56, 70785.36, 22005.27, 0.000, 0.000, 0.000, 16:43:50.519, 1552855430519
42, 31594.62, 47123.13, 1111.73, 26533.02, 28340.76, 19359.43, 70836.99, 21878.65, 0.100, 0.040, 1.004, 16:43:50.519, 1552855430519
43, 31581.81, 47096.15, 1065.44, 26526.58, 28295.59, 19330.39, 70834.04, 21827.13, 0.000, 0.000, 0.000, 16:43:50.519, 1552855430519
44, 31621.35, 47078.67, 1143.36, 26483.04, 28338.05, 19373.55, 70768.75, 21944.65, 0.000, 0.000, 0.000, 16:43:50.519, 1552855430519
45, 31628.50, 47102.52, 1181.71, 26482.53, 28387.36, 19401.29, 70770.36, 22004.31, 0.000, 0.000, 0.000, 16:43:50.519, 1552855430519
46, 31591.20, 47117.32, 1115.20, 26517.21, 28357.84, 19365.95, 70825.61, 21900.89, 0.000, 0.000, 0.000, 16:43:50.519, 1552855430519
47, 31573.27, 47098.54, 1054.64, 26527.96, 28308.08, 19325.50, 70844.43, 21823.08, 0.000, 0.000, 0.000, 16:43:50.519, 1552855430519
48, 31606.97, 47072.68, 1118.68, 26484.20, 28329.45, 19356.90, 70778.95, 21918.32, 0.000, 0.000, 0.000, 16:43:50.519, 1552855430519
49, 31629.88, 47096.42, 1183.97, 26478.99, 28386.76, 19404.64, 70768.28, 22012.33, 0.000, 0.000, 0.000, 16:43:50.520, 1552855430520
50, 31592.83, 47110.52, 1126.15, 26503.18, 28361.57, 19382.34, 70816.76, 21930.77, 0.000, 0.000, 0.000, 16:43:50.520, 1552855430520
51, 31559.70, 47088.11, 1043.78, 26509.82, 28298.60, 19342.24, 70838.48, 21815.46, 0.000, 0.000, 0.000, 16:43:50.520, 1552855430520
52, 31593.70, 47059.45, 1090.61, 26469.22, 28302.87, 19351.69, 70778.20, 21881.93, 0.104, 0.034, 1.002, 16:43:50.520, 1552855430520
53, 31622.78, 47078.76, 1165.71, 26452.80, 28362.33, 19395.19, 70754.76, 22002.12, 0.000, 0.000, 0.000, 16:43:50.520, 1552855430520
54, 31601.63, 47107.82, 1133.41, 26483.84, 28359.65, 19382.09, 70803.59, 21947.20, 0.000, 0.000, 0.000, 16:43:50.520, 1552855430520
55, 31569.40, 47104.67, 1047.83, 26507.36, 28300.04, 19333.45, 70845.02, 21822.03, 0.000, 0.000, 0.000, 16:43:50.520, 1552855430520
56, 31593.81, 47076.66, 1072.41, 26476.40, 28288.79, 19333.05, 70797.41, 21857.72, 0.000, 0.000, 0.000, 16:43:50.520, 1552855430520
57, 31637.55, 47094.39, 1167.07, 26461.25, 28356.47, 19383.97, 70769.82, 21999.21, 0.000, 0.000, 0.000, 16:43:50.520, 1552855430520
58, 31620.59, 47121.92, 1149.64, 26484.67, 28363.16, 19367.85, 70803.46, 21962.49, 0.000, 0.000, 0.000, 16:43:50.520, 1552855430520
59, 31578.23, 47117.61, 1057.73, 26511.98, 28308.95, 19333.45, 70851.12, 21843.87, 0.000, 0.000, 0.000, 16:43:50.520, 1552855430520
60, 31597.25, 47094.74, 1066.13, 26497.32, 28295.03, 19332.78, 70822.66, 21856.63, 0.000, 0.000, 0.000, 16:43:50.521, 1552855430521
61, 31646.74, 47102.34, 1168.35, 26474.97, 28358.98, 19384.17, 70775.97, 21989.58, 0.000, 0.000, 0.000, 16:43:50.521, 1552855430521
62, 31631.47, 47125.77, 1171.07, 26489.48, 28380.57, 19388.42, 70799.57, 21993.27, 0.102, 0.036, 1.004, 16:43:50.521, 1552855430521
63, 31580.35, 47120.85, 1076.42, 26514.85, 28328.42, 19354.69, 70846.84, 21861.03, 0.000, 0.000, 0.000, 16:43:50.521, 1552855430521
64, 31575.84, 47087.17, 1052.43, 26501.08, 28291.07, 19336.36, 70825.41, 21833.05, 0.000, 0.000, 0.000, 16:43:50.521, 1552855430521
65, 31616.72, 47074.31, 1143.49, 26461.98, 28337.67, 19377.58, 70761.89, 21962.04, 0.000, 0.000, 0.000, 16:43:50.522, 1552855430522
66, 31615.22, 47098.36, 1172.19, 26472.38, 28376.92, 19402.61, 70778.16, 22002.54, 0.000, 0.000, 0.000, 16:43:50.522, 1552855430522
67, 31570.16, 47104.40, 1094.10, 26504.88, 28336.98, 19366.91, 70835.07, 21886.63, 0.000, 0.000, 0.000, 16:43:50.522, 1552855430522
68, 31555.72, 47077.04, 1046.46, 26502.69, 28289.66, 19338.21, 70834.04, 21827.55, 0.000, 0.000, 0.000, 16:43:50.522, 1552855430522
69, 31597.36, 47059.72, 1127.31, 26461.98, 28322.03, 19360.39, 70767.07, 21943.00, 0.000, 0.000, 0.000, 16:43:50.522, 1552855430522
70, 31617.35, 47092.15, 1180.04, 26471.48, 28382.76, 19413.85, 70777.11, 22019.78, 0.000, 0.000, 0.000, 16:43:50.522, 1552855430522
71, 31579.84, 47106.21, 1109.81, 26501.52, 28349.07, 19375.54, 70831.00, 21914.81, 0.000, 0.000, 0.000, 16:43:50.522, 1552855430522
72, 31560.97, 47087.66, 1044.27, 26509.44, 28291.92, 19335.85, 70847.83, 21827.06, 0.102, 0.040, 1.006, 16:43:50.522, 1552855430522
73, 31603.62, 47067.72, 1109.38, 26469.38, 28312.26, 19359.27, 70783.30, 21922.61, 0.000, 0.000, 0.000, 16:43:50.522, 1552855430522
74, 31630.98, 47098.23, 1177.51, 26466.54, 28374.82, 19406.50, 70777.63, 22024.94, 0.000, 0.000, 0.000, 16:43:50.989, 1552855430989
75, 31599.29, 47121.54, 1125.61, 26498.21, 28358.08, 19383.07, 70832.97, 21946.26, 0.000, 0.000, 0.000, 16:43:50.989, 1552855430989
76, 31570.38, 47108.04, 1045.95, 26513.64, 28299.74, 19339.89, 70864.35, 21837.50, 0.000, 0.000, 0.000, 16:43:50.990, 1552855430990
77, 31606.55, 47084.98, 1096.60, 26479.51, 28311.10, 19359.36, 70811.20, 21912.13, 0.000, 0.000, 0.000, 16:43:50.990, 1552855430990
78, 31638.00, 47100.82, 1177.91, 26462.47, 28371.20, 19402.21, 70779.23, 22030.04, 0.000, 0.000, 0.000, 16:43:50.990, 1552855430990
79, 31606.53, 47118.01, 1138.20, 26484.83, 28361.86, 19386.54, 70815.91, 21966.69, 0.000, 0.000, 0.000, 16:43:50.990, 1552855430990
80, 31568.78, 47110.01, 1052.23, 26510.98, 28306.83, 19352.81, 70859.92, 21846.88, 0.000, 0.000, 0.000, 16:43:50.990, 1552855430990
81, 31594.28, 47081.29, 1079.84, 26484.20, 28297.62, 19352.23, 70815.71, 21884.90, 0.000, 0.000, 0.000, 16:43:50.990, 1552855430990
82, 31641.40, 47096.60, 1179.68, 26470.23, 28369.19, 19410.37, 70783.57, 22025.07, 0.104, 0.040, 1.006, 16:43:50.990, 1552855430990
83, 31625.79, 47125.48, 1168.19, 26497.39, 28384.86, 19404.73, 70824.47, 22004.64, 0.000, 0.000, 0.000, 16:43:50.990, 1552855430990
84, 31576.76, 47116.94, 1068.08, 26517.46, 28324.69, 19362.24, 70867.84, 21866.55, 0.000, 0.000, 0.000, 16:43:50.991, 1552855430991
85, 31587.78, 47086.77, 1066.42, 26496.63, 28301.38, 19354.93, 70836.01, 21869.28, 0.000, 0.000, 0.000, 16:43:50.991, 1552855430991
86, 31636.12, 47089.49, 1164.59, 26467.33, 28359.74, 19405.07, 70783.99, 22007.62, 0.000, 0.000, 0.000, 16:43:50.991, 1552855430991
87, 31633.21, 47120.63, 1177.98, 26489.32, 28391.14, 19421.86, 70812.63, 22017.96, 0.000, 0.000, 0.000, 16:43:50.991, 1552855430991
88, 31582.84, 47117.39, 1086.63, 26517.84, 28340.09, 19373.44, 70861.48, 21881.37, 0.000, 0.000, 0.000, 16:43:50.991, 1552855430991
89, 31576.11, 47083.55, 1056.28, 26503.56, 28298.69, 19349.77, 70841.82, 21848.20, 0.000, 0.000, 0.000, 16:43:50.991, 1552855430991
90, 31617.39, 47072.08, 1144.50, 26463.32, 28344.80, 19393.02, 70777.94, 21976.14, 0.000, 0.000, 0.000, 16:43:50.992, 1552855430992
91, 31624.48, 47106.81, 1178.92, 26478.79, 28393.67, 19424.74, 70798.74, 22023.98, 0.000, 0.000, 0.000, 16:43:50.992, 1552855430992
92, 31586.17, 47119.53, 1099.95, 26513.35, 28355.40, 19385.62, 70859.16, 21907.30, 0.106, 0.034, 1.014, 16:43:50.992, 1552855430992
93, 31569.18, 47090.23, 1042.89, 26505.14, 28298.45, 19347.49, 70855.63, 21836.56, 0.000, 0.000, 0.000, 16:43:50.992, 1552855430992
94, 31611.98, 47070.89, 1119.29, 26458.54, 28325.22, 19375.52, 70786.43, 21947.98, 0.000, 0.000, 0.000, 16:43:50.992, 1552855430992
95, 31633.46, 47101.81, 1178.65, 26465.00, 28381.10, 19417.81, 70792.22, 22028.85, 0.000, 0.000, 0.000, 16:43:50.992, 1552855430992
96, 31593.81, 47111.93, 1108.58, 26491.87, 28346.86, 19379.32, 70840.74, 21921.81, 0.000, 0.000, 0.000, 16:43:50.993, 1552855430993
97, 31566.99, 47089.45, 1034.46, 26495.56, 28287.63, 19338.42, 70856.03, 21827.97, 0.000, 0.000, 0.000, 16:43:50.993, 1552855430993
98, 31602.26, 47062.67, 1095.66, 26450.23, 28304.71, 19363.36, 70790.19, 21921.45, 0.000, 0.000, 0.000, 16:43:50.993, 1552855430993
99, 31631.72, 47091.28, 1169.09, 26447.12, 28371.65, 19414.26, 70781.91, 22029.52, 0.000, 0.000, 0.000, 16:43:50.993, 1552855430993
100, 31605.25, 47120.18, 1125.50, 26486.97, 28362.02, 19394.41, 70837.66, 21951.45, 0.000, 0.000, 0.000, 16:43:50.993, 1552855430993
101, 31579.04, 47115.26, 1051.09, 26514.33, 28306.45, 19350.73, 70873.38, 21838.12, 0.000, 0.000, 0.000, 16:43:50.993, 1552855430993
102, 31611.65, 47087.66, 1094.54, 26476.13, 28309.51, 19360.25, 70815.53, 21901.85, 0.102, 0.042, 1.010, 16:43:50.993, 1552855430993
103, 31648.57, 47108.94, 1179.64, 26461.87, 28382.96, 19419.02, 70792.02, 22033.86, 0.000, 0.000, 0.000, 16:43:50.993, 1552855430993
104, 31621.53, 47132.72, 1145.71, 26492.20, 28391.14, 19413.29, 70839.31, 21985.71, 0.000, 0.000, 0.000, 16:43:50.993, 1552855430993
105, 31583.30, 47126.28, 1054.24, 26520.41, 28341.74, 19374.33, 70893.83, 21869.68, 0.000, 0.000, 0.000, 16:43:50.993, 1552855430993
106, 31597.74, 47090.50, 1070.47, 26486.86, 28332.04, 19375.81, 70851.49, 21906.34, 0.000, 0.000, 0.000, 16:43:50.993, 1552855430993
107, 31634.47, 47094.05, 1164.55, 26460.44, 28393.96, 19424.78, 70805.05, 22038.46, 0.000, 0.000, 0.000, 16:43:50.994, 1552855430994
108, 31622.22, 47122.50, 1160.37, 26489.21, 28411.86, 19430.93, 70845.55, 22023.91, 0.000, 0.000, 0.000, 16:43:50.994, 1552855430994
109, 31571.48, 47111.15, 1062.07, 26512.86, 28345.39, 19375.83, 70886.63, 21879.94, 0.000, 0.000, 0.000, 16:43:50.994, 1552855430994
110, 31575.15, 47072.64, 1052.28, 26486.23, 28305.96, 19355.89, 70844.50, 21864.10, 0.000, 0.000, 0.000, 16:43:50.994, 1552855430994
111, 31619.13, 47069.46, 1149.53, 26452.33, 28357.50, 19402.05, 70782.61, 21995.97, 0.100, 0.040, 1.010, 16:43:50.994, 1552855430994
112, 31617.35, 47101.56, 1166.25, 26474.93, 28389.49, 19420.42, 70806.70, 22009.85, 0.000, 0.000, 0.000, 16:43:50.994, 1552855430994
113, 31575.66, 47107.84, 1079.50, 26509.73, 28339.55, 19375.90, 70859.70, 21878.42, 0.000, 0.000, 0.000, 16:43:50.994, 1552855430994
114, 31576.22, 47081.11, 1050.96, 26501.75, 28299.95, 19354.58, 70846.06, 21844.96, 0.000, 0.000, 0.000, 16:43:50.994, 1552855430994
115, 31618.80, 47066.02, 1143.25, 26461.20, 28346.46, 19397.58, 70779.55, 21972.66, 0.000, 0.000, 0.000, 16:43:50.994, 1552855430994
116, 31631.29, 47099.50, 1182.99, 26474.66, 28397.13, 19433.01, 70800.24, 22027.38, 0.000, 0.000, 0.000, 16:43:50.995, 1552855430995
117, 31592.42, 47111.20, 1101.74, 26509.19, 28361.08, 19396.37, 70859.68, 21907.59, 0.000, 0.000, 0.000, 16:43:50.995, 1552855430995
118, 31576.06, 47083.81, 1045.50, 26505.73, 28313.65, 19366.09, 70864.26, 21843.51, 0.000, 0.000, 0.000, 16:43:50.995, 1552855430995
119, 31623.74, 47069.91, 1126.33, 26465.31, 28353.30, 19406.99, 70807.59, 21971.00, 0.000, 0.000, 0.000, 16:43:50.995, 1552855430995
120, 31642.45, 47101.23, 1178.90, 26466.48, 28409.36, 19447.83, 70812.02, 22056.14, 0.000, 0.000, 0.000, 16:43:50.995, 1552855430995
121, 31597.65, 47113.41, 1105.41, 26494.13, 28375.83, 19412.65, 70863.99, 21954.75, 0.100, 0.038, 1.008, 16:43:50.995, 1552855430995
122, 31569.83, 47094.09, 1033.37, 26503.24, 28318.45, 19374.33, 70885.27, 21861.14, 0.000, 0.000, 0.000, 16:43:50.995, 1552855430995
123, 31603.94, 47065.42, 1094.86, 26457.85, 28331.97, 19390.74, 70816.00, 21943.40, 0.000, 0.000, 0.000, 16:43:50.995, 1552855430995
124, 31629.26, 47085.29, 1168.46, 26447.72, 28389.75, 19429.57, 70793.41, 22042.57, 0.000, 0.000, 0.000, 16:43:50.996, 1552855430996
125, 31593.63, 47102.14, 1117.59, 26476.96, 28371.31, 19398.83, 70838.30, 21962.73, 0.000, 0.000, 0.000, 16:43:50.996, 1552855430996
126, 31560.51, 47092.78, 1035.02, 26499.69, 28314.16, 19355.34, 70875.26, 21849.14, 0.000, 0.000, 0.000, 16:43:50.996, 1552855430996
127, 31594.39, 47068.93, 1081.80, 26469.34, 28322.19, 19373.26, 70823.02, 21910.65, 0.000, 0.000, 0.000, 16:43:50.996, 1552855430996
128, 31635.56, 47093.43, 1175.32, 26462.30, 28394.72, 19427.76, 70798.48, 22039.06, 0.000, 0.000, 0.000, 16:43:50.996, 1552855430996
