%OpenBCI Raw EEG Data
%Number of channels = 8
%Sample Rate = 250.0 Hz
%First Column = SampleIndex
%Last Column = Timestamp 
%Other Columns = EEG data in microvolts followed by Accel Data (in G) interleaved with Aux Data
0, 6161.28, 0.00, 0.00, 0.00, 0.00, 0.00, 0.00, 0.00, -0.136, 0.076, 0.474, 11:58:19.014, 1553443099014
1, 6183.34, 0.00, 0.00, 0.00, 0.00, 0.00, 0.00, 0.00, 0.000, 0.000, 0.000, 11:58:19.508, 1553443099508
2, 6206.50, 0.00, 0.00, 0.00, 0.00, 0.00, 0.00, 0.00, 0.000, 0.000, 0.000, 11:58:19.508, 1553443099508
3, 6224.09, 0.00, 0.00, 0.00, 0.00, 0.00, 0.00, 0.00, 0.000, 0.000, 0.000, 11:58:19.508, 1553443099508
4, 6228.74, 0.00, 0.00, 0.00, 0.00, 0.00, 0.00, 0.00, 0.000, 0.000, 0.000, 11:58:19.508, 1553443099508
5, 6201.76, 0.00, 0.00, 0.00, 0.00, 0.00, 0.00, 0.00, 0.000, 0.000, 0.000, 11:58:19.509, 1553443099509
6, 6181.80, 0.00, 0.00, 0.00, 0.00, 0.00, 0.00, 0.00, 0.000, 0.000, 0.000, 11:58:19.509, 1553443099509
7, 6150.06, 0.00, 0.00, 0.00, 0.00, 0.00, 0.00, 0.00, -0.212, 0.112, 0.726, 11:58:19.509, 1553443099509
8, 6151.94, 0.00, 0.00, 0.00, 0.00, 0.00, 0.00, 0.00, 0.000, 0.000, 0.000, 11:58:19.509, 1553443099509
9, 6136.25, 0.00, 0.00, 0.00, 0.00, 0.00, 0.00, 0.00, 0.000, 0.000, 0.000, 11:58:19.509, 1553443099509
10, 6121.83, 0.00, 0.00, 0.00, 0.00, 0.00, 0.00, 0.00, 0.000, 0.000, 0.000, 11:58:19.509, 1553443099509
11, 6123.84, 0.00, 0.00, 0.00, 0.00, 0.00, 0.00, 0.00, 0.000, 0.000, 0.000, 11:58:19.509, 1553443099509
12, 6111.06, 0.00, 0.00, 0.00, 0.00, 0.00, 0.00, 0.00, 0.000, 0.000, 0.000, 11:58:19.509, 1553443099509
13, 6120.85, 0.00, 0.00, 0.00, 0.00, 0.00, 0.00, 0.00, 0.000, 0.000, 0.000, 11:58:19.509, 1553443099509
14, 6163.47, 0.00, 0.00, 0.00, 0.00, 0.00, 0.00, 0.00, 0.000, 0.000, 0.000, 11:58:19.509, 1553443099509
15, 6125.90, 0.00, 0.00, 0.00, 0.00, 0.00, 0.00, 0.00, 0.000, 0.000, 0.000, 11:58:19.509, 1553443099509
16, 6057.64, 0.00, 0.00, 0.00, 0.00, 0.00, 0.00, 0.00, -0.258, 0.132, 0.840, 11:58:19.509, 1553443099509
17, 6057.84, 0.00, 0.00, 0.00, 0.00, 0.00, 0.00, 0.00, 0.000, 0.000, 0.000, 11:58:19.509, 1553443099509
18, 6073.66, 0.00, 0.00, 0.00, 0.00, 0.00, 0.00, 0.00, 0.000, 0.000, 0.000, 11:58:19.509, 1553443099509
19, 6078.20, 0.00, 0.00, 0.00, 0.00, 0.00, 0.00, 0.00, 0.000, 0.000, 0.000, 11:58:19.510, 1553443099510
20, 6060.90, 0.00, 0.00, 0.00, 0.00, 0.00, 0.00, 0.00, 0.000, 0.000, 0.000, 11:58:19.510, 1553443099510
21, 6049.50, 0.00, 0.00, 0.00, 0.00, 0.00, 0.00, 0.00, 0.000, 0.000, 0.000, 11:58:19.510, 1553443099510
22, 6067.56, 0.00, 0.00, 0.00, 0.00, 0.00, 0.00, 0.00, 0.000, 0.000, 0.000, 11:58:19.510, 1553443099510
23, 6085.78, 0.00, 0.00, 0.00, 0.00, 0.00, 0.00, 0.00, 0.000, 0.000, 0.000, 11:58:19.510, 1553443099510
24, 6078.58, 0.00, 0.00, 0.00, 0.00, 0.00, 0.00, 0.00, 0.000, 0.000, 0.000, 11:58:19.510, 1553443099510
25, 6048.38, 0.00, 0.00, 0.00, 0.00, 0.00, 0.00, 0.00, 0.000, 0.000, 0.000, 11:58:19.510, 1553443099510
26, 6041.50, 0.00, 0.00, 0.00, 0.00, 0.00, 0.00, 0.00, -0.282, 0.140, 0.884, 11:58:19.510, 1553443099510
27, 6055.29, 0.00, 0.00, 0.00, 0.00, 0.00, 0.00, 0.00, 0.000, 0.000, 0.000, 11:58:19.511, 1553443099511
28, 6050.39, 0.00, 0.00, 0.00, 0.00, 0.00, 0.00, 0.00, 0.000, 0.000, 0.000, 11:58:19.511, 1553443099511
29, 6048.25, 0.00, 0.00, 0.00, 0.00, 0.00, 0.00, 0.00, 0.000, 0.000, 0.000, 11:58:19.511, 1553443099511
30, 6037.90, 0.00, 0.00, 0.00, 0.00, 0.00, 0.00, 0.00, 0.000, 0.000, 0.000, 11:58:19.511, 1553443099511
31, 6057.21, 0.00, 0.00, 0.00, 0.00, 0.00, 0.00, 0.00, 0.000, 0.000, 0.000, 11:58:19.511, 1553443099511
32, 6058.51, 0.00, 0.00, 0.00, 0.00, 0.00, 0.00, 0.00, 0.000, 0.000, 0.000, 11:58:19.511, 1553443099511
33, 6007.17, 0.00, 0.00, 0.00, 0.00, 0.00, 0.00, 0.00, 0.000, 0.000, 0.000, 11:58:19.511, 1553443099511
34, 6022.19, 0.00, 0.00, 0.00, 0.00, 0.00, 0.00, 0.00, 0.000, 0.000, 0.000, 11:58:19.511, 1553443099511
35, 6026.97, 0.00, 0.00, 0.00, 0.00, 0.00, 0.00, 0.00, 0.000, 0.000, 0.000, 11:58:19.511, 1553443099511
36, 6047.20, 0.00, 0.00, 0.00, 0.00, 0.00, 0.00, 0.00, -0.294, 0.148, 0.920, 11:58:19.511, 1553443099511
37, 6052.83, 0.00, 0.00, 0.00, 0.00, 0.00, 0.00, 0.00, 0.000, 0.000, 0.000, 11:58:19.512, 1553443099512
38, 6061.64, 0.00, 0.00, 0.00, 0.00, 0.00, 0.00, 0.00, 0.000, 0.000, 0.000, 11:58:19.512, 1553443099512
39, 6102.43, 0.00, 0.00, 0.00, 0.00, 0.00, 0.00, 0.00, 0.000, 0.000, 0.000, 11:58:19.512, 1553443099512
40, 6064.83, 0.00, 0.00, 0.00, 0.00, 0.00, 0.00, 0.00, 0.000, 0.000, 0.000, 11:58:19.512, 1553443099512
41, 6070.35, 0.00, 0.00, 0.00, 0.00, 0.00, 0.00, 0.00, 0.000, 0.000, 0.000, 11:58:19.513, 1553443099513
42, 6087.05, 0.00, 0.00, 0.00, 0.00, 0.00, 0.00, 0.00, 0.000, 0.000, 0.000, 11:58:19.513, 1553443099513
43, 6093.29, 0.00, 0.00, 0.00, 0.00, 0.00, 0.00, 0.00, 0.000, 0.000, 0.000, 11:58:19.513, 1553443099513
44, 6102.90, 0.00, 0.00, 0.00, 0.00, 0.00, 0.00, 0.00, 0.000, 0.000, 0.000, 11:58:19.513, 1553443099513
45, 6123.84, 0.00, 0.00, 0.00, 0.00, 0.00, 0.00, 0.00, 0.000, 0.000, 0.000, 11:58:19.513, 1553443099513
46, 6139.71, 0.00, 0.00, 0.00, 0.00, 0.00, 0.00, 0.00, -0.290, 0.154, 0.938, 11:58:19.513, 1553443099513
47, 6141.72, 0.00, 0.00, 0.00, 0.00, 0.00, 0.00, 0.00, 0.000, 0.000, 0.000, 11:58:19.513, 1553443099513
48, 6159.31, 0.00, 0.00, 0.00, 0.00, 0.00, 0.00, 0.00, 0.000, 0.000, 0.000, 11:58:19.513, 1553443099513
49, 6191.90, 0.00, 0.00, 0.00, 0.00, 0.00, 0.00, 0.00, 0.000, 0.000, 0.000, 11:58:19.513, 1553443099513
50, 6224.54, 0.00, 0.00, 0.00, 0.00, 0.00, 0.00, 0.00, 0.000, 0.000, 0.000, 11:58:19.513, 1553443099513
51, 6239.85, 0.00, 0.00, 0.00, 0.00, 0.00, 0.00, 0.00, 0.000, 0.000, 0.000, 11:58:19.513, 1553443099513
52, 6228.25, 0.00, 0.00, 0.00, 0.00, 0.00, 0.00, 0.00, 0.000, 0.000, 0.000, 11:58:19.513, 1553443099513
53, 6209.60, 0.00, 0.00, 0.00, 0.00, 0.00, 0.00, 0.00, 0.000, 0.000, 0.000, 11:58:19.513, 1553443099513
54, 6204.26, 0.00, 0.00, 0.00, 0.00, 0.00, 0.00, 0.00, 0.000, 0.000, 0.000, 11:58:19.513, 1553443099513
55, 6232.16, 0.00, 0.00, 0.00, 0.00, 0.00, 0.00, 0.00, 0.000, 0.000, 0.000, 11:58:19.513, 1553443099513
56, 6231.08, 0.00, 0.00, 0.00, 0.00, 0.00, 0.00, 0.00, -0.296, 0.156, 0.942, 11:58:19.513, 1553443099513
57, 6210.36, 0.00, 0.00, 0.00, 0.00, 0.00, 0.00, 0.00, 0.000, 0.000, 0.000, 11:58:19.513, 1553443099513
58, 6204.37, 0.00, 0.00, 0.00, 0.00, 0.00, 0.00, 0.00, 0.000, 0.000, 0.000, 11:58:19.514, 1553443099514
59, 6220.47, 0.00, 0.00, 0.00, 0.00, 0.00, 0.00, 0.00, 0.000, 0.000, 0.000, 11:58:19.514, 1553443099514
60, 6243.74, 0.00, 0.00, 0.00, 0.00, 0.00, 0.00, 0.00, 0.000, 0.000, 0.000, 11:58:19.514, 1553443099514
61, 6230.95, 0.00, 0.00, 0.00, 0.00, 0.00, 0.00, 0.00, 0.000, 0.000, 0.000, 11:58:19.514, 1553443099514
62, 6177.66, 0.00, 0.00, 0.00, 0.00, 0.00, 0.00, 0.00, 0.000, 0.000, 0.000, 11:58:19.514, 1553443099514
63, 6194.67, 0.00, 0.00, 0.00, 0.00, 0.00, 0.00, 0.00, 0.000, 0.000, 0.000, 11:58:19.515, 1553443099515
64, 6201.98, 0.00, 0.00, 0.00, 0.00, 0.00, 0.00, 0.00, 0.000, 0.000, 0.000, 11:58:19.515, 1553443099515
65, 6202.03, 0.00, 0.00, 0.00, 0.00, 0.00, 0.00, 0.00, 0.000, 0.000, 0.000, 11:58:19.515, 1553443099515
66, 6210.52, 0.00, 0.00, 0.00, 0.00, 0.00, 0.00, 0.00, -0.296, 0.156, 0.954, 11:58:19.515, 1553443099515
67, 6208.73, 0.00, 0.00, 0.00, 0.00, 0.00, 0.00, 0.00, 0.000, 0.000, 0.000, 11:58:19.515, 1553443099515
68, 6204.44, 0.00, 0.00, 0.00, 0.00, 0.00, 0.00, 0.00, 0.000, 0.000, 0.000, 11:58:19.515, 1553443099515
69, 6229.65, 0.00, 0.00, 0.00, 0.00, 0.00, 0.00, 0.00, 0.000, 0.000, 0.000, 11:58:19.515, 1553443099515
70, 6229.39, 0.00, 0.00, 0.00, 0.00, 0.00, 0.00, 0.00, 0.000, 0.000, 0.000, 11:58:19.515, 1553443099515
71, 6241.32, 0.00, 0.00, 0.00, 0.00, 0.00, 0.00, 0.00, 0.000, 0.000, 0.000, 11:58:19.515, 1553443099515
72, 6218.68, 0.00, 0.00, 0.00, 0.00, 0.00, 0.00, 0.00, 0.000, 0.000, 0.000, 11:58:19.515, 1553443099515
73, 6170.51, 0.00, 0.00, 0.00, 0.00, 0.00, 0.00, 0.00, 0.000, 0.000, 0.000, 11:58:19.515, 1553443099515
74, 6177.75, 0.00, 0.00, 0.00, 0.00, 0.00, 0.00, 0.00, 0.000, 0.000, 0.000, 11:58:19.515, 1553443099515
75, 6179.52, 0.00, 0.00, 0.00, 0.00, 0.00, 0.00, 0.00, 0.000, 0.000, 0.000, 11:58:19.516, 1553443099516
76, 6209.20, 0.00, 0.00, 0.00, 0.00, 0.00, 0.00, 0.00, -0.292, 0.158, 0.954, 11:58:19.516, 1553443099516
77, 6206.77, 0.00, 0.00, 0.00, 0.00, 0.00, 0.00, 0.00, 0.000, 0.000, 0.000, 11:58:19.516, 1553443099516
78, 6245.28, 0.00, 0.00, 0.00, 0.00, 0.00, 0.00, 0.00, 0.000, 0.000, 0.000, 11:58:19.516, 1553443099516
79, 6238.86, 0.00, 0.00, 0.00, 0.00, 0.00, 0.00, 0.00, 0.000, 0.000, 0.000, 11:58:19.516, 1553443099516
80, 6186.47, 0.00, 0.00, 0.00, 0.00, 0.00, 0.00, 0.00, 0.000, 0.000, 0.000, 11:58:19.516, 1553443099516
81, 6154.15, 0.00, 0.00, 0.00, 0.00, 0.00, 0.00, 0.00, 0.000, 0.000, 0.000, 11:58:19.516, 1553443099516
82, 6178.29, 0.00, 0.00, 0.00, 0.00, 0.00, 0.00, 0.00, 0.000, 0.000, 0.000, 11:58:19.516, 1553443099516
83, 6188.28, 0.00, 0.00, 0.00, 0.00, 0.00, 0.00, 0.00, 0.000, 0.000, 0.000, 11:58:19.516, 1553443099516
84, 6188.19, 0.00, 0.00, 0.00, 0.00, 0.00, 0.00, 0.00, 0.000, 0.000, 0.000, 11:58:19.516, 1553443099516
85, 6178.49, 0.00, 0.00, 0.00, 0.00, 0.00, 0.00, 0.00, 0.000, 0.000, 0.000, 11:58:19.516, 1553443099516
86, 6178.00, 0.00, 0.00, 0.00, 0.00, 0.00, 0.00, 0.00, -0.288, 0.162, 0.952, 11:58:19.516, 1553443099516
87, 6198.23, 0.00, 0.00, 0.00, 0.00, 0.00, 0.00, 0.00, 0.000, 0.000, 0.000, 11:58:19.517, 1553443099517
88, 6224.07, 0.00, 0.00, 0.00, 0.00, 0.00, 0.00, 0.00, 0.000, 0.000, 0.000, 11:58:19.517, 1553443099517
89, 6228.49, 0.00, 0.00, 0.00, 0.00, 0.00, 0.00, 0.00, 0.000, 0.000, 0.000, 11:58:19.517, 1553443099517
90, 6186.69, 0.00, 0.00, 0.00, 0.00, 0.00, 0.00, 0.00, 0.000, 0.000, 0.000, 11:58:19.518, 1553443099518
91, 6181.22, 0.00, 0.00, 0.00, 0.00, 0.00, 0.00, 0.00, 0.000, 0.000, 0.000, 11:58:19.518, 1553443099518
92, 6160.99, 0.00, 0.00, 0.00, 0.00, 0.00, 0.00, 0.00, 0.000, 0.000, 0.000, 11:58:19.518, 1553443099518
93, 6149.88, 0.00, 0.00, 0.00, 0.00, 0.00, 0.00, 0.00, 0.000, 0.000, 0.000, 11:58:19.518, 1553443099518
94, 6166.96, 0.00, 0.00, 0.00, 0.00, 0.00, 0.00, 0.00, 0.000, 0.000, 0.000, 11:58:19.518, 1553443099518
95, 6128.69, 0.00, 0.00, 0.00, 0.00, 0.00, 0.00, 0.00, 0.000, 0.000, 0.000, 11:58:19.518, 1553443099518
96, 6096.91, 0.00, 0.00, 0.00, 0.00, 0.00, 0.00, 0.00, -0.284, 0.160, 0.962, 11:58:19.518, 1553443099518
97, 6101.40, 0.00, 0.00, 0.00, 0.00, 0.00, 0.00, 0.00, 0.000, 0.000, 0.000, 11:58:19.518, 1553443099518
98, 6125.67, 0.00, 0.00, 0.00, 0.00, 0.00, 0.00, 0.00, 0.000, 0.000, 0.000, 11:58:19.518, 1553443099518
99, 6115.97, 0.00, 0.00, 0.00, 0.00, 0.00, 0.00, 0.00, 0.000, 0.000, 0.000, 11:58:19.518, 1553443099518
100, 6099.30, 0.00, 0.00, 0.00, 0.00, 0.00, 0.00, 0.00, 0.000, 0.000, 0.000, 11:58:19.518, 1553443099518
101, 6133.61, 0.00, 0.00, 0.00, 0.00, 0.00, 0.00, 0.00, 0.000, 0.000, 0.000, 11:58:19.518, 1553443099518
102, 6151.18, 0.00, 0.00, 0.00, 0.00, 0.00, 0.00, 0.00, 0.000, 0.000, 0.000, 11:58:19.518, 1553443099518
103, 6190.02, 0.00, 0.00, 0.00, 0.00, 0.00, 0.00, 0.00, 0.000, 0.000, 0.000, 11:58:19.520, 1553443099520
104, 6200.24, 0.00, 0.00, 0.00, 0.00, 0.00, 0.00, 0.00, 0.000, 0.000, 0.000, 11:58:19.520, 1553443099520
105, 6201.36, 0.00, 0.00, 0.00, 0.00, 0.00, 0.00, 0.00, 0.000, 0.000, 0.000, 11:58:19.520, 1553443099520
106, 6239.13, 0.00, 0.00, 0.00, 0.00, 0.00, 0.00, 0.00, -0.282, 0.162, 0.962, 11:58:19.520, 1553443099520
107, 6249.64, 0.00, 0.00, 0.00, 0.00, 0.00, 0.00, 0.00, 0.000, 0.000, 0.000, 11:58:19.521, 1553443099521
108, 6237.95, 0.00, 0.00, 0.00, 0.00, 0.00, 0.00, 0.00, 0.000, 0.000, 0.000, 11:58:19.521, 1553443099521
109, 6224.76, 0.00, 0.00, 0.00, 0.00, 0.00, 0.00, 0.00, 0.000, 0.000, 0.000, 11:58:19.522, 1553443099522
110, 6209.83, 0.00, 0.00, 0.00, 0.00, 0.00, 0.00, 0.00, 0.000, 0.000, 0.000, 11:58:19.522, 1553443099522
111, 6244.50, 0.00, 0.00, 0.00, 0.00, 0.00, 0.00, 0.00, 0.000, 0.000, 0.000, 11:58:19.522, 1553443099522
112, 6248.68, 0.00, 0.00, 0.00, 0.00, 0.00, 0.00, 0.00, 0.000, 0.000, 0.000, 11:58:19.522, 1553443099522
113, 6236.54, 0.00, 0.00, 0.00, 0.00, 0.00, 0.00, 0.00, 0.000, 0.000, 0.000, 11:58:19.523, 1553443099523
114, 6230.55, 0.00, 0.00, 0.00, 0.00, 0.00, 0.00, 0.00, 0.000, 0.000, 0.000, 11:58:19.523, 1553443099523
115, 6229.63, 0.00, 0.00, 0.00, 0.00, 0.00, 0.00, 0.00, 0.000, 0.000, 0.000, 11:58:19.523, 1553443099523
116, 6227.46, 0.00, 0.00, 0.00, 0.00, 0.00, 0.00, 0.00, -0.284, 0.164, 0.964, 11:58:19.523, 1553443099523
117, 6228.96, 0.00, 0.00, 0.00, 0.00, 0.00, 0.00, 0.00, 0.000, 0.000, 0.000, 11:58:19.523, 1553443099523
118, 6252.21, 0.00, 0.00, 0.00, 0.00, 0.00, 0.00, 0.00, 0.000, 0.000, 0.000, 11:58:19.523, 1553443099523
119, 6233.63, 0.00, 0.00, 0.00, 0.00, 0.00, 0.00, 0.00, 0.000, 0.000, 0.000, 11:58:19.523, 1553443099523
120, 6149.57, 0.00, 0.00, 0.00, 0.00, 0.00, 0.00, 0.00, 0.000, 0.000, 0.000, 11:58:19.523, 1553443099523
121, 5938.25, 0.00, 0.00, 0.00, 0.00, 0.00, 0.00, 0.00, 0.000, 0.000, 0.000, 11:58:19.985, 1553443099985
122, 5703.40, 0.00, 0.00, 0.00, 0.00, 0.00, 0.00, 0.00, 0.000, 0.000, 0.000, 11:58:19.986, 1553443099986
123, 5510.51, 0.00, 0.00, 0.00, 0.00, 0.00, 0.00, 0.00, 0.000, 0.000, 0.000, 11:58:19.986, 1553443099986
124, 5358.36, 0.00, 0.00, 0.00, 0.00, 0.00, 0.00, 0.00, 0.000, 0.000, 0.000, 11:58:19.986, 1553443099986
125, 5433.04, 0.00, 0.00, 0.00, 0.00, 0.00, 0.00, 0.00, -0.284, 0.160, 0.960, 11:58:19.986, 1553443099986
126, 5638.05, 0.00, 0.00, 0.00, 0.00, 0.00, 0.00, 0.00, 0.000, 0.000, 0.000, 11:58:19.986, 1553443099986
127, 5890.18, 0.00, 0.00, 0.00, 0.00, 0.00, 0.00, 0.00, 0.000, 0.000, 0.000, 11:58:19.986, 1553443099986
128, 6190.67, 0.00, 0.00, 0.00, 0.00, 0.00, 0.00, 0.00, 0.000, 0.000, 0.000, 11:58:19.986, 1553443099986
129, 6239.20, 0.00, 0.00, 0.00, 0.00, 0.00, 0.00, 0.00, 0.000, 0.000, 0.000, 11:58:19.986, 1553443099986
130, 6183.56, 0.00, 0.00, 0.00, 0.00, 0.00, 0.00, 0.00, 0.000, 0.000, 0.000, 11:58:19.986, 1553443099986
131, 6179.45, 0.00, 0.00, 0.00, 0.00, 0.00, 0.00, 0.00, 0.000, 0.000, 0.000, 11:58:19.987, 1553443099987
132, 6170.78, 0.00, 0.00, 0.00, 0.00, 0.00, 0.00, 0.00, 0.000, 0.000, 0.000, 11:58:19.987, 1553443099987
133, 6187.41, 0.00, 0.00, 0.00, 0.00, 0.00, 0.00, 0.00, 0.000, 0.000, 0.000, 11:58:19.987, 1553443099987
134, 6186.72, 0.00, 0.00, 0.00, 0.00, 0.00, 0.00, 0.00, 0.000, 0.000, 0.000, 11:58:19.987, 1553443099987
135, 6174.09, 0.00, 0.00, 0.00, 0.00, 0.00, 0.00, 0.00, -0.282, 0.156, 0.958, 11:58:19.987, 1553443099987
136, 6201.69, 0.00, 0.00, 0.00, 0.00, 0.00, 0.00, 0.00, 0.000, 0.000, 0.000, 11:58:19.987, 1553443099987
137, 6185.38, 0.00, 0.00, 0.00, 0.00, 0.00, 0.00, 0.00, 0.000, 0.000, 0.000, 11:58:19.987, 1553443099987
138, 6182.67, 0.00, 0.00, 0.00, 0.00, 0.00, 0.00, 0.00, 0.000, 0.000, 0.000, 11:58:19.987, 1553443099987
139, 6189.89, 0.00, 0.00, 0.00, 0.00, 0.00, 0.00, 0.00, 0.000, 0.000, 0.000, 11:58:19.987, 1553443099987
140, 6167.61, 0.00, 0.00, 0.00, 0.00, 0.00, 0.00, 0.00, 0.000, 0.000, 0.000, 11:58:19.987, 1553443099987
141, 6174.96, 0.00, 0.00, 0.00, 0.00, 0.00, 0.00, 0.00, 0.000, 0.000, 0.000, 11:58:19.987, 1553443099987
142, 6195.95, 0.00, 0.00, 0.00, 0.00, 0.00, 0.00, 0.00, 0.000, 0.000, 0.000, 11:58:19.987, 1553443099987
143, 6224.69, 0.00, 0.00, 0.00, 0.00, 0.00, 0.00, 0.00, 0.000, 0.000, 0.000, 11:58:19.987, 1553443099987
144, 6226.55, 0.00, 0.00, 0.00, 0.00, 0.00, 0.00, 0.00, 0.000, 0.000, 0.000, 11:58:19.988, 1553443099988
145, 6208.78, 0.00, 0.00, 0.00, 0.00, 0.00, 0.00, 0.00, -0.282, 0.158, 0.954, 11:58:19.990, 1553443099990
146, 6218.77, 0.00, 0.00, 0.00, 0.00, 0.00, 0.00, 0.00, 0.000, 0.000, 0.000, 11:58:19.990, 1553443099990
147, 6175.34, 0.00, 0.00, 0.00, 0.00, 0.00, 0.00, 0.00, 0.000, 0.000, 0.000, 11:58:19.990, 1553443099990
148, 6139.53, 0.00, 0.00, 0.00, 0.00, 0.00, 0.00, 0.00, 0.000, 0.000, 0.000, 11:58:19.990, 1553443099990
149, 6159.87, 0.00, 0.00, 0.00, 0.00, 0.00, 0.00, 0.00, 0.000, 0.000, 0.000, 11:58:19.991, 1553443099991
150, 6150.08, 0.00, 0.00, 0.00, 0.00, 0.00, 0.00, 0.00, 0.000, 0.000, 0.000, 11:58:19.991, 1553443099991
151, 6137.86, 0.00, 0.00, 0.00, 0.00, 0.00, 0.00, 0.00, 0.000, 0.000, 0.000, 11:58:19.991, 1553443099991
152, 6145.08, 0.00, 0.00, 0.00, 0.00, 0.00, 0.00, 0.00, 0.000, 0.000, 0.000, 11:58:19.991, 1553443099991
153, 6148.99, 0.00, 0.00, 0.00, 0.00, 0.00, 0.00, 0.00, 0.000, 0.000, 0.000, 11:58:19.991, 1553443099991
154, 6177.87, 0.00, 0.00, 0.00, 0.00, 0.00, 0.00, 0.00, 0.000, 0.000, 0.000, 11:58:19.991, 1553443099991
155, 6155.11, 0.00, 0.00, 0.00, 0.00, 0.00, 0.00, 0.00, -0.276, 0.156, 0.950, 11:58:19.991, 1553443099991
156, 6112.51, 0.00, 0.00, 0.00, 0.00, 0.00, 0.00, 0.00, 0.000, 0.000, 0.000, 11:58:19.991, 1553443099991
157, 6122.48, 0.00, 0.00, 0.00, 0.00, 0.00, 0.00, 0.00, 0.000, 0.000, 0.000, 11:58:19.991, 1553443099991
158, 6126.55, 0.00, 0.00, 0.00, 0.00, 0.00, 0.00, 0.00, 0.000, 0.000, 0.000, 11:58:19.991, 1553443099991
159, 6113.09, 0.00, 0.00, 0.00, 0.00, 0.00, 0.00, 0.00, 0.000, 0.000, 0.000, 11:58:19.991, 1553443099991
160, 6112.33, 0.00, 0.00, 0.00, 0.00, 0.00, 0.00, 0.00, 0.000, 0.000, 0.000, 11:58:19.991, 1553443099991
161, 6139.55, 0.00, 0.00, 0.00, 0.00, 0.00, 0.00, 0.00, 0.000, 0.000, 0.000, 11:58:19.991, 1553443099991
162, 6135.78, 0.00, 0.00, 0.00, 0.00, 0.00, 0.00, 0.00, 0.000, 0.000, 0.000, 11:58:19.991, 1553443099991
163, 6119.04, 0.00, 0.00, 0.00, 0.00, 0.00, 0.00, 0.00, 0.000, 0.000, 0.000, 11:58:19.991, 1553443099991
164, 6155.02, 0.00, 0.00, 0.00, 0.00, 0.00, 0.00, 0.00, 0.000, 0.000, 0.000, 11:58:19.991, 1553443099991
165, 6156.09, 0.00, 0.00, 0.00, 0.00, 0.00, 0.00, 0.00, -0.282, 0.152, 0.942, 11:58:19.992, 1553443099992
166, 6211.86, 0.00, 0.00, 0.00, 0.00, 0.00, 0.00, 0.00, 0.000, 0.000, 0.000, 11:58:19.992, 1553443099992
167, 6056.58, 0.00, 0.00, 0.00, 0.00, 0.00, 0.00, 0.00, 0.000, 0.000, 0.000, 11:58:19.992, 1553443099992
168, 6012.35, 0.00, 0.00, 0.00, 0.00, 0.00, 0.00, 0.00, 0.000, 0.000, 0.000, 11:58:19.992, 1553443099992
169, 6066.35, 0.00, 0.00, 0.00, 0.00, 0.00, 0.00, 0.00, 0.000, 0.000, 0.000, 11:58:19.992, 1553443099992
170, 6035.31, 0.00, 0.00, 0.00, 0.00, 0.00, 0.00, 0.00, 0.000, 0.000, 0.000, 11:58:19.992, 1553443099992
171, 6044.69, 0.00, 0.00, 0.00, 0.00, 0.00, 0.00, 0.00, 0.000, 0.000, 0.000, 11:58:19.992, 1553443099992
172, 6057.99, 0.00, 0.00, 0.00, 0.00, 0.00, 0.00, 0.00, 0.000, 0.000, 0.000, 11:58:19.992, 1553443099992
173, 6062.96, 0.00, 0.00, 0.00, 0.00, 0.00, 0.00, 0.00, 0.000, 0.000, 0.000, 11:58:19.992, 1553443099992
174, 6032.09, 0.00, 0.00, 0.00, 0.00, 0.00, 0.00, 0.00, 0.000, 0.000, 0.000, 11:58:19.992, 1553443099992
175, 6037.18, 0.00, 0.00, 0.00, 0.00, 0.00, 0.00, 0.00, -0.282, 0.154, 0.952, 11:58:19.992, 1553443099992
176, 6036.11, 0.00, 0.00, 0.00, 0.00, 0.00, 0.00, 0.00, 0.000, 0.000, 0.000, 11:58:19.992, 1553443099992
177, 6052.49, 0.00, 0.00, 0.00, 0.00, 0.00, 0.00, 0.00, 0.000, 0.000, 0.000, 11:58:19.992, 1553443099992
178, 6055.53, 0.00, 0.00, 0.00, 0.00, 0.00, 0.00, 0.00, 0.000, 0.000, 0.000, 11:58:19.992, 1553443099992
179, 6041.52, 0.00, 0.00, 0.00, 0.00, 0.00, 0.00, 0.00, 0.000, 0.000, 0.000, 11:58:19.993, 1553443099993
180, 6029.67, 0.00, 0.00, 0.00, 0.00, 0.00, 0.00, 0.00, 0.000, 0.000, 0.000, 11:58:19.993, 1553443099993
181, 6039.75, 0.00, 0.00, 0.00, 0.00, 0.00, 0.00, 0.00, 0.000, 0.000, 0.000, 11:58:19.993, 1553443099993
182, 6039.84, 0.00, 0.00, 0.00, 0.00, 0.00, 0.00, 0.00, 0.000, 0.000, 0.000, 11:58:19.993, 1553443099993
183, 6086.22, 0.00, 0.00, 0.00, 0.00, 0.00, 0.00, 0.00, 0.000, 0.000, 0.000, 11:58:19.993, 1553443099993
184, 6052.83, 0.00, 0.00, 0.00, 0.00, 0.00, 0.00, 0.00, 0.000, 0.000, 0.000, 11:58:19.993, 1553443099993
185, 6074.76, 0.00, 0.00, 0.00, 0.00, 0.00, 0.00, 0.00, -0.280, 0.160, 0.956, 11:58:19.993, 1553443099993
186, 6071.36, 0.00, 0.00, 0.00, 0.00, 0.00, 0.00, 0.00, 0.000, 0.000, 0.000, 11:58:19.993, 1553443099993
187, 6087.23, 0.00, 0.00, 0.00, 0.00, 0.00, 0.00, 0.00, 0.000, 0.000, 0.000, 11:58:19.993, 1553443099993
188, 6078.91, 0.00, 0.00, 0.00, 0.00, 0.00, 0.00, 0.00, 0.000, 0.000, 0.000, 11:58:19.993, 1553443099993
189, 6081.57, 0.00, 0.00, 0.00, 0.00, 0.00, 0.00, 0.00, 0.000, 0.000, 0.000, 11:58:19.993, 1553443099993
190, 6118.37, 0.00, 0.00, 0.00, 0.00, 0.00, 0.00, 0.00, 0.000, 0.000, 0.000, 11:58:19.993, 1553443099993
191, 6097.18, 0.00, 0.00, 0.00, 0.00, 0.00, 0.00, 0.00, 0.000, 0.000, 0.000, 11:58:19.994, 1553443099994
192, 6110.83, 0.00, 0.00, 0.00, 0.00, 0.00, 0.00, 0.00, 0.000, 0.000, 0.000, 11:58:19.994, 1553443099994
193, 6150.26, 0.00, 0.00, 0.00, 0.00, 0.00, 0.00, 0.00, 0.000, 0.000, 0.000, 11:58:19.994, 1553443099994
194, 6173.80, 0.00, 0.00, 0.00, 0.00, 0.00, 0.00, 0.00, 0.000, 0.000, 0.000, 11:58:19.994, 1553443099994
195, 6200.37, 0.00, 0.00, 0.00, 0.00, 0.00, 0.00, 0.00, -0.280, 0.158, 0.952, 11:58:19.994, 1553443099994
196, 6208.82, 0.00, 0.00, 0.00, 0.00, 0.00, 0.00, 0.00, 0.000, 0.000, 0.000, 11:58:19.994, 1553443099994
197, 6237.19, 0.00, 0.00, 0.00, 0.00, 0.00, 0.00, 0.00, 0.000, 0.000, 0.000, 11:58:19.994, 1553443099994
198, 6158.87, 0.00, 0.00, 0.00, 0.00, 0.00, 0.00, 0.00, 0.000, 0.000, 0.000, 11:58:19.994, 1553443099994
199, 6178.78, 0.00, 0.00, 0.00, 0.00, 0.00, 0.00, 0.00, 0.000, 0.000, 0.000, 11:58:19.994, 1553443099994
200, 6178.87, 0.00, 0.00, 0.00, 0.00, 0.00, 0.00, 0.00, 0.000, 0.000, 0.000, 11:58:19.994, 1553443099994
201, 6174.92, 0.00, 0.00, 0.00, 0.00, 0.00, 0.00, 0.00, 0.000, 0.000, 0.000, 11:58:19.994, 1553443099994
202, 6202.81, 0.00, 0.00, 0.00, 0.00, 0.00, 0.00, 0.00, 0.000, 0.000, 0.000, 11:58:19.994, 1553443099994
203, 6214.41, 0.00, 0.00, 0.00, 0.00, 0.00, 0.00, 0.00, 0.000, 0.000, 0.000, 11:58:19.994, 1553443099994
204, 6205.87, 0.00, 0.00, 0.00, 0.00, 0.00, 0.00, 0.00, 0.000, 0.000, 0.000, 11:58:19.994, 1553443099994
205, 6223.24, 0.00, 0.00, 0.00, 0.00, 0.00, 0.00, 0.00, -0.282, 0.162, 0.956, 11:58:19.994, 1553443099994
206, 6243.98, 0.00, 0.00, 0.00, 0.00, 0.00, 0.00, 0.00, 0.000, 0.000, 0.000, 11:58:19.994, 1553443099994
207, 6251.40, 0.00, 0.00, 0.00, 0.00, 0.00, 0.00, 0.00, 0.000, 0.000, 0.000, 11:58:19.995, 1553443099995
208, 6179.63, 0.00, 0.00, 0.00, 0.00, 0.00, 0.00, 0.00, 0.000, 0.000, 0.000, 11:58:19.995, 1553443099995
209, 6167.20, 0.00, 0.00, 0.00, 0.00, 0.00, 0.00, 0.00, 0.000, 0.000, 0.000, 11:58:19.995, 1553443099995
210, 6207.15, 0.00, 0.00, 0.00, 0.00, 0.00, 0.00, 0.00, 0.000, 0.000, 0.000, 11:58:19.995, 1553443099995
211, 6217.94, 0.00, 0.00, 0.00, 0.00, 0.00, 0.00, 0.00, 0.000, 0.000, 0.000, 11:58:19.995, 1553443099995
212, 6203.53, 0.00, 0.00, 0.00, 0.00, 0.00, 0.00, 0.00, 0.000, 0.000, 0.000, 11:58:19.995, 1553443099995
213, 6193.62, 0.00, 0.00, 0.00, 0.00, 0.00, 0.00, 0.00, 0.000, 0.000, 0.000, 11:58:19.995, 1553443099995
214, 6208.40, 0.00, 0.00, 0.00, 0.00, 0.00, 0.00, 0.00, 0.000, 0.000, 0.000, 11:58:19.995, 1553443099995
215, 6211.91, 0.00, 0.00, 0.00, 0.00, 0.00, 0.00, 0.00, -0.282, 0.164, 0.956, 11:58:19.996, 1553443099996
216, 6231.76, 0.00, 0.00, 0.00, 0.00, 0.00, 0.00, 0.00, 0.000, 0.000, 0.000, 11:58:19.996, 1553443099996
217, 6191.95, 0.00, 0.00, 0.00, 0.00, 0.00, 0.00, 0.00, 0.000, 0.000, 0.000, 11:58:19.996, 1553443099996
218, 6200.08, 0.00, 0.00, 0.00, 0.00, 0.00, 0.00, 0.00, 0.000, 0.000, 0.000, 11:58:19.996, 1553443099996
219, 6183.36, 0.00, 0.00, 0.00, 0.00, 0.00, 0.00, 0.00, 0.000, 0.000, 0.000, 11:58:19.996, 1553443099996
220, 6166.71, 0.00, 0.00, 0.00, 0.00, 0.00, 0.00, 0.00, 0.000, 0.000, 0.000, 11:58:19.996, 1553443099996
221, 6193.09, 0.00, 0.00, 0.00, 0.00, 0.00, 0.00, 0.00, 0.000, 0.000, 0.000, 11:58:19.996, 1553443099996
222, 6219.48, 0.00, 0.00, 0.00, 0.00, 0.00, 0.00, 0.00, 0.000, 0.000, 0.000, 11:58:19.996, 1553443099996
223, 6184.26, 0.00, 0.00, 0.00, 0.00, 0.00, 0.00, 0.00, 0.000, 0.000, 0.000, 11:58:19.996, 1553443099996
224, 6187.28, 0.00, 0.00, 0.00, 0.00, 0.00, 0.00, 0.00, 0.000, 0.000, 0.000, 11:58:19.996, 1553443099996
225, 6197.42, 0.00, 0.00, 0.00, 0.00, 0.00, 0.00, 0.00, -0.278, 0.162, 0.954, 11:58:19.996, 1553443099996
226, 6196.62, 0.00, 0.00, 0.00, 0.00, 0.00, 0.00, 0.00, 0.000, 0.000, 0.000, 11:58:19.996, 1553443099996
227, 6231.98, 0.00, 0.00, 0.00, 0.00, 0.00, 0.00, 0.00, 0.000, 0.000, 0.000, 11:58:19.996, 1553443099996
228, 6228.09, 0.00, 0.00, 0.00, 0.00, 0.00, 0.00, 0.00, 0.000, 0.000, 0.000, 11:58:19.996, 1553443099996
229, 6134.53, 0.00, 0.00, 0.00, 0.00, 0.00, 0.00, 0.00, 0.000, 0.000, 0.000, 11:58:19.996, 1553443099996
230, 6134.50, 0.00, 0.00, 0.00, 0.00, 0.00, 0.00, 0.00, 0.000, 0.000, 0.000, 11:58:19.996, 1553443099996
231, 6157.53, 0.00, 0.00, 0.00, 0.00, 0.00, 0.00, 0.00, 0.000, 0.000, 0.000, 11:58:19.996, 1553443099996
232, 6159.25, 0.00, 0.00, 0.00, 0.00, 0.00, 0.00, 0.00, 0.000, 0.000, 0.000, 11:58:19.996, 1553443099996
233, 6134.41, 0.00, 0.00, 0.00, 0.00, 0.00, 0.00, 0.00, 0.000, 0.000, 0.000, 11:58:19.997, 1553443099997
234, 6139.26, 0.00, 0.00, 0.00, 0.00, 0.00, 0.00, 0.00, 0.000, 0.000, 0.000, 11:58:19.997, 1553443099997
235, 6155.33, 0.00, 0.00, 0.00, 0.00, 0.00, 0.00, 0.00, -0.282, 0.152, 0.950, 11:58:19.997, 1553443099997
236, 6157.93, 0.00, 0.00, 0.00, 0.00, 0.00, 0.00, 0.00, 0.000, 0.000, 0.000, 11:58:19.997, 1553443099997
237, 6125.58, 0.00, 0.00, 0.00, 0.00, 0.00, 0.00, 0.00, 0.000, 0.000, 0.000, 11:58:19.997, 1553443099997
238, 6115.08, 0.00, 0.00, 0.00, 0.00, 0.00, 0.00, 0.00, 0.000, 0.000, 0.000, 11:58:19.997, 1553443099997
239, 6137.32, 0.00, 0.00, 0.00, 0.00, 0.00, 0.00, 0.00, 0.000, 0.000, 0.000, 11:58:19.997, 1553443099997
240, 6103.88, 0.00, 0.00, 0.00, 0.00, 0.00, 0.00, 0.00, 0.000, 0.000, 0.000, 11:58:19.997, 1553443099997
241, 6126.68, 0.00, 0.00, 0.00, 0.00, 0.00, 0.00, 0.00, 0.000, 0.000, 0.000, 11:58:20.453, 1553443100453
242, 6109.33, 0.00, 0.00, 0.00, 0.00, 0.00, 0.00, 0.00, 0.000, 0.000, 0.000, 11:58:20.454, 1553443100454
243, 6159.94, 0.00, 0.00, 0.00, 0.00, 0.00, 0.00, 0.00, 0.000, 0.000, 0.000, 11:58:20.454, 1553443100454
244, 6200.17, 0.00, 0.00, 0.00, 0.00, 0.00, 0.00, 0.00, -0.284, 0.156, 0.954, 11:58:20.454, 1553443100454
245, 6187.63, 0.00, 0.00, 0.00, 0.00, 0.00, 0.00, 0.00, 0.000, 0.000, 0.000, 11:58:20.454, 1553443100454
246, 6219.44, 0.00, 0.00, 0.00, 0.00, 0.00, 0.00, 0.00, 0.000, 0.000, 0.000, 11:58:20.454, 1553443100454
247, 6225.88, 0.00, 0.00, 0.00, 0.00, 0.00, 0.00, 0.00, 0.000, 0.000, 0.000, 11:58:20.454, 1553443100454
248, 6214.25, 0.00, 0.00, 0.00, 0.00, 0.00, 0.00, 0.00, 0.000, 0.000, 0.000, 11:58:20.454, 1553443100454
249, 6216.18, 0.00, 0.00, 0.00, 0.00, 0.00, 0.00, 0.00, 0.000, 0.000, 0.000, 11:58:20.454, 1553443100454
250, 6218.95, 0.00, 0.00, 0.00, 0.00, 0.00, 0.00, 0.00, 0.000, 0.000, 0.000, 11:58:20.454, 1553443100454
251, 6213.25, 0.00, 0.00, 0.00, 0.00, 0.00, 0.00, 0.00, 0.000, 0.000, 0.000, 11:58:20.457, 1553443100457
252, 6206.92, 0.00, 0.00, 0.00, 0.00, 0.00, 0.00, 0.00, 0.000, 0.000, 0.000, 11:58:20.457, 1553443100457
253, 6213.56, 0.00, 0.00, 0.00, 0.00, 0.00, 0.00, 0.00, 0.000, 0.000, 0.000, 11:58:20.457, 1553443100457
254, 6215.42, 0.00, 0.00, 0.00, 0.00, 0.00, 0.00, 0.00, -0.278, 0.152, 0.960, 11:58:20.457, 1553443100457
255, 6215.66, 0.00, 0.00, 0.00, 0.00, 0.00, 0.00, 0.00, 0.000, 0.000, 0.000, 11:58:20.457, 1553443100457
0, 6218.01, 0.00, 0.00, 0.00, 0.00, 0.00, 0.00, 0.00, 0.000, 0.000, 0.000, 11:58:20.457, 1553443100457
1, 6214.92, 0.00, 0.00, 0.00, 0.00, 0.00, 0.00, 0.00, 0.000, 0.000, 0.000, 11:58:20.458, 1553443100458
2, 6242.31, 0.00, 0.00, 0.00, 0.00, 0.00, 0.00, 0.00, 0.000, 0.000, 0.000, 11:58:20.458, 1553443100458
3, 6267.41, 0.00, 0.00, 0.00, 0.00, 0.00, 0.00, 0.00, 0.000, 0.000, 0.000, 11:58:20.458, 1553443100458
4, 6264.88, 0.00, 0.00, 0.00, 0.00, 0.00, 0.00, 0.00, 0.000, 0.000, 0.000, 11:58:20.458, 1553443100458
5, 6239.40, 0.00, 0.00, 0.00, 0.00, 0.00, 0.00, 0.00, 0.000, 0.000, 0.000, 11:58:20.458, 1553443100458
6, 6184.01, 0.00, 0.00, 0.00, 0.00, 0.00, 0.00, 0.00, 0.000, 0.000, 0.000, 11:58:20.458, 1553443100458
7, 6014.03, 0.00, 0.00, 0.00, 0.00, 0.00, 0.00, 0.00, 0.000, 0.000, 0.000, 11:58:20.458, 1553443100458
8, 5764.72, 0.00, 0.00, 0.00, 0.00, 0.00, 0.00, 0.00, -0.278, 0.158, 0.952, 11:58:20.458, 1553443100458
9, 5562.88, 0.00, 0.00, 0.00, 0.00, 0.00, 0.00, 0.00, 0.000, 0.000, 0.000, 11:58:20.458, 1553443100458
10, 5403.29, 0.00, 0.00, 0.00, 0.00, 0.00, 0.00, 0.00, 0.000, 0.000, 0.000, 11:58:20.458, 1553443100458
11, 5419.69, 0.00, 0.00, 0.00, 0.00, 0.00, 0.00, 0.00, 0.000, 0.000, 0.000, 11:58:20.458, 1553443100458
12, 5591.09, 0.00, 0.00, 0.00, 0.00, 0.00, 0.00, 0.00, 0.000, 0.000, 0.000, 11:58:20.459, 1553443100459
13, 5823.81, 0.00, 0.00, 0.00, 0.00, 0.00, 0.00, 0.00, 0.000, 0.000, 0.000, 11:58:20.459, 1553443100459
14, 6127.37, 0.00, 0.00, 0.00, 0.00, 0.00, 0.00, 0.00, 0.000, 0.000, 0.000, 11:58:20.459, 1553443100459
15, 6215.48, 0.00, 0.00, 0.00, 0.00, 0.00, 0.00, 0.00, 0.000, 0.000, 0.000, 11:58:20.462, 1553443100462
16, 6214.14, 0.00, 0.00, 0.00, 0.00, 0.00, 0.00, 0.00, 0.000, 0.000, 0.000, 11:58:20.462, 1553443100462
17, 6182.74, 0.00, 0.00, 0.00, 0.00, 0.00, 0.00, 0.00, 0.000, 0.000, 0.000, 11:58:20.462, 1553443100462
18, 6171.74, 0.00, 0.00, 0.00, 0.00, 0.00, 0.00, 0.00, -0.282, 0.158, 0.952, 11:58:20.462, 1553443100462
19, 6168.37, 0.00, 0.00, 0.00, 0.00, 0.00, 0.00, 0.00, 0.000, 0.000, 0.000, 11:58:20.462, 1553443100462
20, 6185.93, 0.00, 0.00, 0.00, 0.00, 0.00, 0.00, 0.00, 0.000, 0.000, 0.000, 11:58:20.462, 1553443100462
21, 6179.30, 0.00, 0.00, 0.00, 0.00, 0.00, 0.00, 0.00, 0.000, 0.000, 0.000, 11:58:20.462, 1553443100462
22, 6189.26, 0.00, 0.00, 0.00, 0.00, 0.00, 0.00, 0.00, 0.000, 0.000, 0.000, 11:58:20.463, 1553443100463
23, 6194.41, 0.00, 0.00, 0.00, 0.00, 0.00, 0.00, 0.00, 0.000, 0.000, 0.000, 11:58:20.463, 1553443100463
24, 6211.17, 0.00, 0.00, 0.00, 0.00, 0.00, 0.00, 0.00, 0.000, 0.000, 0.000, 11:58:20.463, 1553443100463
25, 6208.33, 0.00, 0.00, 0.00, 0.00, 0.00, 0.00, 0.00, 0.000, 0.000, 0.000, 11:58:20.463, 1553443100463
26, 6182.98, 0.00, 0.00, 0.00, 0.00, 0.00, 0.00, 0.00, 0.000, 0.000, 0.000, 11:58:20.463, 1553443100463
27, 6179.83, 0.00, 0.00, 0.00, 0.00, 0.00, 0.00, 0.00, 0.000, 0.000, 0.000, 11:58:20.463, 1553443100463
28, 6191.81, 0.00, 0.00, 0.00, 0.00, 0.00, 0.00, 0.00, -0.286, 0.162, 0.958, 11:58:20.463, 1553443100463
29, 6178.94, 0.00, 0.00, 0.00, 0.00, 0.00, 0.00, 0.00, 0.000, 0.000, 0.000, 11:58:20.463, 1553443100463
30, 6162.11, 0.00, 0.00, 0.00, 0.00, 0.00, 0.00, 0.00, 0.000, 0.000, 0.000, 11:58:20.463, 1553443100463
31, 6147.87, 0.00, 0.00, 0.00, 0.00, 0.00, 0.00, 0.00, 0.000, 0.000, 0.000, 11:58:20.464, 1553443100464
32, 6149.48, 0.00, 0.00, 0.00, 0.00, 0.00, 0.00, 0.00, 0.000, 0.000, 0.000, 11:58:20.464, 1553443100464
33, 6156.54, 0.00, 0.00, 0.00, 0.00, 0.00, 0.00, 0.00, 0.000, 0.000, 0.000, 11:58:20.464, 1553443100464
34, 6181.80, 0.00, 0.00, 0.00, 0.00, 0.00, 0.00, 0.00, 0.000, 0.000, 0.000, 11:58:20.464, 1553443100464
35, 6172.05, 0.00, 0.00, 0.00, 0.00, 0.00, 0.00, 0.00, 0.000, 0.000, 0.000, 11:58:20.464, 1553443100464
36, 6162.62, 0.00, 0.00, 0.00, 0.00, 0.00, 0.00, 0.00, 0.000, 0.000, 0.000, 11:58:20.464, 1553443100464
37, 6154.71, 0.00, 0.00, 0.00, 0.00, 0.00, 0.00, 0.00, 0.000, 0.000, 0.000, 11:58:20.464, 1553443100464
38, 6178.92, 0.00, 0.00, 0.00, 0.00, 0.00, 0.00, 0.00, -0.286, 0.158, 0.958, 11:58:20.464, 1553443100464
39, 6193.18, 0.00, 0.00, 0.00, 0.00, 0.00, 0.00, 0.00, 0.000, 0.000, 0.000, 11:58:20.464, 1553443100464
40, 6164.95, 0.00, 0.00, 0.00, 0.00, 0.00, 0.00, 0.00, 0.000, 0.000, 0.000, 11:58:20.465, 1553443100465
41, 6160.68, 0.00, 0.00, 0.00, 0.00, 0.00, 0.00, 0.00, 0.000, 0.000, 0.000, 11:58:20.465, 1553443100465
42, 6191.59, 0.00, 0.00, 0.00, 0.00, 0.00, 0.00, 0.00, 0.000, 0.000, 0.000, 11:58:20.465, 1553443100465
43, 6202.05, 0.00, 0.00, 0.00, 0.00, 0.00, 0.00, 0.00, 0.000, 0.000, 0.000, 11:58:20.465, 1553443100465
44, 6193.02, 0.00, 0.00, 0.00, 0.00, 0.00, 0.00, 0.00, 0.000, 0.000, 0.000, 11:58:20.465, 1553443100465
45, 6166.62, 0.00, 0.00, 0.00, 0.00, 0.00, 0.00, 0.00, 0.000, 0.000, 0.000, 11:58:20.465, 1553443100465
46, 6150.95, 0.00, 0.00, 0.00, 0.00, 0.00, 0.00, 0.00, 0.000, 0.000, 0.000, 11:58:20.465, 1553443100465
47, 6145.54, 0.00, 0.00, 0.00, 0.00, 0.00, 0.00, 0.00, 0.000, 0.000, 0.000, 11:58:20.465, 1553443100465
48, 6123.39, 0.00, 0.00, 0.00, 0.00, 0.00, 0.00, 0.00, -0.292, 0.154, 0.952, 11:58:20.465, 1553443100465
49, 6120.65, 0.00, 0.00, 0.00, 0.00, 0.00, 0.00, 0.00, 0.000, 0.000, 0.000, 11:58:20.466, 1553443100466
50, 6126.17, 0.00, 0.00, 0.00, 0.00, 0.00, 0.00, 0.00, 0.000, 0.000, 0.000, 11:58:20.466, 1553443100466
51, 6089.00, 0.00, 0.00, 0.00, 0.00, 0.00, 0.00, 0.00, 0.000, 0.000, 0.000, 11:58:20.466, 1553443100466
52, 6066.20, 0.00, 0.00, 0.00, 0.00, 0.00, 0.00, 0.00, 0.000, 0.000, 0.000, 11:58:20.466, 1553443100466
53, 6085.06, 0.00, 0.00, 0.00, 0.00, 0.00, 0.00, 0.00, 0.000, 0.000, 0.000, 11:58:20.466, 1553443100466
54, 6099.63, 0.00, 0.00, 0.00, 0.00, 0.00, 0.00, 0.00, 0.000, 0.000, 0.000, 11:58:20.466, 1553443100466
55, 6097.89, 0.00, 0.00, 0.00, 0.00, 0.00, 0.00, 0.00, 0.000, 0.000, 0.000, 11:58:20.466, 1553443100466
56, 6085.22, 0.00, 0.00, 0.00, 0.00, 0.00, 0.00, 0.00, 0.000, 0.000, 0.000, 11:58:20.467, 1553443100467
57, 6077.71, 0.00, 0.00, 0.00, 0.00, 0.00, 0.00, 0.00, 0.000, 0.000, 0.000, 11:58:20.467, 1553443100467
58, 6050.97, 0.00, 0.00, 0.00, 0.00, 0.00, 0.00, 0.00, -0.290, 0.156, 0.946, 11:58:20.467, 1553443100467
59, 6032.11, 0.00, 0.00, 0.00, 0.00, 0.00, 0.00, 0.00, 0.000, 0.000, 0.000, 11:58:20.467, 1553443100467
60, 6058.51, 0.00, 0.00, 0.00, 0.00, 0.00, 0.00, 0.00, 0.000, 0.000, 0.000, 11:58:20.467, 1553443100467
61, 6058.98, 0.00, 0.00, 0.00, 0.00, 0.00, 0.00, 0.00, 0.000, 0.000, 0.000, 11:58:20.467, 1553443100467
62, 6026.50, 0.00, 0.00, 0.00, 0.00, 0.00, 0.00, 0.00, 0.000, 0.000, 0.000, 11:58:20.467, 1553443100467
63, 6076.01, 0.00, 0.00, 0.00, 0.00, 0.00, 0.00, 0.00, 0.000, 0.000, 0.000, 11:58:20.467, 1553443100467
64, 6037.97, 0.00, 0.00, 0.00, 0.00, 0.00, 0.00, 0.00, 0.000, 0.000, 0.000, 11:58:20.467, 1553443100467
65, 6042.28, 0.00, 0.00, 0.00, 0.00, 0.00, 0.00, 0.00, 0.000, 0.000, 0.000, 11:58:20.468, 1553443100468
66, 6051.09, 0.00, 0.00, 0.00, 0.00, 0.00, 0.00, 0.00, 0.000, 0.000, 0.000, 11:58:20.468, 1553443100468
67, 6084.59, 0.00, 0.00, 0.00, 0.00, 0.00, 0.00, 0.00, 0.000, 0.000, 0.000, 11:58:20.468, 1553443100468
68, 6082.56, 0.00, 0.00, 0.00, 0.00, 0.00, 0.00, 0.00, -0.288, 0.158, 0.950, 11:58:20.468, 1553443100468
69, 6042.77, 0.00, 0.00, 0.00, 0.00, 0.00, 0.00, 0.00, 0.000, 0.000, 0.000, 11:58:20.468, 1553443100468
70, 6040.36, 0.00, 0.00, 0.00, 0.00, 0.00, 0.00, 0.00, 0.000, 0.000, 0.000, 11:58:20.468, 1553443100468
71, 6056.47, 0.00, 0.00, 0.00, 0.00, 0.00, 0.00, 0.00, 0.000, 0.000, 0.000, 11:58:20.468, 1553443100468
72, 6060.05, 0.00, 0.00, 0.00, 0.00, 0.00, 0.00, 0.00, 0.000, 0.000, 0.000, 11:58:20.468, 1553443100468
73, 6077.73, 0.00, 0.00, 0.00, 0.00, 0.00, 0.00, 0.00, 0.000, 0.000, 0.000, 11:58:20.468, 1553443100468
74, 6100.55, 0.00, 0.00, 0.00, 0.00, 0.00, 0.00, 0.00, 0.000, 0.000, 0.000, 11:58:20.468, 1553443100468
75, 6126.12, 0.00, 0.00, 0.00, 0.00, 0.00, 0.00, 0.00, 0.000, 0.000, 0.000, 11:58:20.468, 1553443100468
76, 6122.43, 0.00, 0.00, 0.00, 0.00, 0.00, 0.00, 0.00, 0.000, 0.000, 0.000, 11:58:20.468, 1553443100468
77, 6128.33, 0.00, 0.00, 0.00, 0.00, 0.00, 0.00, 0.00, 0.000, 0.000, 0.000, 11:58:20.469, 1553443100469
78, 6151.47, 0.00, 0.00, 0.00, 0.00, 0.00, 0.00, 0.00, -0.286, 0.162, 0.946, 11:58:20.469, 1553443100469
79, 6171.99, 0.00, 0.00, 0.00, 0.00, 0.00, 0.00, 0.00, 0.000, 0.000, 0.000, 11:58:20.469, 1553443100469
80, 6144.74, 0.00, 0.00, 0.00, 0.00, 0.00, 0.00, 0.00, 0.000, 0.000, 0.000, 11:58:20.469, 1553443100469
81, 6160.83, 0.00, 0.00, 0.00, 0.00, 0.00, 0.00, 0.00, 0.000, 0.000, 0.000, 11:58:20.469, 1553443100469
82, 6185.49, 0.00, 0.00, 0.00, 0.00, 0.00, 0.00, 0.00, 0.000, 0.000, 0.000, 11:58:20.469, 1553443100469
83, 6192.26, 0.00, 0.00, 0.00, 0.00, 0.00, 0.00, 0.00, 0.000, 0.000, 0.000, 11:58:20.469, 1553443100469
84, 6201.49, 0.00, 0.00, 0.00, 0.00, 0.00, 0.00, 0.00, 0.000, 0.000, 0.000, 11:58:20.469, 1553443100469
85, 6208.60, 0.00, 0.00, 0.00, 0.00, 0.00, 0.00, 0.00, 0.000, 0.000, 0.000, 11:58:20.469, 1553443100469
86, 6190.16, 0.00, 0.00, 0.00, 0.00, 0.00, 0.00, 0.00, 0.000, 0.000, 0.000, 11:58:20.469, 1553443100469
87, 6253.12, 0.00, 0.00, 0.00, 0.00, 0.00, 0.00, 0.00, 0.000, 0.000, 0.000, 11:58:20.469, 1553443100469
88, 6236.32, 0.00, 0.00, 0.00, 0.00, 0.00, 0.00, 0.00, -0.286, 0.156, 0.942, 11:58:20.469, 1553443100469
89, 6237.34, 0.00, 0.00, 0.00, 0.00, 0.00, 0.00, 0.00, 0.000, 0.000, 0.000, 11:58:20.470, 1553443100470
90, 6241.28, 0.00, 0.00, 0.00, 0.00, 0.00, 0.00, 0.00, 0.000, 0.000, 0.000, 11:58:20.470, 1553443100470
91, 6210.61, 0.00, 0.00, 0.00, 0.00, 0.00, 0.00, 0.00, 0.000, 0.000, 0.000, 11:58:20.470, 1553443100470
92, 6273.31, 0.00, 0.00, 0.00, 0.00, 0.00, 0.00, 0.00, 0.000, 0.000, 0.000, 11:58:20.470, 1553443100470
93, 6261.98, 0.00, 0.00, 0.00, 0.00, 0.00, 0.00, 0.00, 0.000, 0.000, 0.000, 11:58:20.470, 1553443100470
94, 6242.02, 0.00, 0.00, 0.00, 0.00, 0.00, 0.00, 0.00, 0.000, 0.000, 0.000, 11:58:20.470, 1553443100470
95, 6237.92, 0.00, 0.00, 0.00, 0.00, 0.00, 0.00, 0.00, 0.000, 0.000, 0.000, 11:58:20.470, 1553443100470
96, 6229.65, 0.00, 0.00, 0.00, 0.00, 0.00, 0.00, 0.00, 0.000, 0.000, 0.000, 11:58:20.470, 1553443100470
97, 6243.47, 0.00, 0.00, 0.00, 0.00, 0.00, 0.00, 0.00, -0.284, 0.158, 0.948, 11:58:20.470, 1553443100470
98, 6240.67, 0.00, 0.00, 0.00, 0.00, 0.00, 0.00, 0.00, 0.000, 0.000, 0.000, 11:58:20.470, 1553443100470
99, 6176.26, 0.00, 0.00, 0.00, 0.00, 0.00, 0.00, 0.00, 0.000, 0.000, 0.000, 11:58:20.470, 1553443100470
100, 6216.18, 0.00, 0.00, 0.00, 0.00, 0.00, 0.00, 0.00, 0.000, 0.000, 0.000, 11:58:20.470, 1553443100470
101, 6217.56, 0.00, 0.00, 0.00, 0.00, 0.00, 0.00, 0.00, 0.000, 0.000, 0.000, 11:58:20.471, 1553443100471
102, 6201.13, 0.00, 0.00, 0.00, 0.00, 0.00, 0.00, 0.00, 0.000, 0.000, 0.000, 11:58:20.471, 1553443100471
103, 6240.76, 0.00, 0.00, 0.00, 0.00, 0.00, 0.00, 0.00, 0.000, 0.000, 0.000, 11:58:20.471, 1553443100471
104, 6220.65, 0.00, 0.00, 0.00, 0.00, 0.00, 0.00, 0.00, 0.000, 0.000, 0.000, 11:58:20.471, 1553443100471
105, 6232.98, 0.00, 0.00, 0.00, 0.00, 0.00, 0.00, 0.00, 0.000, 0.000, 0.000, 11:58:20.938, 1553443100938
106, 6227.51, 0.00, 0.00, 0.00, 0.00, 0.00, 0.00, 0.00, 0.000, 0.000, 0.000, 11:58:20.938, 1553443100938
107, 6223.71, 0.00, 0.00, 0.00, 0.00, 0.00, 0.00, 0.00, -0.284, 0.154, 0.946, 11:58:20.938, 1553443100938
108, 6222.64, 0.00, 0.00, 0.00, 0.00, 0.00, 0.00, 0.00, 0.000, 0.000, 0.000, 11:58:20.938, 1553443100938
109, 6217.67, 0.00, 0.00, 0.00, 0.00, 0.00, 0.00, 0.00, 0.000, 0.000, 0.000, 11:58:20.938, 1553443100938
110, 6225.88, 0.00, 0.00, 0.00, 0.00, 0.00, 0.00, 0.00, 0.000, 0.000, 0.000, 11:58:20.938, 1553443100938
111, 6244.54, 0.00, 0.00, 0.00, 0.00, 0.00, 0.00, 0.00, 0.000, 0.000, 0.000, 11:58:20.939, 1553443100939
112, 6188.48, 0.00, 0.00, 0.00, 0.00, 0.00, 0.00, 0.00, 0.000, 0.000, 0.000, 11:58:20.939, 1553443100939
113, 6215.22, 0.00, 0.00, 0.00, 0.00, 0.00, 0.00, 0.00, 0.000, 0.000, 0.000, 11:58:20.940, 1553443100940
114, 6202.63, 0.00, 0.00, 0.00, 0.00, 0.00, 0.00, 0.00, 0.000, 0.000, 0.000, 11:58:20.940, 1553443100940
115, 6193.80, 0.00, 0.00, 0.00, 0.00, 0.00, 0.00, 0.00, 0.000, 0.000, 0.000, 11:58:20.940, 1553443100940
116, 6189.94, 0.00, 0.00, 0.00, 0.00, 0.00, 0.00, 0.00, 0.000, 0.000, 0.000, 11:58:20.940, 1553443100940
117, 6242.93, 0.00, 0.00, 0.00, 0.00, 0.00, 0.00, 0.00, -0.284, 0.160, 0.950, 11:58:20.940, 1553443100940
118, 6262.96, 0.00, 0.00, 0.00, 0.00, 0.00, 0.00, 0.00, 0.000, 0.000, 0.000, 11:58:20.940, 1553443100940
119, 6249.55, 0.00, 0.00, 0.00, 0.00, 0.00, 0.00, 0.00, 0.000, 0.000, 0.000, 11:58:20.940, 1553443100940
120, 6237.79, 0.00, 0.00, 0.00, 0.00, 0.00, 0.00, 0.00, 0.000, 0.000, 0.000, 11:58:20.940, 1553443100940
121, 6202.16, 0.00, 0.00, 0.00, 0.00, 0.00, 0.00, 0.00, 0.000, 0.000, 0.000, 11:58:20.940, 1553443100940
122, 6199.57, 0.00, 0.00, 0.00, 0.00, 0.00, 0.00, 0.00, 0.000, 0.000, 0.000, 11:58:20.940, 1553443100940
123, 6203.37, 0.00, 0.00, 0.00, 0.00, 0.00, 0.00, 0.00, 0.000, 0.000, 0.000, 11:58:20.940, 1553443100940
124, 6205.29, 0.00, 0.00, 0.00, 0.00, 0.00, 0.00, 0.00, 0.000, 0.000, 0.000, 11:58:20.941, 1553443100941
125, 6175.72, 0.00, 0.00, 0.00, 0.00, 0.00, 0.00, 0.00, 0.000, 0.000, 0.000, 11:58:20.942, 1553443100942
126, 6179.39, 0.00, 0.00, 0.00, 0.00, 0.00, 0.00, 0.00, 0.000, 0.000, 0.000, 11:58:20.942, 1553443100942
127, 6172.52, 0.00, 0.00, 0.00, 0.00, 0.00, 0.00, 0.00, -0.282, 0.162, 0.950, 11:58:20.942, 1553443100942
128, 6191.54, 0.00, 0.00, 0.00, 0.00, 0.00, 0.00, 0.00, 0.000, 0.000, 0.000, 11:58:20.942, 1553443100942
129, 6166.42, 0.00, 0.00, 0.00, 0.00, 0.00, 0.00, 0.00, 0.000, 0.000, 0.000, 11:58:20.942, 1553443100942
130, 6136.76, 0.00, 0.00, 0.00, 0.00, 0.00, 0.00, 0.00, 0.000, 0.000, 0.000, 11:58:20.942, 1553443100942
131, 6135.20, 0.00, 0.00, 0.00, 0.00, 0.00, 0.00, 0.00, 0.000, 0.000, 0.000, 11:58:20.943, 1553443100943
132, 6143.71, 0.00, 0.00, 0.00, 0.00, 0.00, 0.00, 0.00, 0.000, 0.000, 0.000, 11:58:20.944, 1553443100944
133, 6140.60, 0.00, 0.00, 0.00, 0.00, 0.00, 0.00, 0.00, 0.000, 0.000, 0.000, 11:58:20.944, 1553443100944
134, 6118.32, 0.00, 0.00, 0.00, 0.00, 0.00, 0.00, 0.00, 0.000, 0.000, 0.000, 11:58:20.944, 1553443100944
135, 6155.89, 0.00, 0.00, 0.00, 0.00, 0.00, 0.00, 0.00, 0.000, 0.000, 0.000, 11:58:20.944, 1553443100944
136, 6191.39, 0.00, 0.00, 0.00, 0.00, 0.00, 0.00, 0.00, 0.000, 0.000, 0.000, 11:58:20.944, 1553443100944
137, 6179.23, 0.00, 0.00, 0.00, 0.00, 0.00, 0.00, 0.00, -0.286, 0.162, 0.952, 11:58:20.944, 1553443100944
138, 6227.06, 0.00, 0.00, 0.00, 0.00, 0.00, 0.00, 0.00, 0.000, 0.000, 0.000, 11:58:20.945, 1553443100945
139, 6280.42, 0.00, 0.00, 0.00, 0.00, 0.00, 0.00, 0.00, 0.000, 0.000, 0.000, 11:58:20.945, 1553443100945
140, 6263.54, 0.00, 0.00, 0.00, 0.00, 0.00, 0.00, 0.00, 0.000, 0.000, 0.000, 11:58:20.945, 1553443100945
141, 6245.03, 0.00, 0.00, 0.00, 0.00, 0.00, 0.00, 0.00, 0.000, 0.000, 0.000, 11:58:20.946, 1553443100946
142, 6279.28, 0.00, 0.00, 0.00, 0.00, 0.00, 0.00, 0.00, 0.000, 0.000, 0.000, 11:58:20.946, 1553443100946
143, 6310.25, 0.00, 0.00, 0.00, 0.00, 0.00, 0.00, 0.00, 0.000, 0.000, 0.000, 11:58:20.946, 1553443100946
144, 6309.54, 0.00, 0.00, 0.00, 0.00, 0.00, 0.00, 0.00, 0.000, 0.000, 0.000, 11:58:20.947, 1553443100947
145, 6277.98, 0.00, 0.00, 0.00, 0.00, 0.00, 0.00, 0.00, 0.000, 0.000, 0.000, 11:58:20.947, 1553443100947
146, 6251.51, 0.00, 0.00, 0.00, 0.00, 0.00, 0.00, 0.00, 0.000, 0.000, 0.000, 11:58:20.947, 1553443100947
147, 6250.17, 0.00, 0.00, 0.00, 0.00, 0.00, 0.00, 0.00, -0.286, 0.164, 0.954, 11:58:20.947, 1553443100947
148, 6249.95, 0.00, 0.00, 0.00, 0.00, 0.00, 0.00, 0.00, 0.000, 0.000, 0.000, 11:58:20.948, 1553443100948
149, 6239.47, 0.00, 0.00, 0.00, 0.00, 0.00, 0.00, 0.00, 0.000, 0.000, 0.000, 11:58:20.948, 1553443100948
150, 6225.14, 0.00, 0.00, 0.00, 0.00, 0.00, 0.00, 0.00, 0.000, 0.000, 0.000, 11:58:20.948, 1553443100948
151, 6254.76, 0.00, 0.00, 0.00, 0.00, 0.00, 0.00, 0.00, 0.000, 0.000, 0.000, 11:58:20.948, 1553443100948
152, 6272.26, 0.00, 0.00, 0.00, 0.00, 0.00, 0.00, 0.00, 0.000, 0.000, 0.000, 11:58:20.948, 1553443100948
153, 6262.13, 0.00, 0.00, 0.00, 0.00, 0.00, 0.00, 0.00, 0.000, 0.000, 0.000, 11:58:20.948, 1553443100948
154, 6190.36, 0.00, 0.00, 0.00, 0.00, 0.00, 0.00, 0.00, 0.000, 0.000, 0.000, 11:58:20.949, 1553443100949
155, 6029.41, 0.00, 0.00, 0.00, 0.00, 0.00, 0.00, 0.00, 0.000, 0.000, 0.000, 11:58:20.949, 1553443100949
156, 5776.65, 0.00, 0.00, 0.00, 0.00, 0.00, 0.00, 0.00, 0.000, 0.000, 0.000, 11:58:20.949, 1553443100949
157, 5531.36, 0.00, 0.00, 0.00, 0.00, 0.00, 0.00, 0.00, -0.284, 0.158, 0.956, 11:58:20.949, 1553443100949
158, 5389.47, 0.00, 0.00, 0.00, 0.00, 0.00, 0.00, 0.00, 0.000, 0.000, 0.000, 11:58:20.949, 1553443100949
159, 5489.81, 0.00, 0.00, 0.00, 0.00, 0.00, 0.00, 0.00, 0.000, 0.000, 0.000, 11:58:20.949, 1553443100949
160, 5649.22, 0.00, 0.00, 0.00, 0.00, 0.00, 0.00, 0.00, 0.000, 0.000, 0.000, 11:58:20.949, 1553443100949
161, 5845.67, 0.00, 0.00, 0.00, 0.00, 0.00, 0.00, 0.00, 0.000, 0.000, 0.000, 11:58:20.949, 1553443100949
162, 6141.63, 0.00, 0.00, 0.00, 0.00, 0.00, 0.00, 0.00, 0.000, 0.000, 0.000, 11:58:20.949, 1553443100949
163, 6237.19, 0.00, 0.00, 0.00, 0.00, 0.00, 0.00, 0.00, 0.000, 0.000, 0.000, 11:58:20.949, 1553443100949
164, 6219.64, 0.00, 0.00, 0.00, 0.00, 0.00, 0.00, 0.00, 0.000, 0.000, 0.000, 11:58:20.949, 1553443100949
165, 6187.61, 0.00, 0.00, 0.00, 0.00, 0.00, 0.00, 0.00, 0.000, 0.000, 0.000, 11:58:20.949, 1553443100949
166, 6194.67, 0.00, 0.00, 0.00, 0.00, 0.00, 0.00, 0.00, 0.000, 0.000, 0.000, 11:58:20.949, 1553443100949
167, 6218.12, 0.00, 0.00, 0.00, 0.00, 0.00, 0.00, 0.00, -0.286, 0.158, 0.950, 11:58:20.949, 1553443100949
168, 6233.63, 0.00, 0.00, 0.00, 0.00, 0.00, 0.00, 0.00, 0.000, 0.000, 0.000, 11:58:20.950, 1553443100950
169, 6256.99, 0.00, 0.00, 0.00, 0.00, 0.00, 0.00, 0.00, 0.000, 0.000, 0.000, 11:58:20.950, 1553443100950
170, 6235.20, 0.00, 0.00, 0.00, 0.00, 0.00, 0.00, 0.00, 0.000, 0.000, 0.000, 11:58:20.950, 1553443100950
171, 6216.80, 0.00, 0.00, 0.00, 0.00, 0.00, 0.00, 0.00, 0.000, 0.000, 0.000, 11:58:20.950, 1553443100950
172, 6219.73, 0.00, 0.00, 0.00, 0.00, 0.00, 0.00, 0.00, 0.000, 0.000, 0.000, 11:58:20.950, 1553443100950
173, 6211.88, 0.00, 0.00, 0.00, 0.00, 0.00, 0.00, 0.00, 0.000, 0.000, 0.000, 11:58:20.950, 1553443100950
174, 6225.79, 0.00, 0.00, 0.00, 0.00, 0.00, 0.00, 0.00, 0.000, 0.000, 0.000, 11:58:20.950, 1553443100950
175, 6239.56, 0.00, 0.00, 0.00, 0.00, 0.00, 0.00, 0.00, 0.000, 0.000, 0.000, 11:58:20.950, 1553443100950
176, 6270.16, 0.00, 0.00, 0.00, 0.00, 0.00, 0.00, 0.00, 0.000, 0.000, 0.000, 11:58:20.950, 1553443100950
177, 6256.32, 0.00, 0.00, 0.00, 0.00, 0.00, 0.00, 0.00, -0.286, 0.160, 0.946, 11:58:20.950, 1553443100950
178, 6226.37, 0.00, 0.00, 0.00, 0.00, 0.00, 0.00, 0.00, 0.000, 0.000, 0.000, 11:58:20.950, 1553443100950
179, 6249.53, 0.00, 0.00, 0.00, 0.00, 0.00, 0.00, 0.00, 0.000, 0.000, 0.000, 11:58:20.950, 1553443100950
180, 6232.20, 0.00, 0.00, 0.00, 0.00, 0.00, 0.00, 0.00, 0.000, 0.000, 0.000, 11:58:20.950, 1553443100950
181, 6245.93, 0.00, 0.00, 0.00, 0.00, 0.00, 0.00, 0.00, 0.000, 0.000, 0.000, 11:58:20.950, 1553443100950
182, 6192.80, 0.00, 0.00, 0.00, 0.00, 0.00, 0.00, 0.00, 0.000, 0.000, 0.000, 11:58:20.950, 1553443100950
183, 6168.99, 0.00, 0.00, 0.00, 0.00, 0.00, 0.00, 0.00, 0.000, 0.000, 0.000, 11:58:20.950, 1553443100950
184, 6175.23, 0.00, 0.00, 0.00, 0.00, 0.00, 0.00, 0.00, 0.000, 0.000, 0.000, 11:58:20.950, 1553443100950
185, 6215.44, 0.00, 0.00, 0.00, 0.00, 0.00, 0.00, 0.00, 0.000, 0.000, 0.000, 11:58:20.950, 1553443100950
186, 6223.93, 0.00, 0.00, 0.00, 0.00, 0.00, 0.00, 0.00, 0.000, 0.000, 0.000, 11:58:20.951, 1553443100951
187, 6167.54, 0.00, 0.00, 0.00, 0.00, 0.00, 0.00, 0.00, -0.290, 0.162, 0.960, 11:58:20.951, 1553443100951
188, 6220.78, 0.00, 0.00, 0.00, 0.00, 0.00, 0.00, 0.00, 0.000, 0.000, 0.000, 11:58:20.951, 1553443100951
189, 6191.30, 0.00, 0.00, 0.00, 0.00, 0.00, 0.00, 0.00, 0.000, 0.000, 0.000, 11:58:20.951, 1553443100951
190, 6205.43, 0.00, 0.00, 0.00, 0.00, 0.00, 0.00, 0.00, 0.000, 0.000, 0.000, 11:58:20.951, 1553443100951
191, 6156.70, 0.00, 0.00, 0.00, 0.00, 0.00, 0.00, 0.00, 0.000, 0.000, 0.000, 11:58:20.951, 1553443100951
192, 6131.28, 0.00, 0.00, 0.00, 0.00, 0.00, 0.00, 0.00, 0.000, 0.000, 0.000, 11:58:20.951, 1553443100951
193, 6131.02, 0.00, 0.00, 0.00, 0.00, 0.00, 0.00, 0.00, 0.000, 0.000, 0.000, 11:58:20.951, 1553443100951
194, 6165.68, 0.00, 0.00, 0.00, 0.00, 0.00, 0.00, 0.00, 0.000, 0.000, 0.000, 11:58:20.951, 1553443100951
195, 6149.72, 0.00, 0.00, 0.00, 0.00, 0.00, 0.00, 0.00, 0.000, 0.000, 0.000, 11:58:20.951, 1553443100951
196, 6159.76, 0.00, 0.00, 0.00, 0.00, 0.00, 0.00, 0.00, 0.000, 0.000, 0.000, 11:58:20.951, 1553443100951
197, 6141.75, 0.00, 0.00, 0.00, 0.00, 0.00, 0.00, 0.00, -0.292, 0.152, 0.950, 11:58:20.951, 1553443100951
198, 6126.01, 0.00, 0.00, 0.00, 0.00, 0.00, 0.00, 0.00, 0.000, 0.000, 0.000, 11:58:20.951, 1553443100951
199, 6124.20, 0.00, 0.00, 0.00, 0.00, 0.00, 0.00, 0.00, 0.000, 0.000, 0.000, 11:58:20.951, 1553443100951
200, 6142.82, 0.00, 0.00, 0.00, 0.00, 0.00, 0.00, 0.00, 0.000, 0.000, 0.000, 11:58:20.951, 1553443100951
201, 6109.38, 0.00, 0.00, 0.00, 0.00, 0.00, 0.00, 0.00, 0.000, 0.000, 0.000, 11:58:20.951, 1553443100951
202, 6086.04, 0.00, 0.00, 0.00, 0.00, 0.00, 0.00, 0.00, 0.000, 0.000, 0.000, 11:58:20.951, 1553443100951
203, 6078.87, 0.00, 0.00, 0.00, 0.00, 0.00, 0.00, 0.00, 0.000, 0.000, 0.000, 11:58:20.951, 1553443100951
204, 6099.12, 0.00, 0.00, 0.00, 0.00, 0.00, 0.00, 0.00, 0.000, 0.000, 0.000, 11:58:20.952, 1553443100952
205, 6081.13, 0.00, 0.00, 0.00, 0.00, 0.00, 0.00, 0.00, 0.000, 0.000, 0.000, 11:58:20.952, 1553443100952
206, 6050.10, 0.00, 0.00, 0.00, 0.00, 0.00, 0.00, 0.00, -0.292, 0.150, 0.948, 11:58:20.952, 1553443100952
207, 6044.54, 0.00, 0.00, 0.00, 0.00, 0.00, 0.00, 0.00, 0.000, 0.000, 0.000, 11:58:20.952, 1553443100952
208, 6055.51, 0.00, 0.00, 0.00, 0.00, 0.00, 0.00, 0.00, 0.000, 0.000, 0.000, 11:58:20.952, 1553443100952
209, 6054.31, 0.00, 0.00, 0.00, 0.00, 0.00, 0.00, 0.00, 0.000, 0.000, 0.000, 11:58:20.952, 1553443100952
210, 6021.60, 0.00, 0.00, 0.00, 0.00, 0.00, 0.00, 0.00, 0.000, 0.000, 0.000, 11:58:20.952, 1553443100952
211, 6028.69, 0.00, 0.00, 0.00, 0.00, 0.00, 0.00, 0.00, 0.000, 0.000, 0.000, 11:58:20.952, 1553443100952
212, 6087.63, 0.00, 0.00, 0.00, 0.00, 0.00, 0.00, 0.00, 0.000, 0.000, 0.000, 11:58:20.952, 1553443100952
213, 6019.15, 0.00, 0.00, 0.00, 0.00, 0.00, 0.00, 0.00, 0.000, 0.000, 0.000, 11:58:20.952, 1553443100952
214, 5988.23, 0.00, 0.00, 0.00, 0.00, 0.00, 0.00, 0.00, 0.000, 0.000, 0.000, 11:58:20.952, 1553443100952
215, 6018.77, 0.00, 0.00, 0.00, 0.00, 0.00, 0.00, 0.00, 0.000, 0.000, 0.000, 11:58:20.952, 1553443100952
216, 5996.91, 0.00, 0.00, 0.00, 0.00, 0.00, 0.00, 0.00, -0.280, 0.152, 0.956, 11:58:20.952, 1553443100952
217, 6027.24, 0.00, 0.00, 0.00, 0.00, 0.00, 0.00, 0.00, 0.000, 0.000, 0.000, 11:58:20.952, 1553443100952
218, 6049.23, 0.00, 0.00, 0.00, 0.00, 0.00, 0.00, 0.00, 0.000, 0.000, 0.000, 11:58:20.952, 1553443100952
219, 6054.31, 0.00, 0.00, 0.00, 0.00, 0.00, 0.00, 0.00, 0.000, 0.000, 0.000, 11:58:20.952, 1553443100952
220, 6061.82, 0.00, 0.00, 0.00, 0.00, 0.00, 0.00, 0.00, 0.000, 0.000, 0.000, 11:58:20.953, 1553443100953
221, 6062.42, 0.00, 0.00, 0.00, 0.00, 0.00, 0.00, 0.00, 0.000, 0.000, 0.000, 11:58:20.953, 1553443100953
222, 6079.27, 0.00, 0.00, 0.00, 0.00, 0.00, 0.00, 0.00, 0.000, 0.000, 0.000, 11:58:20.953, 1553443100953
223, 6099.28, 0.00, 0.00, 0.00, 0.00, 0.00, 0.00, 0.00, 0.000, 0.000, 0.000, 11:58:20.953, 1553443100953
224, 6111.86, 0.00, 0.00, 0.00, 0.00, 0.00, 0.00, 0.00, 0.000, 0.000, 0.000, 11:58:20.953, 1553443100953
225, 6125.70, 0.00, 0.00, 0.00, 0.00, 0.00, 0.00, 0.00, 0.000, 0.000, 0.000, 11:58:20.953, 1553443100953
226, 6115.66, 0.00, 0.00, 0.00, 0.00, 0.00, 0.00, 0.00, -0.288, 0.146, 0.958, 11:58:21.416, 1553443101416
227, 6151.13, 0.00, 0.00, 0.00, 0.00, 0.00, 0.00, 0.00, 0.000, 0.000, 0.000, 11:58:21.416, 1553443101416
228, 6158.60, 0.00, 0.00, 0.00, 0.00, 0.00, 0.00, 0.00, 0.000, 0.000, 0.000, 11:58:21.416, 1553443101416
229, 6148.43, 0.00, 0.00, 0.00, 0.00, 0.00, 0.00, 0.00, 0.000, 0.000, 0.000, 11:58:21.416, 1553443101416
230, 6179.85, 0.00, 0.00, 0.00, 0.00, 0.00, 0.00, 0.00, 0.000, 0.000, 0.000, 11:58:21.416, 1553443101416
231, 6196.71, 0.00, 0.00, 0.00, 0.00, 0.00, 0.00, 0.00, 0.000, 0.000, 0.000, 11:58:21.417, 1553443101417
232, 6167.94, 0.00, 0.00, 0.00, 0.00, 0.00, 0.00, 0.00, 0.000, 0.000, 0.000, 11:58:21.417, 1553443101417
233, 6185.89, 0.00, 0.00, 0.00, 0.00, 0.00, 0.00, 0.00, 0.000, 0.000, 0.000, 11:58:21.418, 1553443101418
234, 6227.73, 0.00, 0.00, 0.00, 0.00, 0.00, 0.00, 0.00, 0.000, 0.000, 0.000, 11:58:21.418, 1553443101418
235, 6205.07, 0.00, 0.00, 0.00, 0.00, 0.00, 0.00, 0.00, 0.000, 0.000, 0.000, 11:58:21.418, 1553443101418
236, 6170.96, 0.00, 0.00, 0.00, 0.00, 0.00, 0.00, 0.00, -0.286, 0.152, 0.958, 11:58:21.418, 1553443101418
237, 6206.77, 0.00, 0.00, 0.00, 0.00, 0.00, 0.00, 0.00, 0.000, 0.000, 0.000, 11:58:21.418, 1553443101418
238, 6205.07, 0.00, 0.00, 0.00, 0.00, 0.00, 0.00, 0.00, 0.000, 0.000, 0.000, 11:58:21.418, 1553443101418
239, 6167.99, 0.00, 0.00, 0.00, 0.00, 0.00, 0.00, 0.00, 0.000, 0.000, 0.000, 11:58:21.418, 1553443101418
240, 6160.83, 0.00, 0.00, 0.00, 0.00, 0.00, 0.00, 0.00, 0.000, 0.000, 0.000, 11:58:21.418, 1553443101418
241, 6178.56, 0.00, 0.00, 0.00, 0.00, 0.00, 0.00, 0.00, 0.000, 0.000, 0.000, 11:58:21.418, 1553443101418
242, 6183.14, 0.00, 0.00, 0.00, 0.00, 0.00, 0.00, 0.00, 0.000, 0.000, 0.000, 11:58:21.418, 1553443101418
243, 6184.48, 0.00, 0.00, 0.00, 0.00, 0.00, 0.00, 0.00, 0.000, 0.000, 0.000, 11:58:21.418, 1553443101418
244, 6209.85, 0.00, 0.00, 0.00, 0.00, 0.00, 0.00, 0.00, 0.000, 0.000, 0.000, 11:58:21.418, 1553443101418
245, 6196.02, 0.00, 0.00, 0.00, 0.00, 0.00, 0.00, 0.00, 0.000, 0.000, 0.000, 11:58:21.418, 1553443101418
246, 6192.17, 0.00, 0.00, 0.00, 0.00, 0.00, 0.00, 0.00, -0.290, 0.152, 0.954, 11:58:21.418, 1553443101418
247, 6195.75, 0.00, 0.00, 0.00, 0.00, 0.00, 0.00, 0.00, 0.000, 0.000, 0.000, 11:58:21.419, 1553443101419
248, 6178.74, 0.00, 0.00, 0.00, 0.00, 0.00, 0.00, 0.00, 0.000, 0.000, 0.000, 11:58:21.419, 1553443101419
249, 6187.72, 0.00, 0.00, 0.00, 0.00, 0.00, 0.00, 0.00, 0.000, 0.000, 0.000, 11:58:21.419, 1553443101419
250, 6210.39, 0.00, 0.00, 0.00, 0.00, 0.00, 0.00, 0.00, 0.000, 0.000, 0.000, 11:58:21.419, 1553443101419
251, 6201.87, 0.00, 0.00, 0.00, 0.00, 0.00, 0.00, 0.00, 0.000, 0.000, 0.000, 11:58:21.419, 1553443101419
252, 6174.29, 0.00, 0.00, 0.00, 0.00, 0.00, 0.00, 0.00, 0.000, 0.000, 0.000, 11:58:21.419, 1553443101419
253, 6162.33, 0.00, 0.00, 0.00, 0.00, 0.00, 0.00, 0.00, 0.000, 0.000, 0.000, 11:58:21.419, 1553443101419
254, 6212.31, 0.00, 0.00, 0.00, 0.00, 0.00, 0.00, 0.00, 0.000, 0.000, 0.000, 11:58:21.419, 1553443101419
255, 6192.75, 0.00, 0.00, 0.00, 0.00, 0.00, 0.00, 0.00, 0.000, 0.000, 0.000, 11:58:21.419, 1553443101419
0, 6166.53, 0.00, 0.00, 0.00, 0.00, 0.00, 0.00, 0.00, -0.288, 0.156, 0.952, 11:58:21.419, 1553443101419
1, 6203.64, 0.00, 0.00, 0.00, 0.00, 0.00, 0.00, 0.00, 0.000, 0.000, 0.000, 11:58:21.420, 1553443101420
2, 6180.88, 0.00, 0.00, 0.00, 0.00, 0.00, 0.00, 0.00, 0.000, 0.000, 0.000, 11:58:21.420, 1553443101420
3, 6153.01, 0.00, 0.00, 0.00, 0.00, 0.00, 0.00, 0.00, 0.000, 0.000, 0.000, 11:58:21.421, 1553443101421
4, 6166.94, 0.00, 0.00, 0.00, 0.00, 0.00, 0.00, 0.00, 0.000, 0.000, 0.000, 11:58:21.421, 1553443101421
5, 6194.27, 0.00, 0.00, 0.00, 0.00, 0.00, 0.00, 0.00, 0.000, 0.000, 0.000, 11:58:21.421, 1553443101421
6, 6192.91, 0.00, 0.00, 0.00, 0.00, 0.00, 0.00, 0.00, 0.000, 0.000, 0.000, 11:58:21.421, 1553443101421
7, 6185.13, 0.00, 0.00, 0.00, 0.00, 0.00, 0.00, 0.00, 0.000, 0.000, 0.000, 11:58:21.421, 1553443101421
8, 6194.34, 0.00, 0.00, 0.00, 0.00, 0.00, 0.00, 0.00, 0.000, 0.000, 0.000, 11:58:21.421, 1553443101421
9, 6167.87, 0.00, 0.00, 0.00, 0.00, 0.00, 0.00, 0.00, 0.000, 0.000, 0.000, 11:58:21.421, 1553443101421
10, 6151.80, 0.00, 0.00, 0.00, 0.00, 0.00, 0.00, 0.00, -0.292, 0.158, 0.956, 11:58:21.421, 1553443101421
11, 6159.78, 0.00, 0.00, 0.00, 0.00, 0.00, 0.00, 0.00, 0.000, 0.000, 0.000, 11:58:21.421, 1553443101421
12, 6189.06, 0.00, 0.00, 0.00, 0.00, 0.00, 0.00, 0.00, 0.000, 0.000, 0.000, 11:58:21.421, 1553443101421
13, 6194.07, 0.00, 0.00, 0.00, 0.00, 0.00, 0.00, 0.00, 0.000, 0.000, 0.000, 11:58:21.421, 1553443101421
14, 6163.60, 0.00, 0.00, 0.00, 0.00, 0.00, 0.00, 0.00, 0.000, 0.000, 0.000, 11:58:21.421, 1553443101421
15, 6217.63, 0.00, 0.00, 0.00, 0.00, 0.00, 0.00, 0.00, 0.000, 0.000, 0.000, 11:58:21.421, 1553443101421
16, 6217.72, 0.00, 0.00, 0.00, 0.00, 0.00, 0.00, 0.00, 0.000, 0.000, 0.000, 11:58:21.421, 1553443101421
17, 6174.85, 0.00, 0.00, 0.00, 0.00, 0.00, 0.00, 0.00, 0.000, 0.000, 0.000, 11:58:21.421, 1553443101421
18, 6166.82, 0.00, 0.00, 0.00, 0.00, 0.00, 0.00, 0.00, 0.000, 0.000, 0.000, 11:58:21.421, 1553443101421
19, 6232.07, 0.00, 0.00, 0.00, 0.00, 0.00, 0.00, 0.00, 0.000, 0.000, 0.000, 11:58:21.421, 1553443101421
20, 6243.62, 0.00, 0.00, 0.00, 0.00, 0.00, 0.00, 0.00, -0.290, 0.160, 0.952, 11:58:21.421, 1553443101421
21, 6215.19, 0.00, 0.00, 0.00, 0.00, 0.00, 0.00, 0.00, 0.000, 0.000, 0.000, 11:58:21.421, 1553443101421
22, 6192.84, 0.00, 0.00, 0.00, 0.00, 0.00, 0.00, 0.00, 0.000, 0.000, 0.000, 11:58:21.421, 1553443101421
23, 6200.55, 0.00, 0.00, 0.00, 0.00, 0.00, 0.00, 0.00, 0.000, 0.000, 0.000, 11:58:21.421, 1553443101421
24, 6213.02, 0.00, 0.00, 0.00, 0.00, 0.00, 0.00, 0.00, 0.000, 0.000, 0.000, 11:58:21.421, 1553443101421
25, 6172.84, 0.00, 0.00, 0.00, 0.00, 0.00, 0.00, 0.00, 0.000, 0.000, 0.000, 11:58:21.421, 1553443101421
26, 6154.91, 0.00, 0.00, 0.00, 0.00, 0.00, 0.00, 0.00, 0.000, 0.000, 0.000, 11:58:21.422, 1553443101422
27, 6158.91, 0.00, 0.00, 0.00, 0.00, 0.00, 0.00, 0.00, 0.000, 0.000, 0.000, 11:58:21.422, 1553443101422
28, 6185.08, 0.00, 0.00, 0.00, 0.00, 0.00, 0.00, 0.00, 0.000, 0.000, 0.000, 11:58:21.422, 1553443101422
29, 6169.04, 0.00, 0.00, 0.00, 0.00, 0.00, 0.00, 0.00, 0.000, 0.000, 0.000, 11:58:21.422, 1553443101422
30, 6179.36, 0.00, 0.00, 0.00, 0.00, 0.00, 0.00, 0.00, -0.284, 0.160, 0.954, 11:58:21.422, 1553443101422
31, 6153.19, 0.00, 0.00, 0.00, 0.00, 0.00, 0.00, 0.00, 0.000, 0.000, 0.000, 11:58:21.422, 1553443101422
32, 6147.80, 0.00, 0.00, 0.00, 0.00, 0.00, 0.00, 0.00, 0.000, 0.000, 0.000, 11:58:21.422, 1553443101422
33, 6117.54, 0.00, 0.00, 0.00, 0.00, 0.00, 0.00, 0.00, 0.000, 0.000, 0.000, 11:58:21.422, 1553443101422
34, 6105.56, 0.00, 0.00, 0.00, 0.00, 0.00, 0.00, 0.00, 0.000, 0.000, 0.000, 11:58:21.422, 1553443101422
35, 6107.68, 0.00, 0.00, 0.00, 0.00, 0.00, 0.00, 0.00, 0.000, 0.000, 0.000, 11:58:21.422, 1553443101422
36, 6103.93, 0.00, 0.00, 0.00, 0.00, 0.00, 0.00, 0.00, 0.000, 0.000, 0.000, 11:58:21.422, 1553443101422
37, 6084.97, 0.00, 0.00, 0.00, 0.00, 0.00, 0.00, 0.00, 0.000, 0.000, 0.000, 11:58:21.422, 1553443101422
38, 6088.26, 0.00, 0.00, 0.00, 0.00, 0.00, 0.00, 0.00, 0.000, 0.000, 0.000, 11:58:21.422, 1553443101422
39, 6111.86, 0.00, 0.00, 0.00, 0.00, 0.00, 0.00, 0.00, 0.000, 0.000, 0.000, 11:58:21.422, 1553443101422
40, 6118.66, 0.00, 0.00, 0.00, 0.00, 0.00, 0.00, 0.00, -0.290, 0.162, 0.958, 11:58:21.422, 1553443101422
41, 6163.40, 0.00, 0.00, 0.00, 0.00, 0.00, 0.00, 0.00, 0.000, 0.000, 0.000, 11:58:21.422, 1553443101422
42, 6207.15, 0.00, 0.00, 0.00, 0.00, 0.00, 0.00, 0.00, 0.000, 0.000, 0.000, 11:58:21.424, 1553443101424
43, 6234.13, 0.00, 0.00, 0.00, 0.00, 0.00, 0.00, 0.00, 0.000, 0.000, 0.000, 11:58:21.424, 1553443101424
44, 6208.11, 0.00, 0.00, 0.00, 0.00, 0.00, 0.00, 0.00, 0.000, 0.000, 0.000, 11:58:21.424, 1553443101424
45, 6214.30, 0.00, 0.00, 0.00, 0.00, 0.00, 0.00, 0.00, 0.000, 0.000, 0.000, 11:58:21.424, 1553443101424
46, 6211.28, 0.00, 0.00, 0.00, 0.00, 0.00, 0.00, 0.00, 0.000, 0.000, 0.000, 11:58:21.424, 1553443101424
47, 6195.88, 0.00, 0.00, 0.00, 0.00, 0.00, 0.00, 0.00, 0.000, 0.000, 0.000, 11:58:21.424, 1553443101424
48, 6214.54, 0.00, 0.00, 0.00, 0.00, 0.00, 0.00, 0.00, 0.000, 0.000, 0.000, 11:58:21.424, 1553443101424
49, 6226.06, 0.00, 0.00, 0.00, 0.00, 0.00, 0.00, 0.00, 0.000, 0.000, 0.000, 11:58:21.424, 1553443101424
50, 6234.93, 0.00, 0.00, 0.00, 0.00, 0.00, 0.00, 0.00, -0.282, 0.162, 0.962, 11:58:21.424, 1553443101424
51, 6211.42, 0.00, 0.00, 0.00, 0.00, 0.00, 0.00, 0.00, 0.000, 0.000, 0.000, 11:58:21.424, 1553443101424
52, 6221.72, 0.00, 0.00, 0.00, 0.00, 0.00, 0.00, 0.00, 0.000, 0.000, 0.000, 11:58:21.424, 1553443101424
53, 6227.82, 0.00, 0.00, 0.00, 0.00, 0.00, 0.00, 0.00, 0.000, 0.000, 0.000, 11:58:21.424, 1553443101424
54, 6232.47, 0.00, 0.00, 0.00, 0.00, 0.00, 0.00, 0.00, 0.000, 0.000, 0.000, 11:58:21.424, 1553443101424
55, 6259.74, 0.00, 0.00, 0.00, 0.00, 0.00, 0.00, 0.00, 0.000, 0.000, 0.000, 11:58:21.424, 1553443101424
56, 6241.39, 0.00, 0.00, 0.00, 0.00, 0.00, 0.00, 0.00, 0.000, 0.000, 0.000, 11:58:21.424, 1553443101424
57, 6244.92, 0.00, 0.00, 0.00, 0.00, 0.00, 0.00, 0.00, 0.000, 0.000, 0.000, 11:58:21.424, 1553443101424
58, 6217.00, 0.00, 0.00, 0.00, 0.00, 0.00, 0.00, 0.00, 0.000, 0.000, 0.000, 11:58:21.424, 1553443101424
59, 6094.52, 0.00, 0.00, 0.00, 0.00, 0.00, 0.00, 0.00, -0.286, 0.160, 0.964, 11:58:21.424, 1553443101424
60, 5853.52, 0.00, 0.00, 0.00, 0.00, 0.00, 0.00, 0.00, 0.000, 0.000, 0.000, 11:58:21.424, 1553443101424
61, 5631.30, 0.00, 0.00, 0.00, 0.00, 0.00, 0.00, 0.00, 0.000, 0.000, 0.000, 11:58:21.424, 1553443101424
62, 5460.02, 0.00, 0.00, 0.00, 0.00, 0.00, 0.00, 0.00, 0.000, 0.000, 0.000, 11:58:21.424, 1553443101424
63, 5339.27, 0.00, 0.00, 0.00, 0.00, 0.00, 0.00, 0.00, 0.000, 0.000, 0.000, 11:58:21.424, 1553443101424
64, 5428.66, 0.00, 0.00, 0.00, 0.00, 0.00, 0.00, 0.00, 0.000, 0.000, 0.000, 11:58:21.424, 1553443101424
65, 5621.55, 0.00, 0.00, 0.00, 0.00, 0.00, 0.00, 0.00, 0.000, 0.000, 0.000, 11:58:21.424, 1553443101424
66, 5877.61, 0.00, 0.00, 0.00, 0.00, 0.00, 0.00, 0.00, 0.000, 0.000, 0.000, 11:58:21.425, 1553443101425
67, 6137.54, 0.00, 0.00, 0.00, 0.00, 0.00, 0.00, 0.00, 0.000, 0.000, 0.000, 11:58:21.425, 1553443101425
68, 6167.23, 0.00, 0.00, 0.00, 0.00, 0.00, 0.00, 0.00, 0.000, 0.000, 0.000, 11:58:21.425, 1553443101425
69, 6145.92, 0.00, 0.00, 0.00, 0.00, 0.00, 0.00, 0.00, -0.284, 0.154, 0.962, 11:58:21.425, 1553443101425
70, 6144.18, 0.00, 0.00, 0.00, 0.00, 0.00, 0.00, 0.00, 0.000, 0.000, 0.000, 11:58:21.425, 1553443101425
71, 6142.59, 0.00, 0.00, 0.00, 0.00, 0.00, 0.00, 0.00, 0.000, 0.000, 0.000, 11:58:21.425, 1553443101425
72, 6145.39, 0.00, 0.00, 0.00, 0.00, 0.00, 0.00, 0.00, 0.000, 0.000, 0.000, 11:58:21.425, 1553443101425
73, 6147.31, 0.00, 0.00, 0.00, 0.00, 0.00, 0.00, 0.00, 0.000, 0.000, 0.000, 11:58:21.425, 1553443101425
74, 6162.40, 0.00, 0.00, 0.00, 0.00, 0.00, 0.00, 0.00, 0.000, 0.000, 0.000, 11:58:21.425, 1553443101425
75, 6145.72, 0.00, 0.00, 0.00, 0.00, 0.00, 0.00, 0.00, 0.000, 0.000, 0.000, 11:58:21.425, 1553443101425
76, 6153.52, 0.00, 0.00, 0.00, 0.00, 0.00, 0.00, 0.00, 0.000, 0.000, 0.000, 11:58:21.425, 1553443101425
77, 6159.09, 0.00, 0.00, 0.00, 0.00, 0.00, 0.00, 0.00, 0.000, 0.000, 0.000, 11:58:21.425, 1553443101425
78, 6149.26, 0.00, 0.00, 0.00, 0.00, 0.00, 0.00, 0.00, 0.000, 0.000, 0.000, 11:58:21.425, 1553443101425
79, 6160.57, 0.00, 0.00, 0.00, 0.00, 0.00, 0.00, 0.00, -0.292, 0.154, 0.952, 11:58:21.425, 1553443101425
80, 6161.35, 0.00, 0.00, 0.00, 0.00, 0.00, 0.00, 0.00, 0.000, 0.000, 0.000, 11:58:21.425, 1553443101425
81, 6157.84, 0.00, 0.00, 0.00, 0.00, 0.00, 0.00, 0.00, 0.000, 0.000, 0.000, 11:58:21.425, 1553443101425
82, 6175.70, 0.00, 0.00, 0.00, 0.00, 0.00, 0.00, 0.00, 0.000, 0.000, 0.000, 11:58:21.425, 1553443101425
83, 6153.86, 0.00, 0.00, 0.00, 0.00, 0.00, 0.00, 0.00, 0.000, 0.000, 0.000, 11:58:21.425, 1553443101425
84, 6157.44, 0.00, 0.00, 0.00, 0.00, 0.00, 0.00, 0.00, 0.000, 0.000, 0.000, 11:58:21.426, 1553443101426
85, 6158.98, 0.00, 0.00, 0.00, 0.00, 0.00, 0.00, 0.00, 0.000, 0.000, 0.000, 11:58:21.426, 1553443101426
86, 6145.34, 0.00, 0.00, 0.00, 0.00, 0.00, 0.00, 0.00, 0.000, 0.000, 0.000, 11:58:21.426, 1553443101426
87, 6152.50, 0.00, 0.00, 0.00, 0.00, 0.00, 0.00, 0.00, 0.000, 0.000, 0.000, 11:58:21.426, 1553443101426
88, 6156.81, 0.00, 0.00, 0.00, 0.00, 0.00, 0.00, 0.00, 0.000, 0.000, 0.000, 11:58:21.426, 1553443101426
89, 6149.84, 0.00, 0.00, 0.00, 0.00, 0.00, 0.00, 0.00, -0.294, 0.160, 0.956, 11:58:21.426, 1553443101426
90, 6135.55, 0.00, 0.00, 0.00, 0.00, 0.00, 0.00, 0.00, 0.000, 0.000, 0.000, 11:58:21.717, 1553443101717
91, 6135.98, 0.00, 0.00, 0.00, 0.00, 0.00, 0.00, 0.00, 0.000, 0.000, 0.000, 11:58:21.717, 1553443101717
92, 6147.22, 0.00, 0.00, 0.00, 0.00, 0.00, 0.00, 0.00, 0.000, 0.000, 0.000, 11:58:21.717, 1553443101717
93, 6132.51, 0.00, 0.00, 0.00, 0.00, 0.00, 0.00, 0.00, 0.000, 0.000, 0.000, 11:58:21.718, 1553443101718
94, 6129.41, 0.00, 0.00, 0.00, 0.00, 0.00, 0.00, 0.00, 0.000, 0.000, 0.000, 11:58:21.718, 1553443101718
95, 6113.07, 0.00, 0.00, 0.00, 0.00, 0.00, 0.00, 0.00, 0.000, 0.000, 0.000, 11:58:21.718, 1553443101718
96, 6117.58, 0.00, 0.00, 0.00, 0.00, 0.00, 0.00, 0.00, 0.000, 0.000, 0.000, 11:58:21.718, 1553443101718
97, 6123.77, 0.00, 0.00, 0.00, 0.00, 0.00, 0.00, 0.00, 0.000, 0.000, 0.000, 11:58:21.718, 1553443101718
98, 6110.81, 0.00, 0.00, 0.00, 0.00, 0.00, 0.00, 0.00, 0.000, 0.000, 0.000, 11:58:21.718, 1553443101718
99, 6121.79, 0.00, 0.00, 0.00, 0.00, 0.00, 0.00, 0.00, -0.292, 0.156, 0.958, 11:58:21.718, 1553443101718
100, 6118.07, 0.00, 0.00, 0.00, 0.00, 0.00, 0.00, 0.00, 0.000, 0.000, 0.000, 11:58:21.718, 1553443101718
101, 6117.76, 0.00, 0.00, 0.00, 0.00, 0.00, 0.00, 0.00, 0.000, 0.000, 0.000, 11:58:21.718, 1553443101718
102, 6066.29, 0.00, 0.00, 0.00, 0.00, 0.00, 0.00, 0.00, 0.000, 0.000, 0.000, 11:58:21.719, 1553443101719
103, 6075.29, 0.00, 0.00, 0.00, 0.00, 0.00, 0.00, 0.00, 0.000, 0.000, 0.000, 11:58:21.719, 1553443101719
104, 6079.74, 0.00, 0.00, 0.00, 0.00, 0.00, 0.00, 0.00, 0.000, 0.000, 0.000, 11:58:21.719, 1553443101719
105, 6070.33, 0.00, 0.00, 0.00, 0.00, 0.00, 0.00, 0.00, 0.000, 0.000, 0.000, 11:58:21.719, 1553443101719
106, 6072.61, 0.00, 0.00, 0.00, 0.00, 0.00, 0.00, 0.00, 0.000, 0.000, 0.000, 11:58:21.719, 1553443101719
107, 6079.94, 0.00, 0.00, 0.00, 0.00, 0.00, 0.00, 0.00, 0.000, 0.000, 0.000, 11:58:21.719, 1553443101719
108, 6043.87, 0.00, 0.00, 0.00, 0.00, 0.00, 0.00, 0.00, 0.000, 0.000, 0.000, 11:58:21.719, 1553443101719
109, 6038.23, 0.00, 0.00, 0.00, 0.00, 0.00, 0.00, 0.00, -0.294, 0.154, 0.954, 11:58:21.719, 1553443101719
110, 6047.38, 0.00, 0.00, 0.00, 0.00, 0.00, 0.00, 0.00, 0.000, 0.000, 0.000, 11:58:21.719, 1553443101719
111, 6034.43, 0.00, 0.00, 0.00, 0.00, 0.00, 0.00, 0.00, 0.000, 0.000, 0.000, 11:58:21.719, 1553443101719
112, 6007.32, 0.00, 0.00, 0.00, 0.00, 0.00, 0.00, 0.00, 0.000, 0.000, 0.000, 11:58:21.720, 1553443101720
113, 6003.92, 0.00, 0.00, 0.00, 0.00, 0.00, 0.00, 0.00, 0.000, 0.000, 0.000, 11:58:21.720, 1553443101720
114, 6017.00, 0.00, 0.00, 0.00, 0.00, 0.00, 0.00, 0.00, 0.000, 0.000, 0.000, 11:58:21.720, 1553443101720
115, 6015.61, 0.00, 0.00, 0.00, 0.00, 0.00, 0.00, 0.00, 0.000, 0.000, 0.000, 11:58:21.720, 1553443101720
116, 5989.51, 0.00, 0.00, 0.00, 0.00, 0.00, 0.00, 0.00, 0.000, 0.000, 0.000, 11:58:21.720, 1553443101720
117, 5958.71, 0.00, 0.00, 0.00, 0.00, 0.00, 0.00, 0.00, 0.000, 0.000, 0.000, 11:58:21.720, 1553443101720
118, 5976.90, 0.00, 0.00, 0.00, 0.00, 0.00, 0.00, 0.00, 0.000, 0.000, 0.000, 11:58:21.720, 1553443101720
119, 5971.09, 0.00, 0.00, 0.00, 0.00, 0.00, 0.00, 0.00, -0.294, 0.154, 0.962, 11:58:21.720, 1553443101720
120, 5996.62, 0.00, 0.00, 0.00, 0.00, 0.00, 0.00, 0.00, 0.000, 0.000, 0.000, 11:58:21.720, 1553443101720
121, 6020.58, 0.00, 0.00, 0.00, 0.00, 0.00, 0.00, 0.00, 0.000, 0.000, 0.000, 11:58:21.720, 1553443101720
122, 6009.80, 0.00, 0.00, 0.00, 0.00, 0.00, 0.00, 0.00, 0.000, 0.000, 0.000, 11:58:21.720, 1553443101720
123, 5996.77, 0.00, 0.00, 0.00, 0.00, 0.00, 0.00, 0.00, 0.000, 0.000, 0.000, 11:58:21.720, 1553443101720
124, 6036.04, 0.00, 0.00, 0.00, 0.00, 0.00, 0.00, 0.00, 0.000, 0.000, 0.000, 11:58:21.720, 1553443101720
125, 6052.16, 0.00, 0.00, 0.00, 0.00, 0.00, 0.00, 0.00, 0.000, 0.000, 0.000, 11:58:21.720, 1553443101720
126, 6060.52, 0.00, 0.00, 0.00, 0.00, 0.00, 0.00, 0.00, 0.000, 0.000, 0.000, 11:58:21.721, 1553443101721
127, 6062.60, 0.00, 0.00, 0.00, 0.00, 0.00, 0.00, 0.00, 0.000, 0.000, 0.000, 11:58:21.721, 1553443101721
128, 6068.52, 0.00, 0.00, 0.00, 0.00, 0.00, 0.00, 0.00, 0.000, 0.000, 0.000, 11:58:21.721, 1553443101721
129, 6078.40, 0.00, 0.00, 0.00, 0.00, 0.00, 0.00, 0.00, -0.290, 0.156, 0.958, 11:58:21.721, 1553443101721
130, 6108.91, 0.00, 0.00, 0.00, 0.00, 0.00, 0.00, 0.00, 0.000, 0.000, 0.000, 11:58:21.721, 1553443101721
131, 6116.80, 0.00, 0.00, 0.00, 0.00, 0.00, 0.00, 0.00, 0.000, 0.000, 0.000, 11:58:21.721, 1553443101721
132, 6135.71, 0.00, 0.00, 0.00, 0.00, 0.00, 0.00, 0.00, 0.000, 0.000, 0.000, 11:58:21.721, 1553443101721
133, 6150.37, 0.00, 0.00, 0.00, 0.00, 0.00, 0.00, 0.00, 0.000, 0.000, 0.000, 11:58:21.721, 1553443101721
134, 6120.94, 0.00, 0.00, 0.00, 0.00, 0.00, 0.00, 0.00, 0.000, 0.000, 0.000, 11:58:21.721, 1553443101721
135, 6087.68, 0.00, 0.00, 0.00, 0.00, 0.00, 0.00, 0.00, 0.000, 0.000, 0.000, 11:58:21.721, 1553443101721
136, 6145.57, 0.00, 0.00, 0.00, 0.00, 0.00, 0.00, 0.00, 0.000, 0.000, 0.000, 11:58:21.721, 1553443101721
137, 6129.63, 0.00, 0.00, 0.00, 0.00, 0.00, 0.00, 0.00, 0.000, 0.000, 0.000, 11:58:21.721, 1553443101721
138, 6126.12, 0.00, 0.00, 0.00, 0.00, 0.00, 0.00, 0.00, 0.000, 0.000, 0.000, 11:58:21.722, 1553443101722
139, 6162.24, 0.00, 0.00, 0.00, 0.00, 0.00, 0.00, 0.00, -0.290, 0.158, 0.962, 11:58:21.722, 1553443101722
140, 6188.13, 0.00, 0.00, 0.00, 0.00, 0.00, 0.00, 0.00, 0.000, 0.000, 0.000, 11:58:21.722, 1553443101722
141, 6173.73, 0.00, 0.00, 0.00, 0.00, 0.00, 0.00, 0.00, 0.000, 0.000, 0.000, 11:58:21.722, 1553443101722
142, 6161.44, 0.00, 0.00, 0.00, 0.00, 0.00, 0.00, 0.00, 0.000, 0.000, 0.000, 11:58:21.722, 1553443101722
143, 6178.27, 0.00, 0.00, 0.00, 0.00, 0.00, 0.00, 0.00, 0.000, 0.000, 0.000, 11:58:21.722, 1553443101722
144, 6153.90, 0.00, 0.00, 0.00, 0.00, 0.00, 0.00, 0.00, 0.000, 0.000, 0.000, 11:58:21.722, 1553443101722
145, 6189.89, 0.00, 0.00, 0.00, 0.00, 0.00, 0.00, 0.00, 0.000, 0.000, 0.000, 11:58:21.722, 1553443101722
146, 6188.71, 0.00, 0.00, 0.00, 0.00, 0.00, 0.00, 0.00, 0.000, 0.000, 0.000, 11:58:21.723, 1553443101723
147, 6139.38, 0.00, 0.00, 0.00, 0.00, 0.00, 0.00, 0.00, 0.000, 0.000, 0.000, 11:58:21.723, 1553443101723
148, 6147.82, 0.00, 0.00, 0.00, 0.00, 0.00, 0.00, 0.00, 0.000, 0.000, 0.000, 11:58:21.723, 1553443101723
149, 6158.67, 0.00, 0.00, 0.00, 0.00, 0.00, 0.00, 0.00, -0.286, 0.160, 0.950, 11:58:21.723, 1553443101723
150, 6208.17, 0.00, 0.00, 0.00, 0.00, 0.00, 0.00, 0.00, 0.000, 0.000, 0.000, 11:58:21.723, 1553443101723
151, 6182.25, 0.00, 0.00, 0.00, 0.00, 0.00, 0.00, 0.00, 0.000, 0.000, 0.000, 11:58:21.723, 1553443101723
152, 6110.90, 0.00, 0.00, 0.00, 0.00, 0.00, 0.00, 0.00, 0.000, 0.000, 0.000, 11:58:21.723, 1553443101723
153, 6148.61, 0.00, 0.00, 0.00, 0.00, 0.00, 0.00, 0.00, 0.000, 0.000, 0.000, 11:58:21.723, 1553443101723
154, 6163.18, 0.00, 0.00, 0.00, 0.00, 0.00, 0.00, 0.00, 0.000, 0.000, 0.000, 11:58:21.723, 1553443101723
155, 6147.67, 0.00, 0.00, 0.00, 0.00, 0.00, 0.00, 0.00, 0.000, 0.000, 0.000, 11:58:21.723, 1553443101723
156, 6162.85, 0.00, 0.00, 0.00, 0.00, 0.00, 0.00, 0.00, 0.000, 0.000, 0.000, 11:58:21.723, 1553443101723
157, 6177.62, 0.00, 0.00, 0.00, 0.00, 0.00, 0.00, 0.00, 0.000, 0.000, 0.000, 11:58:21.723, 1553443101723
158, 6163.25, 0.00, 0.00, 0.00, 0.00, 0.00, 0.00, 0.00, 0.000, 0.000, 0.000, 11:58:21.723, 1553443101723
159, 6174.38, 0.00, 0.00, 0.00, 0.00, 0.00, 0.00, 0.00, -0.282, 0.160, 0.958, 11:58:21.724, 1553443101724
160, 6171.12, 0.00, 0.00, 0.00, 0.00, 0.00, 0.00, 0.00, 0.000, 0.000, 0.000, 11:58:21.724, 1553443101724
0, 0.00, 0.00, 0.00, 0.00, 0.00, 0.00, 0.00, 0.00, 0.000, 0.000, 0.000, 11:58:21.724, 1553443101724
1, 6167.05, -41402.74, 0.00, 0.00, 0.00, 0.00, 0.00, 0.00, 0.000, 0.000, 0.000, 11:58:22.203, 1553443102203
2, 6142.66, -41190.78, 0.00, 0.00, 0.00, 0.00, 0.00, 0.00, 0.000, 0.000, 0.000, 11:58:22.204, 1553443102204
3, 6161.53, -41002.93, 0.00, 0.00, 0.00, 0.00, 0.00, 0.00, -0.284, 0.156, 0.956, 11:58:22.204, 1553443102204
4, 6175.88, -40821.75, 0.00, 0.00, 0.00, 0.00, 0.00, 0.00, 0.000, 0.000, 0.000, 11:58:22.206, 1553443102206
5, 6159.69, -40621.25, 0.00, 0.00, 0.00, 0.00, 0.00, 0.00, 0.000, 0.000, 0.000, 11:58:22.206, 1553443102206
6, 6142.46, -40427.69, 0.00, 0.00, 0.00, 0.00, 0.00, 0.00, 0.000, 0.000, 0.000, 11:58:22.207, 1553443102207
7, 6133.34, -40229.32, 0.00, 0.00, 0.00, 0.00, 0.00, 0.00, 0.000, 0.000, 0.000, 11:58:22.207, 1553443102207
8, 6162.69, -40055.69, 0.00, 0.00, 0.00, 0.00, 0.00, 0.00, 0.000, 0.000, 0.000, 11:58:22.207, 1553443102207
9, 6150.62, -39844.64, 0.00, 0.00, 0.00, 0.00, 0.00, 0.00, 0.000, 0.000, 0.000, 11:58:22.207, 1553443102207
10, 6157.61, -39645.64, 0.00, 0.00, 0.00, 0.00, 0.00, 0.00, 0.000, 0.000, 0.000, 11:58:22.207, 1553443102207
11, 6166.51, -39467.86, 0.00, 0.00, 0.00, 0.00, 0.00, 0.00, 0.000, 0.000, 0.000, 11:58:22.207, 1553443102207
12, 6182.45, -39279.03, 0.00, 0.00, 0.00, 0.00, 0.00, 0.00, 0.000, 0.000, 0.000, 11:58:22.208, 1553443102208
13, 6216.94, -39120.04, 0.00, 0.00, 0.00, 0.00, 0.00, 0.00, -0.286, 0.156, 0.956, 11:58:22.208, 1553443102208
14, 6227.49, -38921.79, 0.00, 0.00, 0.00, 0.00, 0.00, 0.00, 0.000, 0.000, 0.000, 11:58:22.208, 1553443102208
15, 6171.67, -38711.75, 0.00, 0.00, 0.00, 0.00, 0.00, 0.00, 0.000, 0.000, 0.000, 11:58:22.209, 1553443102209
16, 6170.15, -38496.32, 0.00, 0.00, 0.00, 0.00, 0.00, 0.00, 0.000, 0.000, 0.000, 11:58:22.209, 1553443102209
17, 6173.95, -38299.63, 0.00, 0.00, 0.00, 0.00, 0.00, 0.00, 0.000, 0.000, 0.000, 11:58:22.209, 1553443102209
18, 6157.19, -38094.61, 0.00, 0.00, 0.00, 0.00, 0.00, 0.00, 0.000, 0.000, 0.000, 11:58:22.209, 1553443102209
19, 6155.65, -37906.86, 0.00, 0.00, 0.00, 0.00, 0.00, 0.00, 0.000, 0.000, 0.000, 11:58:22.209, 1553443102209
20, 6171.07, -37715.75, 0.00, 0.00, 0.00, 0.00, 0.00, 0.00, 0.000, 0.000, 0.000, 11:58:22.210, 1553443102210
21, 6192.08, -37550.91, 0.00, 0.00, 0.00, 0.00, 0.00, 0.00, 0.000, 0.000, 0.000, 11:58:22.210, 1553443102210
22, 6187.88, -37364.47, 0.00, 0.00, 0.00, 0.00, 0.00, 0.00, 0.000, 0.000, 0.000, 11:58:22.210, 1553443102210
23, 6185.08, -37152.29, 0.00, 0.00, 0.00, 0.00, 0.00, 0.00, -0.284, 0.154, 0.950, 11:58:22.210, 1553443102210
24, 6176.88, -36958.00, 0.00, 0.00, 0.00, 0.00, 0.00, 0.00, 0.000, 0.000, 0.000, 11:58:22.210, 1553443102210
25, 6164.23, -36763.63, 0.00, 0.00, 0.00, 0.00, 0.00, 0.00, 0.000, 0.000, 0.000, 11:58:22.210, 1553443102210
26, 6154.37, -36591.91, 0.00, 0.00, 0.00, 0.00, 0.00, 0.00, 0.000, 0.000, 0.000, 11:58:22.211, 1553443102211
27, 6144.76, -36386.54, 0.00, 0.00, 0.00, 0.00, 0.00, 0.00, 0.000, 0.000, 0.000, 11:58:22.211, 1553443102211
28, 6152.76, -36214.68, 0.00, 0.00, 0.00, 0.00, 0.00, 0.00, 0.000, 0.000, 0.000, 11:58:22.211, 1553443102211
29, 6169.53, -36010.16, 0.00, 0.00, 0.00, 0.00, 0.00, 0.00, 0.000, 0.000, 0.000, 11:58:22.211, 1553443102211
30, 6102.07, -35765.94, 0.00, 0.00, 0.00, 0.00, 0.00, 0.00, 0.000, 0.000, 0.000, 11:58:22.211, 1553443102211
31, 6100.39, -35575.62, 0.00, 0.00, 0.00, 0.00, 0.00, 0.00, 0.000, 0.000, 0.000, 11:58:22.211, 1553443102211
32, 6072.39, -35360.17, 0.00, 0.00, 0.00, 0.00, 0.00, 0.00, 0.000, 0.000, 0.000, 11:58:22.211, 1553443102211
33, 6078.29, -35185.67, 0.00, 0.00, 0.00, 0.00, 0.00, 0.00, -0.288, 0.158, 0.956, 11:58:22.212, 1553443102212
34, 6085.17, -35000.82, 0.00, 0.00, 0.00, 0.00, 0.00, 0.00, 0.000, 0.000, 0.000, 11:58:22.212, 1553443102212
35, 6056.83, -34805.09, 0.00, 0.00, 0.00, 0.00, 0.00, 0.00, 0.000, 0.000, 0.000, 11:58:22.212, 1553443102212
36, 6055.40, -34627.12, 0.00, 0.00, 0.00, 0.00, 0.00, 0.00, 0.000, 0.000, 0.000, 11:58:22.212, 1553443102212
37, 6082.16, -34436.35, 0.00, 0.00, 0.00, 0.00, 0.00, 0.00, 0.000, 0.000, 0.000, 11:58:22.212, 1553443102212
38, 6111.46, -34248.57, 0.00, 0.00, 0.00, 0.00, 0.00, 0.00, 0.000, 0.000, 0.000, 11:58:22.212, 1553443102212
39, 6128.20, -34057.40, 0.00, 0.00, 0.00, 0.00, 0.00, 0.00, 0.000, 0.000, 0.000, 11:58:22.213, 1553443102213
40, 6152.36, -33884.28, 0.00, 0.00, 0.00, 0.00, 0.00, 0.00, 0.000, 0.000, 0.000, 11:58:22.213, 1553443102213
41, 6194.54, -33726.55, 0.00, 0.00, 0.00, 0.00, 0.00, 0.00, 0.000, 0.000, 0.000, 11:58:22.213, 1553443102213
42, 6225.92, -33561.84, 0.00, 0.00, 0.00, 0.00, 0.00, 0.00, -0.288, 0.158, 0.956, 11:58:22.213, 1553443102213
43, 6218.70, -33384.30, 0.00, 0.00, 0.00, 0.00, 0.00, 0.00, 0.000, 0.000, 0.000, 11:58:22.213, 1553443102213
44, 6190.85, -33162.66, 0.00, 0.00, 0.00, 0.00, 0.00, 0.00, 0.000, 0.000, 0.000, 11:58:22.213, 1553443102213
45, 6200.75, -32985.00, 0.00, 0.00, 0.00, 0.00, 0.00, 0.00, 0.000, 0.000, 0.000, 11:58:22.214, 1553443102214
46, 6188.26, -32807.13, 0.00, 0.00, 0.00, 0.00, 0.00, 0.00, 0.000, 0.000, 0.000, 11:58:22.214, 1553443102214
47, 6166.96, -32590.83, 0.00, 0.00, 0.00, 0.00, 0.00, 0.00, 0.000, 0.000, 0.000, 11:58:22.214, 1553443102214
48, 6180.79, -32402.25, 0.00, 0.00, 0.00, 0.00, 0.00, 0.00, 0.000, 0.000, 0.000, 11:58:22.214, 1553443102214
49, 6194.07, -32227.50, 0.00, 0.00, 0.00, 0.00, 0.00, 0.00, 0.000, 0.000, 0.000, 11:58:22.214, 1553443102214
50, 6211.15, -32041.52, 0.00, 0.00, 0.00, 0.00, 0.00, 0.00, 0.000, 0.000, 0.000, 11:58:22.214, 1553443102214
51, 6190.74, -31836.39, 0.00, 0.00, 0.00, 0.00, 0.00, 0.00, 0.000, 0.000, 0.000, 11:58:22.215, 1553443102215
52, 6207.91, -31653.15, 0.00, 0.00, 0.00, 0.00, 0.00, 0.00, -0.284, 0.158, 0.956, 11:58:22.215, 1553443102215
53, 6212.82, -31467.84, 0.00, 0.00, 0.00, 0.00, 0.00, 0.00, 0.000, 0.000, 0.000, 11:58:22.215, 1553443102215
54, 6211.35, -31273.40, 0.00, 0.00, 0.00, 0.00, 0.00, 0.00, 0.000, 0.000, 0.000, 11:58:22.215, 1553443102215
55, 6201.33, -31089.60, 0.00, 0.00, 0.00, 0.00, 0.00, 0.00, 0.000, 0.000, 0.000, 11:58:22.215, 1553443102215
56, 6151.11, -30876.95, 0.00, 0.00, 0.00, 0.00, 0.00, 0.00, 0.000, 0.000, 0.000, 11:58:22.215, 1553443102215
57, 6070.53, -30641.04, 0.00, 0.00, 0.00, 0.00, 0.00, 0.00, 0.000, 0.000, 0.000, 11:58:22.215, 1553443102215
58, 5900.84, -30382.93, 0.00, 0.00, 0.00, 0.00, 0.00, 0.00, 0.000, 0.000, 0.000, 11:58:22.216, 1553443102216
59, 5665.47, -30072.91, 0.00, 0.00, 0.00, 0.00, 0.00, 0.00, 0.000, 0.000, 0.000, 11:58:22.216, 1553443102216
60, 5422.67, -29766.73, 0.00, 0.00, 0.00, 0.00, 0.00, 0.00, 0.000, 0.000, 0.000, 11:58:22.216, 1553443102216
61, 5282.03, -29503.50, 0.00, 0.00, 0.00, 0.00, 0.00, 0.00, 0.000, 0.000, 0.000, 11:58:22.216, 1553443102216
62, 5356.46, -29357.21, 0.00, 0.00, 0.00, 0.00, 0.00, 0.00, -0.284, 0.156, 0.954, 11:58:22.217, 1553443102217
63, 5565.76, -29277.57, 0.00, 0.00, 0.00, 0.00, 0.00, 0.00, 0.000, 0.000, 0.000, 11:58:22.217, 1553443102217
64, 5785.06, -29175.78, 0.00, 0.00, 0.00, 0.00, 0.00, 0.00, 0.000, 0.000, 0.000, 11:58:22.217, 1553443102217
65, 6094.45, -29130.83, 0.00, 0.00, 0.00, 0.00, 0.00, 0.00, 0.000, 0.000, 0.000, 11:58:22.217, 1553443102217
66, 6192.80, -29006.57, 0.00, 0.00, 0.00, 0.00, 0.00, 0.00, 0.000, 0.000, 0.000, 11:58:22.217, 1553443102217
67, 6132.63, -28785.96, 0.00, 0.00, 0.00, 0.00, 0.00, 0.00, 0.000, 0.000, 0.000, 11:58:22.217, 1553443102217
68, 6145.14, -28603.73, 0.00, 0.00, 0.00, 0.00, 0.00, 0.00, 0.000, 0.000, 0.000, 11:58:22.218, 1553443102218
69, 6124.91, -28409.98, 0.00, 0.00, 0.00, 0.00, 0.00, 0.00, 0.000, 0.000, 0.000, 11:58:22.218, 1553443102218
70, 6111.32, -28208.95, 0.00, 0.00, 0.00, 0.00, 0.00, 0.00, 0.000, 0.000, 0.000, 11:58:22.218, 1553443102218
71, 6129.92, -28034.09, 0.00, 0.00, 0.00, 0.00, 0.00, 0.00, 0.000, 0.000, 0.000, 11:58:22.218, 1553443102218
72, 6147.53, -27849.45, 0.00, 0.00, 0.00, 0.00, 0.00, 0.00, -0.282, 0.156, 0.962, 11:58:22.219, 1553443102219
73, 6156.81, -27651.81, 0.00, 0.00, 0.00, 0.00, 0.00, 0.00, 0.000, 0.000, 0.000, 11:58:22.219, 1553443102219
74, 6151.76, -27480.89, 0.00, 0.00, 0.00, 0.00, 0.00, 0.00, 0.000, 0.000, 0.000, 11:58:22.220, 1553443102220
75, 6102.20, -27278.96, 0.00, 0.00, 0.00, 0.00, 0.00, 0.00, 0.000, 0.000, 0.000, 11:58:22.221, 1553443102221
76, 6098.58, -27063.63, 0.00, 0.00, 0.00, 0.00, 0.00, 0.00, 0.000, 0.000, 0.000, 11:58:22.221, 1553443102221
77, 6104.06, -26888.07, 0.00, 0.00, 0.00, 0.00, 0.00, 0.00, 0.000, 0.000, 0.000, 11:58:22.221, 1553443102221
78, 6115.03, -26720.77, 0.00, 0.00, 0.00, 0.00, 0.00, 0.00, 0.000, 0.000, 0.000, 11:58:22.221, 1553443102221
79, 6120.42, -26530.45, 0.00, 0.00, 0.00, 0.00, 0.00, 0.00, 0.000, 0.000, 0.000, 11:58:22.221, 1553443102221
80, 6150.55, -26357.40, 0.00, 0.00, 0.00, 0.00, 0.00, 0.00, 0.000, 0.000, 0.000, 11:58:22.222, 1553443102222
81, 6152.61, -26155.83, 0.00, 0.00, 0.00, 0.00, 0.00, 0.00, 0.000, 0.000, 0.000, 11:58:22.222, 1553443102222
82, 6133.52, -25968.05, 0.00, 0.00, 0.00, 0.00, 0.00, 0.00, -0.282, 0.152, 0.964, 11:58:22.222, 1553443102222
83, 6139.31, -25799.66, 0.00, 0.00, 0.00, 0.00, 0.00, 0.00, 0.000, 0.000, 0.000, 11:58:22.223, 1553443102223
84, 6138.86, -25597.22, 0.00, 0.00, 0.00, 0.00, 0.00, 0.00, 0.000, 0.000, 0.000, 11:58:22.223, 1553443102223
85, 6141.21, -25406.49, 0.00, 0.00, 0.00, 0.00, 0.00, 0.00, 0.000, 0.000, 0.000, 11:58:22.223, 1553443102223
86, 6131.06, -25207.80, 0.00, 0.00, 0.00, 0.00, 0.00, 0.00, 0.000, 0.000, 0.000, 11:58:22.224, 1553443102224
87, 6123.84, -25030.62, 0.00, 0.00, 0.00, 0.00, 0.00, 0.00, 0.000, 0.000, 0.000, 11:58:22.224, 1553443102224
88, 6119.86, -24857.75, 0.00, 0.00, 0.00, 0.00, 0.00, 0.00, 0.000, 0.000, 0.000, 11:58:22.224, 1553443102224
89, 6133.90, -24681.51, 0.00, 0.00, 0.00, 0.00, 0.00, 0.00, 0.000, 0.000, 0.000, 11:58:22.224, 1553443102224
90, 6124.96, -24493.20, 0.00, 0.00, 0.00, 0.00, 0.00, 0.00, 0.000, 0.000, 0.000, 11:58:22.224, 1553443102224
91, 6139.55, -24315.63, 0.00, 0.00, 0.00, 0.00, 0.00, 0.00, 0.000, 0.000, 0.000, 11:58:22.224, 1553443102224
92, 6119.04, -24115.34, 0.00, 0.00, 0.00, 0.00, 0.00, 0.00, -0.284, 0.160, 0.958, 11:58:22.224, 1553443102224
93, 6092.86, -23906.26, 0.00, 0.00, 0.00, 0.00, 0.00, 0.00, 0.000, 0.000, 0.000, 11:58:22.224, 1553443102224
94, 6072.05, -23711.80, 0.00, 0.00, 0.00, 0.00, 0.00, 0.00, 0.000, 0.000, 0.000, 11:58:22.224, 1553443102224
95, 6074.13, -23520.07, 0.00, 0.00, 0.00, 0.00, 0.00, 0.00, 0.000, 0.000, 0.000, 11:58:22.224, 1553443102224
96, 6076.79, -23345.66, 0.00, 0.00, 0.00, 0.00, 0.00, 0.00, 0.000, 0.000, 0.000, 11:58:22.224, 1553443102224
97, 6068.70, -23175.34, 0.00, 0.00, 0.00, 0.00, 0.00, 0.00, 0.000, 0.000, 0.000, 11:58:22.224, 1553443102224
98, 6070.02, -22992.41, 0.00, 0.00, 0.00, 0.00, 0.00, 0.00, 0.000, 0.000, 0.000, 11:58:22.225, 1553443102225
99, 6061.86, -22805.91, 0.00, 0.00, 0.00, 0.00, 0.00, 0.00, 0.000, 0.000, 0.000, 11:58:22.225, 1553443102225
100, 6053.30, -22626.20, 0.00, 0.00, 0.00, 0.00, 0.00, 0.00, 0.000, 0.000, 0.000, 11:58:22.225, 1553443102225
101, 6042.55, -22440.19, 0.00, 0.00, 0.00, 0.00, 0.00, 0.00, 0.000, 0.000, 0.000, 11:58:22.225, 1553443102225
102, 6027.28, -22236.07, 0.00, 0.00, 0.00, 0.00, 0.00, 0.00, -0.288, 0.158, 0.962, 11:58:22.225, 1553443102225
103, 6033.65, -22048.19, 0.00, 0.00, 0.00, 0.00, 0.00, 0.00, 0.000, 0.000, 0.000, 11:58:22.225, 1553443102225
104, 6038.73, -21861.44, 0.00, 0.00, 0.00, 0.00, 0.00, 0.00, 0.000, 0.000, 0.000, 11:58:22.225, 1553443102225
105, 6039.53, -21677.77, 0.00, 0.00, 0.00, 0.00, 0.00, 0.00, 0.000, 0.000, 0.000, 11:58:22.225, 1553443102225
106, 6023.30, -21500.70, 0.00, 0.00, 0.00, 0.00, 0.00, 0.00, 0.000, 0.000, 0.000, 11:58:22.225, 1553443102225
107, 6019.24, -21303.31, 0.00, 0.00, 0.00, 0.00, 0.00, 0.00, 0.000, 0.000, 0.000, 11:58:22.225, 1553443102225
108, 5997.29, -21114.22, 0.00, 0.00, 0.00, 0.00, 0.00, 0.00, 0.000, 0.000, 0.000, 11:58:22.225, 1553443102225
109, 5984.10, -20946.54, 0.00, 0.00, 0.00, 0.00, 0.00, 0.00, 0.000, 0.000, 0.000, 11:58:22.226, 1553443102226
110, 5992.70, -20761.44, 0.00, 0.00, 0.00, 0.00, 0.00, 0.00, 0.000, 0.000, 0.000, 11:58:22.226, 1553443102226
111, 5990.07, -20559.89, 0.00, 0.00, 0.00, 0.00, 0.00, 0.00, 0.000, 0.000, 0.000, 11:58:22.226, 1553443102226
112, 5975.16, -20373.35, 0.00, 0.00, 0.00, 0.00, 0.00, 0.00, -0.290, 0.154, 0.958, 11:58:22.226, 1553443102226
113, 5972.52, -20204.50, 0.00, 0.00, 0.00, 0.00, 0.00, 0.00, 0.000, 0.000, 0.000, 11:58:22.226, 1553443102226
114, 6014.76, -20033.04, 0.00, 0.00, 0.00, 0.00, 0.00, 0.00, 0.000, 0.000, 0.000, 11:58:22.226, 1553443102226
115, 5973.37, -19830.00, 0.00, 0.00, 0.00, 0.00, 0.00, 0.00, 0.000, 0.000, 0.000, 11:58:22.226, 1553443102226
116, 5964.85, -19659.95, 0.00, 0.00, 0.00, 0.00, 0.00, 0.00, 0.000, 0.000, 0.000, 11:58:22.226, 1553443102226
117, 5961.28, -19467.14, 0.00, 0.00, 0.00, 0.00, 0.00, 0.00, 0.000, 0.000, 0.000, 11:58:22.226, 1553443102226
118, 5969.59, -19294.09, 0.00, 0.00, 0.00, 0.00, 0.00, 0.00, 0.000, 0.000, 0.000, 11:58:22.226, 1553443102226
119, 5982.53, -19112.62, 0.00, 0.00, 0.00, 0.00, 0.00, 0.00, 0.000, 0.000, 0.000, 11:58:22.226, 1553443102226
120, 5959.06, -18913.87, 0.00, 0.00, 0.00, 0.00, 0.00, 0.00, 0.000, 0.000, 0.000, 11:58:22.227, 1553443102227
121, 5947.28, -18740.46, 0.00, 0.00, 0.00, 0.00, 0.00, 0.00, 0.000, 0.000, 0.000, 11:58:22.682, 1553443102682
122, 5952.07, -18564.84, 0.00, 0.00, 0.00, 0.00, 0.00, 0.00, -0.288, 0.156, 0.960, 11:58:22.682, 1553443102682
123, 5979.05, -18363.32, 0.00, 0.00, 0.00, 0.00, 0.00, 0.00, 0.000, 0.000, 0.000, 11:58:22.682, 1553443102682
124, 5992.73, -18188.93, 0.00, 0.00, 0.00, 0.00, 0.00, 0.00, 0.000, 0.000, 0.000, 11:58:22.682, 1553443102682
125, 6003.83, -18037.48, 0.00, 0.00, 0.00, 0.00, 0.00, 0.00, 0.000, 0.000, 0.000, 11:58:22.682, 1553443102682
126, 6027.51, -17873.21, 0.00, 0.00, 0.00, 0.00, 0.00, 0.00, 0.000, 0.000, 0.000, 11:58:22.682, 1553443102682
127, 6028.18, -17677.32, 0.00, 0.00, 0.00, 0.00, 0.00, 0.00, 0.000, 0.000, 0.000, 11:58:22.682, 1553443102682
128, 6041.50, -17489.84, 0.00, 0.00, 0.00, 0.00, 0.00, 0.00, 0.000, 0.000, 0.000, 11:58:22.682, 1553443102682
129, 6055.96, -17316.16, 0.00, 0.00, 0.00, 0.00, 0.00, 0.00, 0.000, 0.000, 0.000, 11:58:22.682, 1553443102682
130, 6078.80, -17139.63, 0.00, 0.00, 0.00, 0.00, 0.00, 0.00, 0.000, 0.000, 0.000, 11:58:22.683, 1553443102683
131, 6077.33, -16962.20, 0.00, 0.00, 0.00, 0.00, 0.00, 0.00, 0.000, 0.000, 0.000, 11:58:22.683, 1553443102683
132, 6090.69, -16804.20, 0.00, 0.00, 0.00, 0.00, 0.00, 0.00, -0.280, 0.156, 0.960, 11:58:22.683, 1553443102683
133, 6122.77, -16678.04, 0.00, 0.00, 0.00, 0.00, 0.00, 0.00, 0.000, 0.000, 0.000, 11:58:22.683, 1553443102683
134, 6142.88, -16504.93, 0.00, 0.00, 0.00, 0.00, 0.00, 0.00, 0.000, 0.000, 0.000, 11:58:22.683, 1553443102683
135, 6133.25, -16298.98, 0.00, 0.00, 0.00, 0.00, 0.00, 0.00, 0.000, 0.000, 0.000, 11:58:22.683, 1553443102683
136, 6122.12, -16103.07, 0.00, 0.00, 0.00, 0.00, 0.00, 0.00, 0.000, 0.000, 0.000, 11:58:22.683, 1553443102683
137, 6115.26, -15914.42, 0.00, 0.00, 0.00, 0.00, 0.00, 0.00, 0.000, 0.000, 0.000, 11:58:22.683, 1553443102683
138, 6115.95, -15726.73, 0.00, 0.00, 0.00, 0.00, 0.00, 0.00, 0.000, 0.000, 0.000, 11:58:22.683, 1553443102683
139, 6107.19, -15542.13, 0.00, 0.00, 0.00, 0.00, 0.00, 0.00, 0.000, 0.000, 0.000, 11:58:22.683, 1553443102683
140, 6106.85, -15362.40, 0.00, 0.00, 0.00, 0.00, 0.00, 0.00, 0.000, 0.000, 0.000, 11:58:22.683, 1553443102683
141, 6131.40, -15181.93, 0.00, 0.00, 0.00, 0.00, 0.00, 0.00, 0.000, 0.000, 0.000, 11:58:22.683, 1553443102683
142, 6139.11, -15017.35, 0.00, 0.00, 0.00, 0.00, 0.00, 0.00, -0.284, 0.154, 0.954, 11:58:22.683, 1553443102683
143, 6128.80, -14843.46, 0.00, 0.00, 0.00, 0.00, 0.00, 0.00, 0.000, 0.000, 0.000, 11:58:22.683, 1553443102683
144, 6128.49, -14673.52, 0.00, 0.00, 0.00, 0.00, 0.00, 0.00, 0.000, 0.000, 0.000, 11:58:22.683, 1553443102683
145, 6122.23, -14489.03, 0.00, 0.00, 0.00, 0.00, 0.00, 0.00, 0.000, 0.000, 0.000, 11:58:22.683, 1553443102683
146, 6166.65, -14320.85, 0.00, 0.00, 0.00, 0.00, 0.00, 0.00, 0.000, 0.000, 0.000, 11:58:22.683, 1553443102683
147, 6188.82, -14145.23, 0.00, 0.00, 0.00, 0.00, 0.00, 0.00, 0.000, 0.000, 0.000, 11:58:22.684, 1553443102684
148, 6145.57, -13942.66, 0.00, 0.00, 0.00, 0.00, 0.00, 0.00, 0.000, 0.000, 0.000, 11:58:22.684, 1553443102684
149, 6068.77, -13717.53, 0.00, 0.00, 0.00, 0.00, 0.00, 0.00, 0.000, 0.000, 0.000, 11:58:22.684, 1553443102684
150, 6101.15, -13562.46, 0.00, 0.00, 0.00, 0.00, 0.00, 0.00, 0.000, 0.000, 0.000, 11:58:22.684, 1553443102684
151, 6122.48, -13415.20, 0.00, 0.00, 0.00, 0.00, 0.00, 0.00, -0.286, 0.160, 0.960, 11:58:22.684, 1553443102684
152, 6124.36, -13227.38, 0.00, 0.00, 0.00, 0.00, 0.00, 0.00, 0.000, 0.000, 0.000, 11:58:22.684, 1553443102684
153, 6135.42, -13032.12, 0.00, 0.00, 0.00, 0.00, 0.00, 0.00, 0.000, 0.000, 0.000, 11:58:22.684, 1553443102684
154, 6138.77, -12840.99, 0.00, 0.00, 0.00, 0.00, 0.00, 0.00, 0.000, 0.000, 0.000, 11:58:22.684, 1553443102684
155, 6134.30, -12660.07, 0.00, 0.00, 0.00, 0.00, 0.00, 0.00, 0.000, 0.000, 0.000, 11:58:22.684, 1553443102684
156, 6132.09, -12461.77, 0.00, 0.00, 0.00, 0.00, 0.00, 0.00, 0.000, 0.000, 0.000, 11:58:22.684, 1553443102684
157, 6142.44, -12268.56, 0.00, 0.00, 0.00, 0.00, 0.00, 0.00, 0.000, 0.000, 0.000, 11:58:22.684, 1553443102684
158, 6111.86, -12101.08, 0.00, 0.00, 0.00, 0.00, 0.00, 0.00, 0.000, 0.000, 0.000, 11:58:22.684, 1553443102684
159, 6095.61, -11933.66, 0.00, 0.00, 0.00, 0.00, 0.00, 0.00, 0.000, 0.000, 0.000, 11:58:22.684, 1553443102684
160, 6117.25, -11779.79, 0.00, 0.00, 0.00, 0.00, 0.00, 0.00, 0.000, 0.000, 0.000, 11:58:22.684, 1553443102684
161, 6118.52, -11594.74, 0.00, 0.00, 0.00, 0.00, 0.00, 0.00, -0.292, 0.162, 0.952, 11:58:22.684, 1553443102684
162, 6101.49, -11410.36, 0.00, 0.00, 0.00, 0.00, 0.00, 0.00, 0.000, 0.000, 0.000, 11:58:22.684, 1553443102684
163, 6120.40, -11252.45, 0.00, 0.00, 0.00, 0.00, 0.00, 0.00, 0.000, 0.000, 0.000, 11:58:22.685, 1553443102685
164, 6122.01, -11070.42, 0.00, 0.00, 0.00, 0.00, 0.00, 0.00, 0.000, 0.000, 0.000, 11:58:22.685, 1553443102685
165, 6147.06, -10905.33, 0.00, 0.00, 0.00, 0.00, 0.00, 0.00, 0.000, 0.000, 0.000, 11:58:22.685, 1553443102685
166, 6160.74, -10737.26, 0.00, 0.00, 0.00, 0.00, 0.00, 0.00, 0.000, 0.000, 0.000, 11:58:22.685, 1553443102685
167, 6151.42, -10571.95, 0.00, 0.00, 0.00, 0.00, 0.00, 0.00, 0.000, 0.000, 0.000, 11:58:22.685, 1553443102685
168, 6089.62, -10350.82, 0.00, 0.00, 0.00, 0.00, 0.00, 0.00, 0.000, 0.000, 0.000, 11:58:22.685, 1553443102685
169, 6039.73, -10145.25, 0.00, 0.00, 0.00, 0.00, 0.00, 0.00, 0.000, 0.000, 0.000, 11:58:22.685, 1553443102685
170, 6067.98, -9994.49, 0.00, 0.00, 0.00, 0.00, 0.00, 0.00, 0.000, 0.000, 0.000, 11:58:22.685, 1553443102685
171, 6111.23, -9843.75, 0.00, 0.00, 0.00, 0.00, 0.00, 0.00, -0.288, 0.160, 0.956, 11:58:22.685, 1553443102685
172, 6130.17, -9690.71, 0.00, 0.00, 0.00, 0.00, 0.00, 0.00, 0.000, 0.000, 0.000, 11:58:22.685, 1553443102685
173, 6122.68, -9503.31, 0.00, 0.00, 0.00, 0.00, 0.00, 0.00, 0.000, 0.000, 0.000, 11:58:22.685, 1553443102685
174, 6128.96, -9324.52, 0.00, 0.00, 0.00, 0.00, 0.00, 0.00, 0.000, 0.000, 0.000, 11:58:22.685, 1553443102685
175, 6142.39, -9159.79, 0.00, 0.00, 0.00, 0.00, 0.00, 0.00, 0.000, 0.000, 0.000, 11:58:22.685, 1553443102685
176, 6141.14, -8981.40, 0.00, 0.00, 0.00, 0.00, 0.00, 0.00, 0.000, 0.000, 0.000, 11:58:22.685, 1553443102685
177, 6195.48, -8831.11, 0.00, 0.00, 0.00, 0.00, 0.00, 0.00, 0.000, 0.000, 0.000, 11:58:22.685, 1553443102685
178, 6176.32, -8637.76, 0.00, 0.00, 0.00, 0.00, 0.00, 0.00, 0.000, 0.000, 0.000, 11:58:22.685, 1553443102685
179, 6064.25, -8398.22, 0.00, 0.00, 0.00, 0.00, 0.00, 0.00, 0.000, 0.000, 0.000, 11:58:22.686, 1553443102686
180, 6056.36, -8205.12, 0.00, 0.00, 0.00, 0.00, 0.00, 0.00, 0.000, 0.000, 0.000, 11:58:22.686, 1553443102686
181, 6095.92, -8042.29, 0.00, 0.00, 0.00, 0.00, 0.00, 0.00, -0.288, 0.150, 0.958, 11:58:22.686, 1553443102686
182, 6099.90, -7880.15, 0.00, 0.00, 0.00, 0.00, 0.00, 0.00, 0.000, 0.000, 0.000, 11:58:22.686, 1553443102686
183, 6097.35, -7709.65, 0.00, 0.00, 0.00, 0.00, 0.00, 0.00, 0.000, 0.000, 0.000, 11:58:22.686, 1553443102686
184, 6105.24, -7545.66, 0.00, 0.00, 0.00, 0.00, 0.00, 0.00, 0.000, 0.000, 0.000, 11:58:22.686, 1553443102686
185, 6107.97, -7390.72, 0.00, 0.00, 0.00, 0.00, 0.00, 0.00, 0.000, 0.000, 0.000, 11:58:22.686, 1553443102686
186, 6101.18, -7205.55, 0.00, 0.00, 0.00, 0.00, 0.00, 0.00, 0.000, 0.000, 0.000, 11:58:22.687, 1553443102687
187, 6082.49, -6988.97, 0.00, 0.00, 0.00, 0.00, 0.00, 0.00, 0.000, 0.000, 0.000, 11:58:22.687, 1553443102687
188, 6094.31, -6826.71, 0.00, 0.00, 0.00, 0.00, 0.00, 0.00, 0.000, 0.000, 0.000, 11:58:22.687, 1553443102687
189, 6111.57, -6674.14, 0.00, 0.00, 0.00, 0.00, 0.00, 0.00, 0.000, 0.000, 0.000, 11:58:22.687, 1553443102687
190, 6049.48, -6464.66, 0.00, 0.00, 0.00, 0.00, 0.00, 0.00, 0.000, 0.000, 0.000, 11:58:22.687, 1553443102687
191, 6038.75, -6279.92, 0.00, 0.00, 0.00, 0.00, 0.00, 0.00, -0.288, 0.152, 0.952, 11:58:22.687, 1553443102687
192, 6008.77, -6104.06, 0.00, 0.00, 0.00, 0.00, 0.00, 0.00, 0.000, 0.000, 0.000, 11:58:22.687, 1553443102687
193, 6008.10, -5940.83, 0.00, 0.00, 0.00, 0.00, 0.00, 0.00, 0.000, 0.000, 0.000, 11:58:22.687, 1553443102687
194, 6007.14, -5766.28, 0.00, 0.00, 0.00, 0.00, 0.00, 0.00, 0.000, 0.000, 0.000, 11:58:22.687, 1553443102687
195, 6030.41, -5612.61, 0.00, 0.00, 0.00, 0.00, 0.00, 0.00, 0.000, 0.000, 0.000, 11:58:22.688, 1553443102688
196, 6046.55, -5433.80, 0.00, 0.00, 0.00, 0.00, 0.00, 0.00, 0.000, 0.000, 0.000, 11:58:22.688, 1553443102688
197, 6088.66, -5278.21, 0.00, 0.00, 0.00, 0.00, 0.00, 0.00, 0.000, 0.000, 0.000, 11:58:22.688, 1553443102688
198, 6125.18, -5145.17, 0.00, 0.00, 0.00, 0.00, 0.00, 0.00, 0.000, 0.000, 0.000, 11:58:22.688, 1553443102688
199, 6115.50, -4960.21, 0.00, 0.00, 0.00, 0.00, 0.00, 0.00, 0.000, 0.000, 0.000, 11:58:22.688, 1553443102688
200, 6140.40, -4788.46, 0.00, 0.00, 0.00, 0.00, 0.00, 0.00, 0.000, 0.000, 0.000, 11:58:22.689, 1553443102689
201, 6152.74, -4627.35, 0.00, 0.00, 0.00, 0.00, 0.00, 0.00, -0.292, 0.150, 0.950, 11:58:22.689, 1553443102689
202, 6150.44, -4443.62, 0.00, 0.00, 0.00, 0.00, 0.00, 0.00, 0.000, 0.000, 0.000, 11:58:22.689, 1553443102689
203, 6123.89, -4244.71, 0.00, 0.00, 0.00, 0.00, 0.00, 0.00, 0.000, 0.000, 0.000, 11:58:22.690, 1553443102690
204, 6131.11, -4058.90, 0.00, 0.00, 0.00, 0.00, 0.00, 0.00, 0.000, 0.000, 0.000, 11:58:22.690, 1553443102690
205, 6137.88, -3911.82, 0.00, 0.00, 0.00, 0.00, 0.00, 0.00, 0.000, 0.000, 0.000, 11:58:22.690, 1553443102690
206, 6144.23, -3769.96, 0.00, 0.00, 0.00, 0.00, 0.00, 0.00, 0.000, 0.000, 0.000, 11:58:22.690, 1553443102690
207, 6160.83, -3607.15, 0.00, 0.00, 0.00, 0.00, 0.00, 0.00, 0.000, 0.000, 0.000, 11:58:22.690, 1553443102690
208, 6131.55, -3414.54, 0.00, 0.00, 0.00, 0.00, 0.00, 0.00, 0.000, 0.000, 0.000, 11:58:22.690, 1553443102690
209, 6120.27, -3256.78, 0.00, 0.00, 0.00, 0.00, 0.00, 0.00, 0.000, 0.000, 0.000, 11:58:22.690, 1553443102690
210, 6123.13, -3094.67, 0.00, 0.00, 0.00, 0.00, 0.00, 0.00, 0.000, 0.000, 0.000, 11:58:22.690, 1553443102690
211, 6154.06, -2936.57, 0.00, 0.00, 0.00, 0.00, 0.00, 0.00, -0.290, 0.152, 0.946, 11:58:22.690, 1553443102690
212, 6169.39, -2796.96, 0.00, 0.00, 0.00, 0.00, 0.00, 0.00, 0.000, 0.000, 0.000, 11:58:22.690, 1553443102690
213, 6152.12, -2639.03, 0.00, 0.00, 0.00, 0.00, 0.00, 0.00, 0.000, 0.000, 0.000, 11:58:22.690, 1553443102690
214, 6098.02, -2428.87, 0.00, 0.00, 0.00, 0.00, 0.00, 0.00, 0.000, 0.000, 0.000, 11:58:22.690, 1553443102690
215, 6030.32, -2215.21, 0.00, 0.00, 0.00, 0.00, 0.00, 0.00, 0.000, 0.000, 0.000, 11:58:22.690, 1553443102690
216, 5844.22, -1939.10, 0.00, 0.00, 0.00, 0.00, 0.00, 0.00, 0.000, 0.000, 0.000, 11:58:22.690, 1553443102690
217, 5592.76, -1660.85, 0.00, 0.00, 0.00, 0.00, 0.00, 0.00, 0.000, 0.000, 0.000, 11:58:22.690, 1553443102690
218, 5362.72, -1379.71, 0.00, 0.00, 0.00, 0.00, 0.00, 0.00, 0.000, 0.000, 0.000, 11:58:22.691, 1553443102691
219, 5220.21, -1139.87, 0.00, 0.00, 0.00, 0.00, 0.00, 0.00, 0.000, 0.000, 0.000, 11:58:22.691, 1553443102691
220, 5306.26, -1028.65, 0.00, 0.00, 0.00, 0.00, 0.00, 0.00, 0.000, 0.000, 0.000, 11:58:22.691, 1553443102691
221, 5486.21, -946.86, 0.00, 0.00, 0.00, 0.00, 0.00, 0.00, -0.288, 0.154, 0.948, 11:58:22.691, 1553443102691
222, 5725.27, -890.74, 0.00, 0.00, 0.00, 0.00, 0.00, 0.00, 0.000, 0.000, 0.000, 11:58:22.691, 1553443102691
223, 6068.70, -900.13, 0.00, 0.00, 0.00, 0.00, 0.00, 0.00, 0.000, 0.000, 0.000, 11:58:22.691, 1553443102691
224, 6130.44, -741.07, 0.00, 0.00, 0.00, 0.00, 0.00, 0.00, 0.000, 0.000, 0.000, 11:58:22.691, 1553443102691
225, 6087.68, -551.51, 0.00, 0.00, 0.00, 0.00, 0.00, 0.00, 0.000, 0.000, 0.000, 11:58:22.691, 1553443102691
226, 6045.95, -376.98, 0.00, 0.00, 0.00, 0.00, 0.00, 0.00, 0.000, 0.000, 0.000, 11:58:22.691, 1553443102691
227, 6058.06, -217.53, 0.00, 0.00, 0.00, 0.00, 0.00, 0.00, 0.000, 0.000, 0.000, 11:58:22.691, 1553443102691
228, 6058.84, -34.27, 0.00, 0.00, 0.00, 0.00, 0.00, 0.00, 0.000, 0.000, 0.000, 11:58:22.691, 1553443102691
229, 6071.54, 124.48, 0.00, 0.00, 0.00, 0.00, 0.00, 0.00, 0.000, 0.000, 0.000, 11:58:22.691, 1553443102691
230, 6113.29, 293.46, 0.00, 0.00, 0.00, 0.00, 0.00, 0.00, 0.000, 0.000, 0.000, 11:58:22.691, 1553443102691
231, 6105.24, 487.40, 0.00, 0.00, 0.00, 0.00, 0.00, 0.00, -0.290, 0.152, 0.948, 11:58:22.691, 1553443102691
232, 6061.48, 672.81, 0.00, 0.00, 0.00, 0.00, 0.00, 0.00, 0.000, 0.000, 0.000, 11:58:22.691, 1553443102691
233, 6076.50, 839.22, 0.00, 0.00, 0.00, 0.00, 0.00, 0.00, 0.000, 0.000, 0.000, 11:58:22.691, 1553443102691
234, 6058.53, 997.74, 0.00, 0.00, 0.00, 0.00, 0.00, 0.00, 0.000, 0.000, 0.000, 11:58:22.691, 1553443102691
235, 6098.85, 1155.94, 0.00, 0.00, 0.00, 0.00, 0.00, 0.00, 0.000, 0.000, 0.000, 11:58:22.691, 1553443102691
236, 6076.84, 1355.10, 0.00, 0.00, 0.00, 0.00, 0.00, 0.00, 0.000, 0.000, 0.000, 11:58:22.691, 1553443102691
237, 6073.37, 1513.62, 0.00, 0.00, 0.00, 0.00, 0.00, 0.00, 0.000, 0.000, 0.000, 11:58:22.691, 1553443102691
238, 6071.54, 1664.78, 0.00, 0.00, 0.00, 0.00, 0.00, 0.00, 0.000, 0.000, 0.000, 11:58:22.691, 1553443102691
239, 6065.53, 1854.66, 0.00, 0.00, 0.00, 0.00, 0.00, 0.00, 0.000, 0.000, 0.000, 11:58:22.691, 1553443102691
240, 6052.38, 2020.96, 0.00, 0.00, 0.00, 0.00, 0.00, 0.00, 0.000, 0.000, 0.000, 11:58:22.692, 1553443102692
241, 6048.78, 2182.67, 0.00, 0.00, 0.00, 0.00, 0.00, 0.00, -0.290, 0.156, 0.956, 11:58:23.159, 1553443103159
242, 6088.53, 2344.83, 0.00, 0.00, 0.00, 0.00, 0.00, 0.00, 0.000, 0.000, 0.000, 11:58:23.160, 1553443103160
243, 6086.00, 2513.77, 0.00, 0.00, 0.00, 0.00, 0.00, 0.00, 0.000, 0.000, 0.000, 11:58:23.160, 1553443103160
244, 6051.11, 2694.48, 0.00, 0.00, 0.00, 0.00, 0.00, 0.00, 0.000, 0.000, 0.000, 11:58:23.160, 1553443103160
245, 6048.96, 2865.61, 0.00, 0.00, 0.00, 0.00, 0.00, 0.00, 0.000, 0.000, 0.000, 11:58:23.160, 1553443103160
246, 6070.40, 3030.18, 0.00, 0.00, 0.00, 0.00, 0.00, 0.00, 0.000, 0.000, 0.000, 11:58:23.160, 1553443103160
247, 6044.43, 3207.61, 0.00, 0.00, 0.00, 0.00, 0.00, 0.00, 0.000, 0.000, 0.000, 11:58:23.160, 1553443103160
248, 6037.12, 3361.61, 0.00, 0.00, 0.00, 0.00, 0.00, 0.00, 0.000, 0.000, 0.000, 11:58:23.160, 1553443103160
249, 6054.93, 3538.26, 0.00, 0.00, 0.00, 0.00, 0.00, 0.00, 0.000, 0.000, 0.000, 11:58:23.160, 1553443103160
250, 6034.61, 3704.42, 0.00, 0.00, 0.00, 0.00, 0.00, 0.00, 0.000, 0.000, 0.000, 11:58:23.160, 1553443103160
251, 6031.01, 3884.71, 0.00, 0.00, 0.00, 0.00, 0.00, 0.00, -0.292, 0.154, 0.956, 11:58:23.160, 1553443103160
252, 6055.62, 4041.37, 0.00, 0.00, 0.00, 0.00, 0.00, 0.00, 0.000, 0.000, 0.000, 11:58:23.160, 1553443103160
253, 6045.34, 4216.92, 0.00, 0.00, 0.00, 0.00, 0.00, 0.00, 0.000, 0.000, 0.000, 11:58:23.160, 1553443103160
254, 6033.63, 4382.08, 0.00, 0.00, 0.00, 0.00, 0.00, 0.00, 0.000, 0.000, 0.000, 11:58:23.160, 1553443103160
255, 6036.87, 4556.22, 0.00, 0.00, 0.00, 0.00, 0.00, 0.00, 0.000, 0.000, 0.000, 11:58:23.160, 1553443103160
0, 5966.53, 4760.70, 0.00, 0.00, 0.00, 0.00, 0.00, 0.00, 0.000, 0.000, 0.000, 11:58:23.160, 1553443103160
1, 5980.12, 4927.93, 0.00, 0.00, 0.00, 0.00, 0.00, 0.00, 0.000, 0.000, 0.000, 11:58:23.160, 1553443103160
2, 5993.17, 5074.49, 0.00, 0.00, 0.00, 0.00, 0.00, 0.00, 0.000, 0.000, 0.000, 11:58:23.160, 1553443103160
3, 5987.00, 5210.68, 0.00, 0.00, 0.00, 0.00, 0.00, 0.00, 0.000, 0.000, 0.000, 11:58:23.160, 1553443103160
4, 5973.39, 5357.29, 0.00, 0.00, 0.00, 0.00, 0.00, 0.00, 0.000, 0.000, 0.000, 11:58:23.161, 1553443103161
5, 5961.57, 5560.76, 0.00, 0.00, 0.00, 0.00, 0.00, 0.00, -0.288, 0.150, 0.952, 11:58:23.161, 1553443103161
6, 5974.06, 5727.43, 0.00, 0.00, 0.00, 0.00, 0.00, 0.00, 0.000, 0.000, 0.000, 11:58:23.161, 1553443103161
7, 5984.97, 5857.01, 0.00, 0.00, 0.00, 0.00, 0.00, 0.00, 0.000, 0.000, 0.000, 11:58:23.161, 1553443103161
8, 5971.67, 6050.15, 0.00, 0.00, 0.00, 0.00, 0.00, 0.00, 0.000, 0.000, 0.000, 11:58:23.161, 1553443103161
9, 5922.12, 6263.94, 0.00, 0.00, 0.00, 0.00, 0.00, 0.00, 0.000, 0.000, 0.000, 11:58:23.161, 1553443103161
10, 5937.88, 6432.14, 0.00, 0.00, 0.00, 0.00, 0.00, 0.00, 0.000, 0.000, 0.000, 11:58:23.161, 1553443103161
11, 5956.96, 6599.89, 0.00, 0.00, 0.00, 0.00, 0.00, 0.00, 0.000, 0.000, 0.000, 11:58:23.161, 1553443103161
12, 5951.29, 6765.07, 0.00, 0.00, 0.00, 0.00, 0.00, 0.00, 0.000, 0.000, 0.000, 11:58:23.161, 1553443103161
13, 5949.56, 6928.30, 0.00, 0.00, 0.00, 0.00, 0.00, 0.00, 0.000, 0.000, 0.000, 11:58:23.165, 1553443103165
14, 5918.21, 7118.87, 0.00, 0.00, 0.00, 0.00, 0.00, 0.00, -0.288, 0.156, 0.944, 11:58:23.165, 1553443103165
15, 5888.21, 7268.54, 0.00, 0.00, 0.00, 0.00, 0.00, 0.00, 0.000, 0.000, 0.000, 11:58:23.165, 1553443103165
16, 5891.50, 7417.96, 0.00, 0.00, 0.00, 0.00, 0.00, 0.00, 0.000, 0.000, 0.000, 11:58:23.165, 1553443103165
17, 5898.83, 7603.91, 0.00, 0.00, 0.00, 0.00, 0.00, 0.00, 0.000, 0.000, 0.000, 11:58:23.165, 1553443103165
18, 5912.53, 7763.72, 0.00, 0.00, 0.00, 0.00, 0.00, 0.00, 0.000, 0.000, 0.000, 11:58:23.165, 1553443103165
19, 5921.02, 7915.15, 0.00, 0.00, 0.00, 0.00, 0.00, 0.00, 0.000, 0.000, 0.000, 11:58:23.165, 1553443103165
20, 5894.45, 8092.85, 0.00, 0.00, 0.00, 0.00, 0.00, 0.00, 0.000, 0.000, 0.000, 11:58:23.165, 1553443103165
21, 5875.45, 8273.59, 0.00, 0.00, 0.00, 0.00, 0.00, 0.00, 0.000, 0.000, 0.000, 11:58:23.165, 1553443103165
22, 5936.44, 8408.66, 0.00, 0.00, 0.00, 0.00, 0.00, 0.00, 0.000, 0.000, 0.000, 11:58:23.165, 1553443103165
23, 5893.89, 8589.17, 0.00, 0.00, 0.00, 0.00, 0.00, 0.00, 0.000, 0.000, 0.000, 11:58:23.165, 1553443103165
24, 5904.93, 8754.53, 0.00, 0.00, 0.00, 0.00, 0.00, 0.00, -0.284, 0.156, 0.948, 11:58:23.165, 1553443103165
25, 5893.66, 8938.15, 0.00, 0.00, 0.00, 0.00, 0.00, 0.00, 0.000, 0.000, 0.000, 11:58:23.165, 1553443103165
26, 5907.92, 9094.70, 0.00, 0.00, 0.00, 0.00, 0.00, 0.00, 0.000, 0.000, 0.000, 11:58:23.165, 1553443103165
27, 5937.88, 9237.73, 0.00, 0.00, 0.00, 0.00, 0.00, 0.00, 0.000, 0.000, 0.000, 11:58:23.165, 1553443103165
28, 5969.12, 9377.36, 0.00, 0.00, 0.00, 0.00, 0.00, 0.00, 0.000, 0.000, 0.000, 11:58:23.166, 1553443103166
29, 5951.69, 9553.25, 0.00, 0.00, 0.00, 0.00, 0.00, 0.00, 0.000, 0.000, 0.000, 11:58:23.166, 1553443103166
30, 5966.51, 9718.34, 0.00, 0.00, 0.00, 0.00, 0.00, 0.00, 0.000, 0.000, 0.000, 11:58:23.167, 1553443103167
31, 6023.66, 9853.65, 0.00, 0.00, 0.00, 0.00, 0.00, 0.00, 0.000, 0.000, 0.000, 11:58:23.167, 1553443103167
32, 6031.91, 10018.34, 0.00, 0.00, 0.00, 0.00, 0.00, 0.00, 0.000, 0.000, 0.000, 11:58:23.167, 1553443103167
33, 6019.73, 10189.89, 0.00, 0.00, 0.00, 0.00, 0.00, 0.00, 0.000, 0.000, 0.000, 11:58:23.167, 1553443103167
34, 6049.03, 10346.04, 0.00, 0.00, 0.00, 0.00, 0.00, 0.00, -0.290, 0.154, 0.950, 11:58:23.167, 1553443103167
35, 6057.86, 10509.75, 0.00, 0.00, 0.00, 0.00, 0.00, 0.00, 0.000, 0.000, 0.000, 11:58:23.167, 1553443103167
36, 6083.83, 10665.98, 0.00, 0.00, 0.00, 0.00, 0.00, 0.00, 0.000, 0.000, 0.000, 11:58:23.167, 1553443103167
37, 6066.55, 10805.41, 0.00, 0.00, 0.00, 0.00, 0.00, 0.00, 0.000, 0.000, 0.000, 11:58:23.167, 1553443103167
38, 6085.22, 10954.37, 0.00, 0.00, 0.00, 0.00, 0.00, 0.00, 0.000, 0.000, 0.000, 11:58:23.167, 1553443103167
39, 6050.48, 11151.98, 0.00, 0.00, 0.00, 0.00, 0.00, 0.00, 0.000, 0.000, 0.000, 11:58:23.167, 1553443103167
40, 6056.05, 11324.44, 0.00, 0.00, 0.00, 0.00, 0.00, 0.00, 0.000, 0.000, 0.000, 11:58:23.168, 1553443103168
41, 6071.65, 11467.52, 0.00, 0.00, 0.00, 0.00, 0.00, 0.00, 0.000, 0.000, 0.000, 11:58:23.168, 1553443103168
42, 6080.86, 11623.26, 0.00, 0.00, 0.00, 0.00, 0.00, 0.00, 0.000, 0.000, 0.000, 11:58:23.168, 1553443103168
43, 6070.91, 11801.45, 0.00, 0.00, 0.00, 0.00, 0.00, 0.00, 0.000, 0.000, 0.000, 11:58:23.168, 1553443103168
44, 6064.61, 11970.92, 0.00, 0.00, 0.00, 0.00, 0.00, 0.00, -0.290, 0.154, 0.958, 11:58:23.168, 1553443103168
45, 6100.08, 12113.71, 0.00, 0.00, 0.00, 0.00, 0.00, 0.00, 0.000, 0.000, 0.000, 11:58:23.168, 1553443103168
46, 6059.76, 12295.78, 0.00, 0.00, 0.00, 0.00, 0.00, 0.00, 0.000, 0.000, 0.000, 11:58:23.168, 1553443103168
47, 6048.18, 12460.90, 0.00, 0.00, 0.00, 0.00, 0.00, 0.00, 0.000, 0.000, 0.000, 11:58:23.169, 1553443103169
48, 6078.82, 12615.12, 0.00, 0.00, 0.00, 0.00, 0.00, 0.00, 0.000, 0.000, 0.000, 11:58:23.169, 1553443103169
49, 6065.46, 12789.24, 0.00, 0.00, 0.00, 0.00, 0.00, 0.00, 0.000, 0.000, 0.000, 11:58:23.169, 1553443103169
50, 6057.08, 12949.88, 0.00, 0.00, 0.00, 0.00, 0.00, 0.00, 0.000, 0.000, 0.000, 11:58:23.169, 1553443103169
51, 6047.29, 13116.61, 0.00, 0.00, 0.00, 0.00, 0.00, 0.00, 0.000, 0.000, 0.000, 11:58:23.169, 1553443103169
52, 6066.73, 13244.39, 0.00, 0.00, 0.00, 0.00, 0.00, 0.00, 0.000, 0.000, 0.000, 11:58:23.169, 1553443103169
53, 6077.01, 13420.34, 0.00, 0.00, 0.00, 0.00, 0.00, 0.00, 0.000, 0.000, 0.000, 11:58:23.169, 1553443103169
54, 6094.67, 13569.92, 0.00, 0.00, 0.00, 0.00, 0.00, 0.00, -0.294, 0.156, 0.954, 11:58:23.169, 1553443103169
55, 6098.38, 13754.77, 0.00, 0.00, 0.00, 0.00, 0.00, 0.00, 0.000, 0.000, 0.000, 11:58:23.169, 1553443103169
56, 6068.74, 13953.30, 0.00, 0.00, 0.00, 0.00, 0.00, 0.00, 0.000, 0.000, 0.000, 11:58:23.169, 1553443103169
57, 6057.64, 14128.58, 0.00, 0.00, 0.00, 0.00, 0.00, 0.00, 0.000, 0.000, 0.000, 11:58:23.169, 1553443103169
58, 6078.69, 14272.46, 0.00, 0.00, 0.00, 0.00, 0.00, 0.00, 0.000, 0.000, 0.000, 11:58:23.170, 1553443103170
59, 6086.47, 14418.13, 0.00, 0.00, 0.00, 0.00, 0.00, 0.00, 0.000, 0.000, 0.000, 11:58:23.171, 1553443103171
60, 6098.23, 14552.01, 0.00, 0.00, 0.00, 0.00, 0.00, 0.00, 0.000, 0.000, 0.000, 11:58:23.171, 1553443103171
61, 6083.21, 14737.76, 0.00, 0.00, 0.00, 0.00, 0.00, 0.00, 0.000, 0.000, 0.000, 11:58:23.171, 1553443103171
62, 6061.77, 14919.48, 0.00, 0.00, 0.00, 0.00, 0.00, 0.00, 0.000, 0.000, 0.000, 11:58:23.171, 1553443103171
63, 6098.85, 15046.34, 0.00, 0.00, 0.00, 0.00, 0.00, 0.00, 0.000, 0.000, 0.000, 11:58:23.171, 1553443103171
64, 6073.04, 15231.77, 0.00, 0.00, 0.00, 0.00, 0.00, 0.00, -0.292, 0.154, 0.954, 11:58:23.171, 1553443103171
65, 6063.94, 15396.57, 0.00, 0.00, 0.00, 0.00, 0.00, 0.00, 0.000, 0.000, 0.000, 11:58:23.171, 1553443103171
66, 6078.00, 15550.67, 0.00, 0.00, 0.00, 0.00, 0.00, 0.00, 0.000, 0.000, 0.000, 11:58:23.171, 1553443103171
67, 6044.69, 15745.53, 0.00, 0.00, 0.00, 0.00, 0.00, 0.00, 0.000, 0.000, 0.000, 11:58:23.171, 1553443103171
68, 6055.83, 15904.72, 0.00, 0.00, 0.00, 0.00, 0.00, 0.00, 0.000, 0.000, 0.000, 11:58:23.171, 1553443103171
69, 6037.54, 16051.21, 0.00, 0.00, 0.00, 0.00, 0.00, 0.00, 0.000, 0.000, 0.000, 11:58:23.171, 1553443103171
70, 6048.76, 16202.58, 0.00, 0.00, 0.00, 0.00, 0.00, 0.00, 0.000, 0.000, 0.000, 11:58:23.171, 1553443103171
71, 6047.35, 16365.95, 0.00, 0.00, 0.00, 0.00, 0.00, 0.00, 0.000, 0.000, 0.000, 11:58:23.171, 1553443103171
72, 6077.28, 16529.32, 0.00, 0.00, 0.00, 0.00, 0.00, 0.00, 0.000, 0.000, 0.000, 11:58:23.171, 1553443103171
73, 6063.04, 16708.87, 0.00, 0.00, 0.00, 0.00, 0.00, 0.00, 0.000, 0.000, 0.000, 11:58:23.171, 1553443103171
74, 6064.94, 16853.95, 0.00, 0.00, 0.00, 0.00, 0.00, 0.00, -0.288, 0.160, 0.956, 11:58:23.171, 1553443103171
75, 6071.31, 17000.15, 0.00, 0.00, 0.00, 0.00, 0.00, 0.00, 0.000, 0.000, 0.000, 11:58:23.172, 1553443103172
76, 6062.55, 17173.98, 0.00, 0.00, 0.00, 0.00, 0.00, 0.00, 0.000, 0.000, 0.000, 11:58:23.172, 1553443103172
77, 6067.07, 17317.33, 0.00, 0.00, 0.00, 0.00, 0.00, 0.00, 0.000, 0.000, 0.000, 11:58:23.172, 1553443103172
78, 6068.65, 17474.21, 0.00, 0.00, 0.00, 0.00, 0.00, 0.00, 0.000, 0.000, 0.000, 11:58:23.172, 1553443103172
79, 6061.17, 17627.39, 0.00, 0.00, 0.00, 0.00, 0.00, 0.00, 0.000, 0.000, 0.000, 11:58:23.172, 1553443103172
80, 6079.56, 17794.36, 0.00, 0.00, 0.00, 0.00, 0.00, 0.00, 0.000, 0.000, 0.000, 11:58:23.172, 1553443103172
81, 6087.54, 17940.31, 0.00, 0.00, 0.00, 0.00, 0.00, 0.00, 0.000, 0.000, 0.000, 11:58:23.172, 1553443103172
82, 6062.58, 18106.86, 0.00, 0.00, 0.00, 0.00, 0.00, 0.00, 0.000, 0.000, 0.000, 11:58:23.172, 1553443103172
83, 6105.18, 18250.73, 0.00, 0.00, 0.00, 0.00, 0.00, 0.00, 0.000, 0.000, 0.000, 11:58:23.172, 1553443103172
84, 6087.94, 18409.14, 0.00, 0.00, 0.00, 0.00, 0.00, 0.00, -0.282, 0.160, 0.950, 11:58:23.172, 1553443103172
85, 6070.69, 18595.67, 0.00, 0.00, 0.00, 0.00, 0.00, 0.00, 0.000, 0.000, 0.000, 11:58:23.173, 1553443103173
86, 6069.91, 18761.54, 0.00, 0.00, 0.00, 0.00, 0.00, 0.00, 0.000, 0.000, 0.000, 11:58:23.173, 1553443103173
87, 6071.29, 18909.42, 0.00, 0.00, 0.00, 0.00, 0.00, 0.00, 0.000, 0.000, 0.000, 11:58:23.173, 1553443103173
88, 6091.21, 19057.90, 0.00, 0.00, 0.00, 0.00, 0.00, 0.00, 0.000, 0.000, 0.000, 11:58:23.173, 1553443103173
89, 6057.30, 19223.46, 0.00, 0.00, 0.00, 0.00, 0.00, 0.00, 0.000, 0.000, 0.000, 11:58:23.173, 1553443103173
90, 6024.58, 19389.33, 0.00, 0.00, 0.00, 0.00, 0.00, 0.00, 0.000, 0.000, 0.000, 11:58:23.173, 1553443103173
91, 6028.51, 19565.91, 0.00, 0.00, 0.00, 0.00, 0.00, 0.00, 0.000, 0.000, 0.000, 11:58:23.173, 1553443103173
92, 6038.46, 19699.55, 0.00, 0.00, 0.00, 0.00, 0.00, 0.00, 0.000, 0.000, 0.000, 11:58:23.174, 1553443103174
93, 6004.19, 19883.55, 0.00, 0.00, 0.00, 0.00, 0.00, 0.00, 0.000, 0.000, 0.000, 11:58:23.175, 1553443103175
94, 5969.73, 20064.60, 0.00, 0.00, 0.00, 0.00, 0.00, 0.00, -0.288, 0.152, 0.952, 11:58:23.175, 1553443103175
95, 5943.98, 20251.30, 0.00, 0.00, 0.00, 0.00, 0.00, 0.00, 0.000, 0.000, 0.000, 11:58:23.175, 1553443103175
96, 5974.53, 20398.38, 0.00, 0.00, 0.00, 0.00, 0.00, 0.00, 0.000, 0.000, 0.000, 11:58:23.175, 1553443103175
97, 5997.31, 20539.44, 0.00, 0.00, 0.00, 0.00, 0.00, 0.00, 0.000, 0.000, 0.000, 11:58:23.175, 1553443103175
98, 5991.23, 20678.92, 0.00, 0.00, 0.00, 0.00, 0.00, 0.00, 0.000, 0.000, 0.000, 11:58:23.175, 1553443103175
99, 6003.37, 20814.53, 0.00, 0.00, 0.00, 0.00, 0.00, 0.00, 0.000, 0.000, 0.000, 11:58:23.175, 1553443103175
100, 6039.73, 20971.61, 0.00, 0.00, 0.00, 0.00, 0.00, 0.00, 0.000, 0.000, 0.000, 11:58:23.175, 1553443103175
101, 6037.90, 21131.23, 0.00, 0.00, 0.00, 0.00, 0.00, 0.00, 0.000, 0.000, 0.000, 11:58:23.175, 1553443103175
102, 6059.31, 21283.20, 0.00, 0.00, 0.00, 0.00, 0.00, 0.00, 0.000, 0.000, 0.000, 11:58:23.175, 1553443103175
103, 6056.41, 21466.86, 0.00, 0.00, 0.00, 0.00, 0.00, 0.00, 0.000, 0.000, 0.000, 11:58:23.175, 1553443103175
104, 6086.78, 21622.56, 0.00, 0.00, 0.00, 0.00, 0.00, 0.00, -0.288, 0.148, 0.952, 11:58:23.175, 1553443103175
105, 6103.28, 21772.92, 0.00, 0.00, 0.00, 0.00, 0.00, 0.00, 0.000, 0.000, 0.000, 11:58:23.640, 1553443103640
106, 6096.95, 21924.80, 0.00, 0.00, 0.00, 0.00, 0.00, 0.00, 0.000, 0.000, 0.000, 11:58:23.641, 1553443103641
107, 6099.59, 22076.08, 0.00, 0.00, 0.00, 0.00, 0.00, 0.00, 0.000, 0.000, 0.000, 11:58:23.641, 1553443103641
108, 6070.98, 22249.95, 0.00, 0.00, 0.00, 0.00, 0.00, 0.00, 0.000, 0.000, 0.000, 11:58:23.641, 1553443103641
109, 6086.85, 22407.15, 0.00, 0.00, 0.00, 0.00, 0.00, 0.00, 0.000, 0.000, 0.000, 11:58:23.641, 1553443103641
110, 6101.33, 22567.71, 0.00, 0.00, 0.00, 0.00, 0.00, 0.00, 0.000, 0.000, 0.000, 11:58:23.641, 1553443103641
111, 6084.52, 22711.05, 0.00, 0.00, 0.00, 0.00, 0.00, 0.00, 0.000, 0.000, 0.000, 11:58:23.641, 1553443103641
112, 6137.81, 22852.74, 0.00, 0.00, 0.00, 0.00, 0.00, 0.00, 0.000, 0.000, 0.000, 11:58:23.641, 1553443103641
113, 6109.69, 23015.90, 0.00, 0.00, 0.00, 0.00, 0.00, 0.00, 0.000, 0.000, 0.000, 11:58:23.641, 1553443103641
114, 6074.85, 23160.45, 0.00, 0.00, 0.00, 0.00, 0.00, 0.00, -0.290, 0.152, 0.952, 11:58:23.641, 1553443103641
115, 6096.04, 23298.56, 0.00, 0.00, 0.00, 0.00, 0.00, 0.00, 0.000, 0.000, 0.000, 11:58:23.641, 1553443103641
116, 6097.80, 23487.35, 0.00, 0.00, 0.00, 0.00, 0.00, 0.00, 0.000, 0.000, 0.000, 11:58:23.642, 1553443103642
117, 6075.47, 23663.08, 0.00, 0.00, 0.00, 0.00, 0.00, 0.00, 0.000, 0.000, 0.000, 11:58:23.642, 1553443103642
118, 6039.28, 23828.12, 0.00, 0.00, 0.00, 0.00, 0.00, 0.00, 0.000, 0.000, 0.000, 11:58:23.642, 1553443103642
119, 5897.19, 24050.25, 0.00, 0.00, 0.00, 0.00, 0.00, 0.00, 0.000, 0.000, 0.000, 11:58:23.642, 1553443103642
120, 5648.67, 24321.67, 0.00, 0.00, 0.00, 0.00, 0.00, 0.00, 0.000, 0.000, 0.000, 11:58:23.642, 1553443103642
121, 5420.57, 24593.76, 0.00, 0.00, 0.00, 0.00, 0.00, 0.00, 0.000, 0.000, 0.000, 11:58:23.642, 1553443103642
122, 5262.38, 24832.99, 0.00, 0.00, 0.00, 0.00, 0.00, 0.00, 0.000, 0.000, 0.000, 11:58:23.642, 1553443103642
123, 5300.92, 24986.52, 0.00, 0.00, 0.00, 0.00, 0.00, 0.00, -0.286, 0.152, 0.954, 11:58:23.643, 1553443103643
124, 5439.48, 25072.76, 0.00, 0.00, 0.00, 0.00, 0.00, 0.00, 0.000, 0.000, 0.000, 11:58:23.643, 1553443103643
125, 5672.22, 25105.68, 0.00, 0.00, 0.00, 0.00, 0.00, 0.00, 0.000, 0.000, 0.000, 11:58:23.643, 1553443103643
126, 6010.03, 25097.25, 0.00, 0.00, 0.00, 0.00, 0.00, 0.00, 0.000, 0.000, 0.000, 11:58:23.643, 1553443103643
127, 6112.46, 25214.69, 0.00, 0.00, 0.00, 0.00, 0.00, 0.00, 0.000, 0.000, 0.000, 11:58:23.643, 1553443103643
128, 6092.46, 25375.91, 0.00, 0.00, 0.00, 0.00, 0.00, 0.00, 0.000, 0.000, 0.000, 11:58:23.643, 1553443103643
129, 6071.43, 25559.69, 0.00, 0.00, 0.00, 0.00, 0.00, 0.00, 0.000, 0.000, 0.000, 11:58:23.643, 1553443103643
130, 6008.53, 25733.96, 0.00, 0.00, 0.00, 0.00, 0.00, 0.00, 0.000, 0.000, 0.000, 11:58:23.643, 1553443103643
131, 5996.50, 25895.14, 0.00, 0.00, 0.00, 0.00, 0.00, 0.00, 0.000, 0.000, 0.000, 11:58:23.643, 1553443103643
132, 6034.77, 26007.37, 0.00, 0.00, 0.00, 0.00, 0.00, 0.00, 0.000, 0.000, 0.000, 11:58:23.643, 1553443103643
133, 6017.34, 26187.28, 0.00, 0.00, 0.00, 0.00, 0.00, 0.00, -0.280, 0.156, 0.950, 11:58:23.643, 1553443103643
134, 6017.74, 26348.66, 0.00, 0.00, 0.00, 0.00, 0.00, 0.00, 0.000, 0.000, 0.000, 11:58:23.643, 1553443103643
135, 6032.20, 26510.13, 0.00, 0.00, 0.00, 0.00, 0.00, 0.00, 0.000, 0.000, 0.000, 11:58:23.643, 1553443103643
136, 6036.71, 26670.79, 0.00, 0.00, 0.00, 0.00, 0.00, 0.00, 0.000, 0.000, 0.000, 11:58:23.643, 1553443103643
137, 6033.09, 26826.23, 0.00, 0.00, 0.00, 0.00, 0.00, 0.00, 0.000, 0.000, 0.000, 11:58:23.643, 1553443103643
138, 6055.38, 26990.76, 0.00, 0.00, 0.00, 0.00, 0.00, 0.00, 0.000, 0.000, 0.000, 11:58:23.643, 1553443103643
139, 6073.48, 27150.60, 0.00, 0.00, 0.00, 0.00, 0.00, 0.00, 0.000, 0.000, 0.000, 11:58:23.646, 1553443103646
140, 6054.39, 27322.41, 0.00, 0.00, 0.00, 0.00, 0.00, 0.00, 0.000, 0.000, 0.000, 11:58:23.646, 1553443103646
141, 6027.21, 27498.37, 0.00, 0.00, 0.00, 0.00, 0.00, 0.00, 0.000, 0.000, 0.000, 11:58:23.646, 1553443103646
142, 6031.31, 27656.28, 0.00, 0.00, 0.00, 0.00, 0.00, 0.00, 0.000, 0.000, 0.000, 11:58:23.646, 1553443103646
143, 6047.80, 27820.99, 0.00, 0.00, 0.00, 0.00, 0.00, 0.00, -0.280, 0.152, 0.956, 11:58:23.646, 1553443103646
144, 6041.18, 27973.68, 0.00, 0.00, 0.00, 0.00, 0.00, 0.00, 0.000, 0.000, 0.000, 11:58:23.646, 1553443103646
145, 6036.11, 28104.84, 0.00, 0.00, 0.00, 0.00, 0.00, 0.00, 0.000, 0.000, 0.000, 11:58:23.646, 1553443103646
146, 6052.49, 28247.33, 0.00, 0.00, 0.00, 0.00, 0.00, 0.00, 0.000, 0.000, 0.000, 11:58:23.646, 1553443103646
147, 6050.91, 28397.35, 0.00, 0.00, 0.00, 0.00, 0.00, 0.00, 0.000, 0.000, 0.000, 11:58:23.646, 1553443103646
148, 6061.19, 28541.59, 0.00, 0.00, 0.00, 0.00, 0.00, 0.00, 0.000, 0.000, 0.000, 11:58:23.646, 1553443103646
149, 6081.80, 28678.16, 0.00, 0.00, 0.00, 0.00, 0.00, 0.00, 0.000, 0.000, 0.000, 11:58:23.647, 1553443103647
150, 6039.82, 28863.28, 0.00, 0.00, 0.00, 0.00, 0.00, 0.00, 0.000, 0.000, 0.000, 11:58:23.647, 1553443103647
151, 6010.23, 29021.84, 0.00, 0.00, 0.00, 0.00, 0.00, 0.00, 0.000, 0.000, 0.000, 11:58:23.647, 1553443103647
152, 5994.47, 29192.07, 0.00, 0.00, 0.00, 0.00, 0.00, 0.00, 0.000, 0.000, 0.000, 11:58:23.647, 1553443103647
153, 6000.17, 29351.48, 0.00, 0.00, 0.00, 0.00, 0.00, 0.00, -0.282, 0.156, 0.952, 11:58:23.647, 1553443103647
154, 5997.08, 29496.03, 0.00, 0.00, 0.00, 0.00, 0.00, 0.00, 0.000, 0.000, 0.000, 11:58:23.647, 1553443103647
155, 5980.63, 29658.06, 0.00, 0.00, 0.00, 0.00, 0.00, 0.00, 0.000, 0.000, 0.000, 11:58:23.647, 1553443103647
156, 5991.76, 29808.78, 0.00, 0.00, 0.00, 0.00, 0.00, 0.00, 0.000, 0.000, 0.000, 11:58:23.647, 1553443103647
157, 6013.49, 29947.49, 0.00, 0.00, 0.00, 0.00, 0.00, 0.00, 0.000, 0.000, 0.000, 11:58:23.648, 1553443103648
158, 5982.80, 30116.00, 0.00, 0.00, 0.00, 0.00, 0.00, 0.00, 0.000, 0.000, 0.000, 11:58:23.648, 1553443103648
159, 5978.94, 30271.44, 0.00, 0.00, 0.00, 0.00, 0.00, 0.00, 0.000, 0.000, 0.000, 11:58:23.648, 1553443103648
160, 5968.00, 30436.06, 0.00, 0.00, 0.00, 0.00, 0.00, 0.00, 0.000, 0.000, 0.000, 11:58:23.648, 1553443103648
161, 5976.16, 30583.02, 0.00, 0.00, 0.00, 0.00, 0.00, 0.00, 0.000, 0.000, 0.000, 11:58:23.648, 1553443103648
162, 5954.15, 30741.67, 0.00, 0.00, 0.00, 0.00, 0.00, 0.00, 0.000, 0.000, 0.000, 11:58:23.648, 1553443103648
163, 5963.51, 30903.21, 0.00, 0.00, 0.00, 0.00, 0.00, 0.00, -0.278, 0.158, 0.948, 11:58:23.649, 1553443103649
164, 5973.59, 31064.12, 0.00, 0.00, 0.00, 0.00, 0.00, 0.00, 0.000, 0.000, 0.000, 11:58:23.649, 1553443103649
165, 5969.95, 31208.15, 0.00, 0.00, 0.00, 0.00, 0.00, 0.00, 0.000, 0.000, 0.000, 11:58:23.649, 1553443103649
166, 5955.71, 31373.91, 0.00, 0.00, 0.00, 0.00, 0.00, 0.00, 0.000, 0.000, 0.000, 11:58:23.649, 1553443103649
167, 5955.76, 31542.76, 0.00, 0.00, 0.00, 0.00, 0.00, 0.00, 0.000, 0.000, 0.000, 11:58:23.649, 1553443103649
168, 5934.57, 31706.64, 0.00, 0.00, 0.00, 0.00, 0.00, 0.00, 0.000, 0.000, 0.000, 11:58:23.649, 1553443103649
169, 5909.35, 31881.83, 0.00, 0.00, 0.00, 0.00, 0.00, 0.00, 0.000, 0.000, 0.000, 11:58:23.650, 1553443103650
170, 5912.08, 32031.86, 0.00, 0.00, 0.00, 0.00, 0.00, 0.00, 0.000, 0.000, 0.000, 11:58:23.650, 1553443103650
171, 5894.24, 32199.74, 0.00, 0.00, 0.00, 0.00, 0.00, 0.00, 0.000, 0.000, 0.000, 11:58:23.650, 1553443103650
172, 5879.87, 32355.80, 0.00, 0.00, 0.00, 0.00, 0.00, 0.00, 0.000, 0.000, 0.000, 11:58:23.650, 1553443103650
173, 5891.79, 32482.00, 0.00, 0.00, 0.00, 0.00, 0.00, 0.00, -0.282, 0.160, 0.956, 11:58:23.650, 1553443103650
174, 5907.07, 32623.38, 0.00, 0.00, 0.00, 0.00, 0.00, 0.00, 0.000, 0.000, 0.000, 11:58:23.650, 1553443103650
175, 5894.36, 32772.98, 0.00, 0.00, 0.00, 0.00, 0.00, 0.00, 0.000, 0.000, 0.000, 11:58:23.650, 1553443103650
176, 5880.12, 32918.24, 0.00, 0.00, 0.00, 0.00, 0.00, 0.00, 0.000, 0.000, 0.000, 11:58:23.650, 1553443103650
177, 5895.12, 33066.68, 0.00, 0.00, 0.00, 0.00, 0.00, 0.00, 0.000, 0.000, 0.000, 11:58:23.650, 1553443103650
178, 5877.61, 33235.10, 0.00, 0.00, 0.00, 0.00, 0.00, 0.00, 0.000, 0.000, 0.000, 11:58:23.651, 1553443103651
179, 5853.23, 33405.24, 0.00, 0.00, 0.00, 0.00, 0.00, 0.00, 0.000, 0.000, 0.000, 11:58:23.651, 1553443103651
180, 5886.06, 33542.26, 0.00, 0.00, 0.00, 0.00, 0.00, 0.00, 0.000, 0.000, 0.000, 11:58:23.651, 1553443103651
181, 5906.81, 33681.26, 0.00, 0.00, 0.00, 0.00, 0.00, 0.00, 0.000, 0.000, 0.000, 11:58:23.651, 1553443103651
182, 5909.11, 33824.36, 0.00, 0.00, 0.00, 0.00, 0.00, 0.00, 0.000, 0.000, 0.000, 11:58:23.651, 1553443103651
183, 5902.16, 33995.73, 0.00, 0.00, 0.00, 0.00, 0.00, 0.00, -0.286, 0.156, 0.952, 11:58:23.651, 1553443103651
184, 5905.08, 34142.58, 0.00, 0.00, 0.00, 0.00, 0.00, 0.00, 0.000, 0.000, 0.000, 11:58:23.651, 1553443103651
185, 5912.06, 34284.20, 0.00, 0.00, 0.00, 0.00, 0.00, 0.00, 0.000, 0.000, 0.000, 11:58:23.651, 1553443103651
186, 5959.96, 34413.62, 0.00, 0.00, 0.00, 0.00, 0.00, 0.00, 0.000, 0.000, 0.000, 11:58:23.652, 1553443103652
