%OpenBCI Raw EEG Data
%Number of channels = 8
%Sample Rate = 250.0 Hz
%First Column = SampleIndex
%Last Column = Timestamp 
%Other Columns = EEG data in microvolts followed by Accel Data (in G) interleaved with Aux Data
2, -20845.57, 0.00, 0.00, 0.00, 0.00, 0.00, -16016.54, 0.00, 0.000, 0.000, 0.000, 15:08:00.958, 1551730080958
3, -20774.96, 0.00, 0.00, 0.00, 0.00, 0.00, -16018.87, 0.00, 0.000, 0.000, 0.000, 15:08:00.965, 1551730080965
4, -20688.93, 0.00, 0.00, 0.00, 0.00, 0.00, -15985.97, 0.00, 0.000, 0.000, 0.000, 15:08:00.972, 1551730080972
5, -20685.78, 0.00, 0.00, 0.00, 0.00, 0.00, -15953.49, 0.00, 0.000, 0.000, 0.000, 15:08:00.972, 1551730080972
6, -20855.38, 0.00, 0.00, 0.00, 0.00, 0.00, -16021.60, 0.00, 0.000, 0.000, 0.000, 15:08:00.980, 1551730080980
7, -20816.25, 0.00, 0.00, 0.00, 0.00, 0.00, -16046.25, 0.00, 0.000, 0.000, 0.000, 15:08:00.980, 1551730080980
8, -20722.10, 0.00, 0.00, 0.00, 0.00, 0.00, -16012.25, 0.00, 0.000, 0.000, 0.000, 15:08:00.989, 1551730080989
9, -20679.77, 0.00, 0.00, 0.00, 0.00, 0.00, -15966.79, 0.00, 0.000, 0.000, 0.000, 15:08:00.989, 1551730080989
10, -20844.39, 0.00, 0.00, 0.00, 0.00, 0.00, -16018.87, 0.00, 0.000, 0.000, 0.000, 15:08:00.995, 1551730080995
11, -20854.00, 0.00, 0.00, 0.00, 0.00, 0.00, -16066.79, 0.00, -0.710, 0.606, -0.350, 15:08:00.995, 1551730080995
12, -20764.50, 0.00, 0.00, 0.00, 0.00, 0.00, -16035.23, 0.00, 0.000, 0.000, 0.000, 15:08:01.003, 1551730081003
13, -20691.57, 0.00, 0.00, 0.00, 0.00, 0.00, -15980.49, 0.00, 0.000, 0.000, 0.000, 15:08:01.003, 1551730081003
14, -20830.86, 0.00, 0.00, 0.00, 0.00, 0.00, -16013.35, 0.00, 0.000, 0.000, 0.000, 15:08:01.011, 1551730081011
15, -20877.18, 0.00, 0.00, 0.00, 0.00, 0.00, -16066.63, 0.00, 0.000, 0.000, 0.000, 15:08:01.011, 1551730081011
16, -20789.18, 0.00, 0.00, 0.00, 0.00, 0.00, -16040.93, 0.00, 0.000, 0.000, 0.000, 15:08:01.018, 1551730081018
17, -20700.91, 0.00, 0.00, 0.00, 0.00, 0.00, -15985.99, 0.00, 0.000, 0.000, 0.000, 15:08:01.018, 1551730081018
18, -20810.79, 0.00, 0.00, 0.00, 0.00, 0.00, -15999.07, 0.00, 0.000, 0.000, 0.000, 15:08:01.028, 1551730081028
19, -20903.33, 0.00, 0.00, 0.00, 0.00, 0.00, -16069.72, 0.00, 0.000, 0.000, 0.000, 15:08:01.033, 1551730081033
20, -20820.36, 0.00, 0.00, 0.00, 0.00, 0.00, -16062.32, 0.00, 0.000, 0.000, 0.000, 15:08:01.033, 1551730081033
21, -20724.18, 0.00, 0.00, 0.00, 0.00, 0.00, -16010.06, 0.00, -0.710, 0.606, -0.356, 15:08:01.041, 1551730081041
22, -20784.91, 0.00, 0.00, 0.00, 0.00, 0.00, -15995.53, 0.00, 0.000, 0.000, 0.000, 15:08:01.041, 1551730081041
23, -20911.98, 0.00, 0.00, 0.00, 0.00, 0.00, -16061.23, 0.00, 0.000, 0.000, 0.000, 15:08:01.047, 1551730081047
24, -20837.21, 0.00, 0.00, 0.00, 0.00, 0.00, -16058.66, 0.00, 0.000, 0.000, 0.000, 15:08:01.047, 1551730081047
25, -20743.92, 0.00, 0.00, 0.00, 0.00, 0.00, -16014.13, 0.00, 0.000, 0.000, 0.000, 15:08:01.055, 1551730081055
26, -20761.93, 0.00, 0.00, 0.00, 0.00, 0.00, -15982.52, 0.00, 0.000, 0.000, 0.000, 15:08:01.055, 1551730081055
27, -20917.01, 0.00, 0.00, 0.00, 0.00, 0.00, -16050.38, 0.00, 0.000, 0.000, 0.000, 15:08:01.064, 1551730081064
28, -20862.80, 0.00, 0.00, 0.00, 0.00, 0.00, -16067.68, 0.00, 0.000, 0.000, 0.000, 15:08:01.064, 1551730081064
29, -20763.03, 0.00, 0.00, 0.00, 0.00, 0.00, -16024.28, 0.00, 0.000, 0.000, 0.000, 15:08:01.071, 1551730081071
30, -20738.15, 0.00, 0.00, 0.00, 0.00, 0.00, -15980.42, 0.00, 0.000, 0.000, 0.000, 15:08:01.071, 1551730081071
31, -20895.19, 0.00, 0.00, 0.00, 0.00, 0.00, -16039.10, 0.00, -0.710, 0.600, -0.360, 15:08:01.078, 1551730081078
32, -20870.25, 0.00, 0.00, 0.00, 0.00, 0.00, -16067.53, 0.00, 0.000, 0.000, 0.000, 15:08:01.079, 1551730081079
33, -20777.33, 0.00, 0.00, 0.00, 0.00, 0.00, -16032.28, 0.00, 0.000, 0.000, 0.000, 15:08:01.085, 1551730081085
34, -20719.93, 0.00, 0.00, 0.00, 0.00, 0.00, -15978.48, 0.00, 0.000, 0.000, 0.000, 15:08:01.093, 1551730081093
35, -20881.89, 0.00, 0.00, 0.00, 0.00, 0.00, -16020.50, 0.00, 0.000, 0.000, 0.000, 15:08:01.093, 1551730081093
36, -20889.40, 0.00, 0.00, 0.00, 0.00, 0.00, -16060.60, 0.00, 0.000, 0.000, 0.000, 15:08:01.100, 1551730081100
37, -20792.58, 0.00, 0.00, 0.00, 0.00, 0.00, -16030.38, 0.00, 0.000, 0.000, 0.000, 15:08:01.100, 1551730081100
38, -20714.63, 0.00, 0.00, 0.00, 0.00, 0.00, -15974.50, 0.00, 0.000, 0.000, 0.000, 15:08:01.108, 1551730081108
39, -20846.09, 0.00, 0.00, 0.00, 0.00, 0.00, -16003.31, 0.00, 0.000, 0.000, 0.000, 15:08:01.108, 1551730081108
40, -20896.22, 0.00, 0.00, 0.00, 0.00, 0.00, -16061.18, 0.00, -0.706, 0.598, -0.352, 15:08:01.122, 1551730081122
41, -20804.49, 0.00, 0.00, 0.00, 0.00, 0.00, -16041.42, 0.00, 0.000, 0.000, 0.000, 15:08:01.123, 1551730081123
42, -20712.49, 0.00, 0.00, 0.00, 0.00, 0.00, -15989.01, 0.00, 0.000, 0.000, 0.000, 15:08:01.124, 1551730081124
43, -20804.29, 0.00, 0.00, 0.00, 0.00, 0.00, -15994.71, 0.00, 0.000, 0.000, 0.000, 15:08:01.124, 1551730081124
44, -20900.62, 0.00, 0.00, 0.00, 0.00, 0.00, -16059.53, 0.00, 0.000, 0.000, 0.000, 15:08:01.130, 1551730081130
45, -20816.09, 0.00, 0.00, 0.00, 0.00, 0.00, -16049.65, 0.00, 0.000, 0.000, 0.000, 15:08:01.130, 1551730081130
46, -20713.67, 0.00, 0.00, 0.00, 0.00, 0.00, -15995.15, 0.00, 0.000, 0.000, 0.000, 15:08:01.138, 1551730081138
47, -20760.57, 0.00, 0.00, 0.00, 0.00, 0.00, -15976.40, 0.00, 0.000, 0.000, 0.000, 15:08:01.138, 1551730081138
48, -20894.72, 0.00, 0.00, 0.00, 0.00, 0.00, -16051.14, 0.00, 0.000, 0.000, 0.000, 15:08:01.146, 1551730081146
49, -20822.19, 0.00, 0.00, 0.00, 0.00, 0.00, -16053.94, 0.00, 0.000, 0.000, 0.000, 15:08:01.154, 1551730081154
50, -20724.00, 0.00, 0.00, 0.00, 0.00, 0.00, -16002.60, 0.00, -0.702, 0.596, -0.352, 15:08:01.154, 1551730081154
51, -20725.79, 0.00, 0.00, 0.00, 0.00, 0.00, -15967.79, 0.00, 0.000, 0.000, 0.000, 15:08:01.161, 1551730081161
52, -20878.43, 0.00, 0.00, 0.00, 0.00, 0.00, -16030.92, 0.00, 0.000, 0.000, 0.000, 15:08:01.161, 1551730081161
53, -20833.30, 0.00, 0.00, 0.00, 0.00, 0.00, -16050.81, 0.00, 0.000, 0.000, 0.000, 15:08:01.168, 1551730081168
54, -20738.22, 0.00, 0.00, 0.00, 0.00, 0.00, -16010.13, 0.00, 0.000, 0.000, 0.000, 15:08:01.168, 1551730081168
55, -20702.61, 0.00, 0.00, 0.00, 0.00, 0.00, -15962.92, 0.00, 0.000, 0.000, 0.000, 15:08:01.176, 1551730081176
56, -20862.65, 0.00, 0.00, 0.00, 0.00, 0.00, -16020.95, 0.00, 0.000, 0.000, 0.000, 15:08:01.176, 1551730081176
57, -20845.64, 0.00, 0.00, 0.00, 0.00, 0.00, -16051.99, 0.00, 0.000, 0.000, 0.000, 15:08:01.183, 1551730081183
58, -20754.31, 0.00, 0.00, 0.00, 0.00, 0.00, -16018.76, 0.00, 0.000, 0.000, 0.000, 15:08:01.183, 1551730081183
59, -20689.65, 0.00, 0.00, 0.00, 0.00, 0.00, -15960.69, 0.00, 0.000, 0.000, 0.000, 15:08:01.191, 1551730081191
60, -20843.80, 0.00, 0.00, 0.00, 0.00, 0.00, -16001.41, 0.00, -0.704, 0.598, -0.350, 15:08:01.191, 1551730081191
61, -20865.62, 0.00, 0.00, 0.00, 0.00, 0.00, -16042.61, 0.00, 0.000, 0.000, 0.000, 15:08:01.198, 1551730081198
62, -20770.54, 0.00, 0.00, 0.00, 0.00, 0.00, -16015.40, 0.00, 0.000, 0.000, 0.000, 15:08:01.199, 1551730081199
63, -20682.67, 0.00, 0.00, 0.00, 0.00, 0.00, -15961.92, 0.00, 0.000, 0.000, 0.000, 15:08:01.206, 1551730081206
64, -20805.67, 0.00, 0.00, 0.00, 0.00, 0.00, -15983.51, 0.00, 0.000, 0.000, 0.000, 15:08:01.206, 1551730081206
65, -20873.69, 0.00, 0.00, 0.00, 0.00, 0.00, -16039.92, 0.00, 0.000, 0.000, 0.000, 15:08:01.212, 1551730081212
66, -20783.75, 0.00, 0.00, 0.00, 0.00, 0.00, -16021.26, 0.00, 0.000, 0.000, 0.000, 15:08:01.221, 1551730081221
67, -20687.37, 0.00, 0.00, 0.00, 0.00, 0.00, -15964.60, 0.00, 0.000, 0.000, 0.000, 15:08:01.221, 1551730081221
68, -20766.85, 0.00, 0.00, 0.00, 0.00, 0.00, -15960.75, 0.00, 0.000, 0.000, 0.000, 15:08:01.235, 1551730081235
69, -20874.94, 0.00, 0.00, 0.00, 0.00, 0.00, -16026.22, 0.00, 0.000, 0.000, 0.000, 15:08:01.235, 1551730081235
70, -20793.83, 0.00, 0.00, 0.00, 0.00, 0.00, -16017.30, 0.00, -0.704, 0.602, -0.352, 15:08:01.236, 1551730081236
71, -20698.74, 0.00, 0.00, 0.00, 0.00, 0.00, -15968.62, 0.00, 0.000, 0.000, 0.000, 15:08:01.236, 1551730081236
72, -20736.65, 0.00, 0.00, 0.00, 0.00, 0.00, -15947.23, 0.00, 0.000, 0.000, 0.000, 15:08:01.243, 1551730081243
73, -20874.34, 0.00, 0.00, 0.00, 0.00, 0.00, -16014.17, 0.00, 0.000, 0.000, 0.000, 15:08:01.244, 1551730081244
74, -20808.89, 0.00, 0.00, 0.00, 0.00, 0.00, -16022.18, 0.00, 0.000, 0.000, 0.000, 15:08:01.251, 1551730081251
75, -20713.00, 0.00, 0.00, 0.00, 0.00, 0.00, -15978.97, 0.00, 0.000, 0.000, 0.000, 15:08:01.251, 1551730081251
76, -20706.46, 0.00, 0.00, 0.00, 0.00, 0.00, -15939.39, 0.00, 0.000, 0.000, 0.000, 15:08:01.259, 1551730081259
77, -20865.73, 0.00, 0.00, 0.00, 0.00, 0.00, -16003.74, 0.00, 0.000, 0.000, 0.000, 15:08:01.259, 1551730081259
78, -20828.83, 0.00, 0.00, 0.00, 0.00, 0.00, -16026.11, 0.00, 0.000, 0.000, 0.000, 15:08:01.265, 1551730081265
79, -20739.49, 0.00, 0.00, 0.00, 0.00, 0.00, -15991.98, 0.00, 0.000, 0.000, 0.000, 15:08:01.265, 1551730081265
80, -20695.17, 0.00, 0.00, 0.00, 0.00, 0.00, -15942.29, 0.00, -0.704, 0.602, -0.354, 15:08:01.273, 1551730081273
81, -20852.88, 0.00, 0.00, 0.00, 0.00, 0.00, -15994.59, 0.00, 0.000, 0.000, 0.000, 15:08:01.282, 1551730081282
82, -20843.22, 0.00, 0.00, 0.00, 0.00, 0.00, -16029.15, 0.00, 0.000, 0.000, 0.000, 15:08:01.282, 1551730081282
83, -20755.09, 0.00, 0.00, 0.00, 0.00, 0.00, -16001.30, 0.00, 0.000, 0.000, 0.000, 15:08:01.287, 1551730081287
84, -20684.48, 0.00, 0.00, 0.00, 0.00, 0.00, -15949.74, 0.00, 0.000, 0.000, 0.000, 15:08:01.288, 1551730081288
85, -20826.57, 0.00, 0.00, 0.00, 0.00, 0.00, -15986.57, 0.00, 0.000, 0.000, 0.000, 15:08:01.295, 1551730081295
86, -20862.04, 0.00, 0.00, 0.00, 0.00, 0.00, -16045.00, 0.00, 0.000, 0.000, 0.000, 15:08:01.295, 1551730081295
87, -20768.99, 0.00, 0.00, 0.00, 0.00, 0.00, -16016.52, 0.00, 0.000, 0.000, 0.000, 15:08:01.304, 1551730081304
88, -20680.06, 0.00, 0.00, 0.00, 0.00, 0.00, -15953.65, 0.00, 0.000, 0.000, 0.000, 15:08:01.305, 1551730081305
89, -20795.21, 0.00, 0.00, 0.00, 0.00, 0.00, -15966.66, 0.00, 0.000, 0.000, 0.000, 15:08:01.312, 1551730081312
90, -20871.46, 0.00, 0.00, 0.00, 0.00, 0.00, -16028.23, 0.00, -0.710, 0.600, -0.352, 15:08:01.312, 1551730081312
91, -20788.84, 0.00, 0.00, 0.00, 0.00, 0.00, -16018.65, 0.00, 0.000, 0.000, 0.000, 15:08:01.318, 1551730081318
92, -20692.93, 0.00, 0.00, 0.00, 0.00, 0.00, -15963.06, 0.00, 0.000, 0.000, 0.000, 15:08:01.318, 1551730081318
93, -20761.57, 0.00, 0.00, 0.00, 0.00, 0.00, -15954.09, 0.00, 0.000, 0.000, 0.000, 15:08:01.326, 1551730081326
94, -20883.21, 0.00, 0.00, 0.00, 0.00, 0.00, -16030.67, 0.00, 0.000, 0.000, 0.000, 15:08:01.326, 1551730081326
95, -20806.57, 0.00, 0.00, 0.00, 0.00, 0.00, -16025.31, 0.00, 0.000, 0.000, 0.000, 15:08:01.333, 1551730081333
96, -20714.81, 0.00, 0.00, 0.00, 0.00, 0.00, -15976.78, 0.00, 0.000, 0.000, 0.000, 15:08:01.341, 1551730081341
97, -20748.10, 0.00, 0.00, 0.00, 0.00, 0.00, -15960.62, 0.00, 0.000, 0.000, 0.000, 15:08:01.341, 1551730081341
98, -20887.03, 0.00, 0.00, 0.00, 0.00, 0.00, -16021.86, 0.00, 0.000, 0.000, 0.000, 15:08:01.348, 1551730081348
99, -20820.81, 0.00, 0.00, 0.00, 0.00, 0.00, -16023.79, 0.00, -0.708, 0.602, -0.354, 15:08:01.348, 1551730081348
100, -20727.49, 0.00, 0.00, 0.00, 0.00, 0.00, -15988.40, 0.00, 0.000, 0.000, 0.000, 15:08:01.355, 1551730081355
101, -20708.33, 0.00, 0.00, 0.00, 0.00, 0.00, -15938.22, 0.00, 0.000, 0.000, 0.000, 15:08:01.356, 1551730081356
102, -20865.51, 0.00, 0.00, 0.00, 0.00, 0.00, -15992.87, 0.00, 0.000, 0.000, 0.000, 15:08:01.363, 1551730081363
103, -20832.76, 0.00, 0.00, 0.00, 0.00, 0.00, -16019.92, 0.00, 0.000, 0.000, 0.000, 15:08:01.363, 1551730081363
104, -20743.89, 0.00, 0.00, 0.00, 0.00, 0.00, -15986.64, 0.00, 0.000, 0.000, 0.000, 15:08:01.371, 1551730081371
105, -20699.44, 0.00, 0.00, 0.00, 0.00, 0.00, -15937.58, 0.00, 0.000, 0.000, 0.000, 15:08:01.371, 1551730081371
106, -20854.27, 0.00, 0.00, 0.00, 0.00, 0.00, -15989.57, 0.00, 0.000, 0.000, 0.000, 15:08:01.379, 1551730081379
107, -20853.71, 0.00, 0.00, 0.00, 0.00, 0.00, -16029.20, 0.00, 0.000, 0.000, 0.000, 15:08:01.379, 1551730081379
108, -20759.92, 0.00, 0.00, 0.00, 0.00, 0.00, -15994.86, 0.00, 0.000, 0.000, 0.000, 15:08:01.385, 1551730081385
109, -20689.76, 0.00, 0.00, 0.00, 0.00, 0.00, -15944.21, 0.00, -0.710, 0.608, -0.352, 15:08:01.385, 1551730081385
110, -20832.70, 0.00, 0.00, 0.00, 0.00, 0.00, -15976.04, 0.00, 0.000, 0.000, 0.000, 15:08:01.392, 1551730081392
111, -20873.71, 0.00, 0.00, 0.00, 0.00, 0.00, -16026.58, 0.00, 0.000, 0.000, 0.000, 15:08:01.400, 1551730081400
112, -20777.80, 0.00, 0.00, 0.00, 0.00, 0.00, -16000.70, 0.00, 0.000, 0.000, 0.000, 15:08:01.401, 1551730081401
113, -20691.37, 0.00, 0.00, 0.00, 0.00, 0.00, -15947.54, 0.00, 0.000, 0.000, 0.000, 15:08:01.408, 1551730081408
114, -20795.71, 0.00, 0.00, 0.00, 0.00, 0.00, -15962.52, 0.00, 0.000, 0.000, 0.000, 15:08:01.408, 1551730081408
115, -20880.26, 0.00, 0.00, 0.00, 0.00, 0.00, -16024.61, 0.00, 0.000, 0.000, 0.000, 15:08:01.416, 1551730081416
116, -20790.97, 0.00, 0.00, 0.00, 0.00, 0.00, -16005.79, 0.00, 0.000, 0.000, 0.000, 15:08:01.417, 1551730081417
117, -20696.75, 0.00, 0.00, 0.00, 0.00, 0.00, -15957.45, 0.00, 0.000, 0.000, 0.000, 15:08:01.423, 1551730081423
118, -20761.84, 0.00, 0.00, 0.00, 0.00, 0.00, -15950.07, 0.00, 0.000, 0.000, 0.000, 15:08:01.424, 1551730081424
119, -20883.84, 0.00, 0.00, 0.00, 0.00, 0.00, -16023.41, 0.00, -0.708, 0.604, -0.350, 15:08:01.431, 1551730081431
120, -20810.70, 0.00, 0.00, 0.00, 0.00, 0.00, -16027.07, 0.00, 0.000, 0.000, 0.000, 15:08:01.431, 1551730081431
121, -20723.13, 0.00, 0.00, 0.00, 0.00, 0.00, -15982.55, 0.00, 0.000, 0.000, 0.000, 15:08:01.438, 1551730081438
122, -20744.18, 0.00, 0.00, 0.00, 0.00, 0.00, -15959.21, 0.00, 0.000, 0.000, 0.000, 15:08:01.438, 1551730081438
123, -20897.45, 0.00, 0.00, 0.00, 0.00, 0.00, -16025.24, 0.00, 0.000, 0.000, 0.000, 15:08:01.445, 1551730081445
124, -20839.92, 0.00, 0.00, 0.00, 0.00, 0.00, -16031.74, 0.00, 0.000, 0.000, 0.000, 15:08:01.446, 1551730081446
125, -20729.97, 0.00, 0.00, 0.00, 0.00, 0.00, -15985.05, 0.00, 0.000, 0.000, 0.000, 15:08:01.454, 1551730081454
126, -20697.56, 0.00, 0.00, 0.00, 0.00, 0.00, -15928.08, 0.00, 0.000, 0.000, 0.000, 15:08:01.454, 1551730081454
127, -20861.11, 0.00, 0.00, 0.00, 0.00, 0.00, -15991.04, 0.00, 0.000, 0.000, 0.000, 15:08:01.461, 1551730081461
128, -20840.74, 0.00, 0.00, 0.00, 0.00, 0.00, -16020.97, 0.00, 0.000, 0.000, 0.000, 15:08:01.468, 1551730081468
129, -20750.93, 0.00, 0.00, 0.00, 0.00, 0.00, -15980.02, 0.00, -0.708, 0.604, -0.348, 15:08:01.468, 1551730081468
130, -20696.51, 0.00, 0.00, 0.00, 0.00, 0.00, -15932.88, 0.00, 0.000, 0.000, 0.000, 15:08:01.475, 1551730081475
131, -20854.49, 0.00, 0.00, 0.00, 0.00, 0.00, -15980.42, 0.00, 0.000, 0.000, 0.000, 15:08:01.476, 1551730081476
132, -20867.79, 0.00, 0.00, 0.00, 0.00, 0.00, -16028.59, 0.00, 0.000, 0.000, 0.000, 15:08:01.484, 1551730081484
133, -20777.82, 0.00, 0.00, 0.00, 0.00, 0.00, -16003.20, 0.00, 0.000, 0.000, 0.000, 15:08:01.484, 1551730081484
134, -20697.31, 0.00, 0.00, 0.00, 0.00, 0.00, -15948.26, 0.00, 0.000, 0.000, 0.000, 15:08:01.491, 1551730081491
135, -20831.36, 0.00, 0.00, 0.00, 0.00, 0.00, -15977.79, 0.00, 0.000, 0.000, 0.000, 15:08:01.491, 1551730081491
136, -20885.74, 0.00, 0.00, 0.00, 0.00, 0.00, -16035.14, 0.00, 0.000, 0.000, 0.000, 15:08:01.498, 1551730081498
137, -20794.97, 0.00, 0.00, 0.00, 0.00, 0.00, -16014.26, 0.00, 0.000, 0.000, 0.000, 15:08:01.498, 1551730081498
138, -20704.04, 0.00, 0.00, 0.00, 0.00, 0.00, -15958.36, 0.00, 0.000, 0.000, 0.000, 15:08:01.506, 1551730081506
139, -20791.30, 0.00, 0.00, 0.00, 0.00, 0.00, -15958.50, 0.00, -0.706, 0.600, -0.356, 15:08:01.506, 1551730081506
140, -20889.43, 0.00, 0.00, 0.00, 0.00, 0.00, -16025.82, 0.00, 0.000, 0.000, 0.000, 15:08:01.514, 1551730081514
141, -20810.84, 0.00, 0.00, 0.00, 0.00, 0.00, -16018.31, 0.00, 0.000, 0.000, 0.000, 15:08:01.514, 1551730081514
142, -20710.01, 0.00, 0.00, 0.00, 0.00, 0.00, -15965.60, 0.00, 0.000, 0.000, 0.000, 15:08:01.520, 1551730081520
143, -20747.87, 0.00, 0.00, 0.00, 0.00, 0.00, -15948.33, 0.00, 0.000, 0.000, 0.000, 15:08:01.528, 1551730081528
144, -20890.57, 0.00, 0.00, 0.00, 0.00, 0.00, -16024.17, 0.00, 0.000, 0.000, 0.000, 15:08:01.528, 1551730081528
145, -20817.25, 0.00, 0.00, 0.00, 0.00, 0.00, -16020.72, 0.00, 0.000, 0.000, 0.000, 15:08:01.536, 1551730081536
146, -20717.07, 0.00, 0.00, 0.00, 0.00, 0.00, -15974.17, 0.00, 0.000, 0.000, 0.000, 15:08:01.536, 1551730081536
147, -20726.24, 0.00, 0.00, 0.00, 0.00, 0.00, -15944.95, 0.00, 0.000, 0.000, 0.000, 15:08:01.543, 1551730081543
148, -20882.29, 0.00, 0.00, 0.00, 0.00, 0.00, -16012.36, 0.00, 0.000, 0.000, 0.000, 15:08:01.544, 1551730081544
149, -20840.12, 0.00, 0.00, 0.00, 0.00, 0.00, -16031.68, 0.00, -0.704, 0.604, -0.356, 15:08:01.551, 1551730081551
150, -20741.01, 0.00, 0.00, 0.00, 0.00, 0.00, -15989.30, 0.00, 0.000, 0.000, 0.000, 15:08:01.552, 1551730081552
151, -20704.04, 0.00, 0.00, 0.00, 0.00, 0.00, -15947.03, 0.00, 0.000, 0.000, 0.000, 15:08:01.565, 1551730081565
152, -20871.79, 0.00, 0.00, 0.00, 0.00, 0.00, -16000.38, 0.00, 0.000, 0.000, 0.000, 15:08:01.566, 1551730081566
153, -20850.09, 0.00, 0.00, 0.00, 0.00, 0.00, -16032.10, 0.00, 0.000, 0.000, 0.000, 15:08:01.567, 1551730081567
154, -20758.15, 0.00, 0.00, 0.00, 0.00, 0.00, -16003.45, 0.00, 0.000, 0.000, 0.000, 15:08:01.567, 1551730081567
155, -20685.82, 0.00, 0.00, 0.00, 0.00, 0.00, -15943.90, 0.00, 0.000, 0.000, 0.000, 15:08:01.573, 1551730081573
156, -20836.12, 0.00, 0.00, 0.00, 0.00, 0.00, -15984.87, 0.00, 0.000, 0.000, 0.000, 15:08:01.573, 1551730081573
157, -20864.50, 0.00, 0.00, 0.00, 0.00, 0.00, -16038.34, 0.00, 0.000, 0.000, 0.000, 15:08:01.580, 1551730081580
158, -20771.52, 0.00, 0.00, 0.00, 0.00, 0.00, -16017.33, 0.00, 0.000, 0.000, 0.000, 15:08:01.588, 1551730081588
159, -20690.03, 0.00, 0.00, 0.00, 0.00, 0.00, -15960.78, 0.00, -0.702, 0.602, -0.352, 15:08:01.589, 1551730081589
160, -20812.40, 0.00, 0.00, 0.00, 0.00, 0.00, -15983.87, 0.00, 0.000, 0.000, 0.000, 15:08:01.596, 1551730081596
161, -20878.34, 0.00, 0.00, 0.00, 0.00, 0.00, -16041.65, 0.00, 0.000, 0.000, 0.000, 15:08:01.597, 1551730081597
162, -20787.43, 0.00, 0.00, 0.00, 0.00, 0.00, -16019.76, 0.00, 0.000, 0.000, 0.000, 15:08:01.602, 1551730081602
163, -20694.96, 0.00, 0.00, 0.00, 0.00, 0.00, -15963.97, 0.00, 0.000, 0.000, 0.000, 15:08:01.602, 1551730081602
164, -20779.37, 0.00, 0.00, 0.00, 0.00, 0.00, -15961.29, 0.00, 0.000, 0.000, 0.000, 15:08:01.611, 1551730081611
165, -20889.83, 0.00, 0.00, 0.00, 0.00, 0.00, -16033.55, 0.00, 0.000, 0.000, 0.000, 15:08:01.611, 1551730081611
166, -20811.80, 0.00, 0.00, 0.00, 0.00, 0.00, -16028.26, 0.00, 0.000, 0.000, 0.000, 15:08:01.620, 1551730081620
167, -20712.29, 0.00, 0.00, 0.00, 0.00, 0.00, -15975.55, 0.00, 0.000, 0.000, 0.000, 15:08:01.621, 1551730081621
168, -20752.74, 0.00, 0.00, 0.00, 0.00, 0.00, -15956.19, 0.00, -0.700, 0.600, -0.350, 15:08:01.626, 1551730081626
169, -20897.74, 0.00, 0.00, 0.00, 0.00, 0.00, -16031.54, 0.00, 0.000, 0.000, 0.000, 15:08:01.626, 1551730081626
170, -20831.76, 0.00, 0.00, 0.00, 0.00, 0.00, -16038.58, 0.00, 0.000, 0.000, 0.000, 15:08:01.633, 1551730081633
171, -20736.25, 0.00, 0.00, 0.00, 0.00, 0.00, -15997.17, 0.00, 0.000, 0.000, 0.000, 15:08:01.633, 1551730081633
172, -20723.02, 0.00, 0.00, 0.00, 0.00, 0.00, -15961.31, 0.00, 0.000, 0.000, 0.000, 15:08:01.640, 1551730081640
173, -20884.82, 0.00, 0.00, 0.00, 0.00, 0.00, -16024.03, 0.00, 0.000, 0.000, 0.000, 15:08:01.648, 1551730081648
174, -20842.69, 0.00, 0.00, 0.00, 0.00, 0.00, -16040.19, 0.00, 0.000, 0.000, 0.000, 15:08:01.648, 1551730081648
175, -20755.87, 0.00, 0.00, 0.00, 0.00, 0.00, -16007.96, 0.00, 0.000, 0.000, 0.000, 15:08:01.656, 1551730081656
176, -20716.74, 0.00, 0.00, 0.00, 0.00, 0.00, -15961.40, 0.00, 0.000, 0.000, 0.000, 15:08:01.656, 1551730081656
177, -20878.43, 0.00, 0.00, 0.00, 0.00, 0.00, -16016.41, 0.00, 0.000, 0.000, 0.000, 15:08:01.663, 1551730081663
178, -20868.39, 0.00, 0.00, 0.00, 0.00, 0.00, -16049.92, 0.00, -0.698, 0.600, -0.350, 15:08:01.663, 1551730081663
179, -20774.34, 0.00, 0.00, 0.00, 0.00, 0.00, -16020.66, 0.00, 0.000, 0.000, 0.000, 15:08:01.671, 1551730081671
180, -20707.68, 0.00, 0.00, 0.00, 0.00, 0.00, -15970.25, 0.00, 0.000, 0.000, 0.000, 15:08:01.671, 1551730081671
181, -20849.21, 0.00, 0.00, 0.00, 0.00, 0.00, -16008.68, 0.00, 0.000, 0.000, 0.000, 15:08:01.679, 1551730081679
182, -20885.60, 0.00, 0.00, 0.00, 0.00, 0.00, -16059.77, 0.00, 0.000, 0.000, 0.000, 15:08:01.679, 1551730081679
183, -20801.14, 0.00, 0.00, 0.00, 0.00, 0.00, -16031.56, 0.00, 0.000, 0.000, 0.000, 15:08:01.686, 1551730081686
184, -20698.18, 0.00, 0.00, 0.00, 0.00, 0.00, -15967.44, 0.00, 0.000, 0.000, 0.000, 15:08:01.686, 1551730081686
185, -20813.59, 0.00, 0.00, 0.00, 0.00, 0.00, -15984.42, 0.00, 0.000, 0.000, 0.000, 15:08:01.694, 1551730081694
186, -20890.10, 0.00, 0.00, 0.00, 0.00, 0.00, -16049.80, 0.00, 0.000, 0.000, 0.000, 15:08:01.694, 1551730081694
187, -20801.40, 0.00, 0.00, 0.00, 0.00, 0.00, -16032.55, 0.00, 0.000, 0.000, 0.000, 15:08:01.700, 1551730081700
188, -20711.82, 0.00, 0.00, 0.00, 0.00, 0.00, -15977.05, 0.00, -0.700, 0.602, -0.356, 15:08:01.700, 1551730081700
189, -20783.41, 0.00, 0.00, 0.00, 0.00, 0.00, -15967.77, 0.00, 0.000, 0.000, 0.000, 15:08:01.709, 1551730081709
190, -20900.47, 0.00, 0.00, 0.00, 0.00, 0.00, -16037.35, 0.00, 0.000, 0.000, 0.000, 15:08:01.715, 1551730081715
191, -20819.67, 0.00, 0.00, 0.00, 0.00, 0.00, -16034.00, 0.00, 0.000, 0.000, 0.000, 15:08:01.715, 1551730081715
192, -20722.53, 0.00, 0.00, 0.00, 0.00, 0.00, -15983.11, 0.00, 0.000, 0.000, 0.000, 15:08:01.724, 1551730081724
193, -20750.15, 0.00, 0.00, 0.00, 0.00, 0.00, -15958.05, 0.00, 0.000, 0.000, 0.000, 15:08:01.724, 1551730081724
194, -20896.69, 0.00, 0.00, 0.00, 0.00, 0.00, -16025.84, 0.00, 0.000, 0.000, 0.000, 15:08:01.731, 1551730081731
195, -20834.91, 0.00, 0.00, 0.00, 0.00, 0.00, -16037.09, 0.00, 0.000, 0.000, 0.000, 15:08:01.731, 1551730081731
196, -20741.77, 0.00, 0.00, 0.00, 0.00, 0.00, -15995.94, 0.00, 0.000, 0.000, 0.000, 15:08:01.737, 1551730081737
197, -20725.25, 0.00, 0.00, 0.00, 0.00, 0.00, -15951.86, 0.00, 0.000, 0.000, 0.000, 15:08:01.738, 1551730081738
198, -20886.07, 0.00, 0.00, 0.00, 0.00, 0.00, -16014.15, 0.00, -0.700, 0.602, -0.358, 15:08:01.745, 1551730081745
199, -20853.66, 0.00, 0.00, 0.00, 0.00, 0.00, -16039.34, 0.00, 0.000, 0.000, 0.000, 15:08:01.746, 1551730081746
200, -20764.41, 0.00, 0.00, 0.00, 0.00, 0.00, -16006.89, 0.00, 0.000, 0.000, 0.000, 15:08:01.754, 1551730081754
201, -20713.41, 0.00, 0.00, 0.00, 0.00, 0.00, -15955.73, 0.00, 0.000, 0.000, 0.000, 15:08:01.754, 1551730081754
202, -20860.97, 0.00, 0.00, 0.00, 0.00, 0.00, -15996.94, 0.00, 0.000, 0.000, 0.000, 15:08:01.761, 1551730081761
203, -20859.56, 0.00, 0.00, 0.00, 0.00, 0.00, -16031.41, 0.00, 0.000, 0.000, 0.000, 15:08:01.761, 1551730081761
204, -20771.79, 0.00, 0.00, 0.00, 0.00, 0.00, -16004.18, 0.00, 0.000, 0.000, 0.000, 15:08:01.767, 1551730081767
205, -20697.96, 0.00, 0.00, 0.00, 0.00, 0.00, -15949.47, 0.00, 0.000, 0.000, 0.000, 15:08:01.775, 1551730081775
206, -20837.75, 0.00, 0.00, 0.00, 0.00, 0.00, -15980.31, 0.00, 0.000, 0.000, 0.000, 15:08:01.775, 1551730081775
207, -20880.26, 0.00, 0.00, 0.00, 0.00, 0.00, -16034.74, 0.00, 0.000, 0.000, 0.000, 15:08:01.783, 1551730081783
208, -20791.86, 0.00, 0.00, 0.00, 0.00, 0.00, -16014.67, 0.00, -0.702, 0.610, -0.356, 15:08:01.783, 1551730081783
209, -20700.53, 0.00, 0.00, 0.00, 0.00, 0.00, -15957.89, 0.00, 0.000, 0.000, 0.000, 15:08:01.791, 1551730081791
210, -20803.48, 0.00, 0.00, 0.00, 0.00, 0.00, -15967.24, 0.00, 0.000, 0.000, 0.000, 15:08:01.791, 1551730081791
211, -20889.36, 0.00, 0.00, 0.00, 0.00, 0.00, -16028.37, 0.00, 0.000, 0.000, 0.000, 15:08:01.798, 1551730081798
212, -20803.48, 0.00, 0.00, 0.00, 0.00, 0.00, -16021.19, 0.00, 0.000, 0.000, 0.000, 15:08:01.798, 1551730081798
213, -20712.38, 0.00, 0.00, 0.00, 0.00, 0.00, -15975.06, 0.00, 0.000, 0.000, 0.000, 15:08:01.806, 1551730081806
214, -20762.78, 0.00, 0.00, 0.00, 0.00, 0.00, -15955.99, 0.00, 0.000, 0.000, 0.000, 15:08:01.806, 1551730081806
215, -20887.48, 0.00, 0.00, 0.00, 0.00, 0.00, -16027.56, 0.00, 0.000, 0.000, 0.000, 15:08:01.814, 1551730081814
216, -20812.71, 0.00, 0.00, 0.00, 0.00, 0.00, -16025.08, 0.00, 0.000, 0.000, 0.000, 15:08:01.814, 1551730081814
217, -20718.77, 0.00, 0.00, 0.00, 0.00, 0.00, -15975.93, 0.00, 0.000, 0.000, 0.000, 15:08:01.821, 1551730081821
218, -20733.32, 0.00, 0.00, 0.00, 0.00, 0.00, -15945.26, 0.00, -0.706, 0.608, -0.348, 15:08:01.821, 1551730081821
219, -20887.01, 0.00, 0.00, 0.00, 0.00, 0.00, -16016.95, 0.00, 0.000, 0.000, 0.000, 15:08:01.829, 1551730081829
220, -20829.84, 0.00, 0.00, 0.00, 0.00, 0.00, -16026.11, 0.00, 0.000, 0.000, 0.000, 15:08:01.835, 1551730081835
221, -20738.55, 0.00, 0.00, 0.00, 0.00, 0.00, -15984.67, 0.00, 0.000, 0.000, 0.000, 15:08:01.836, 1551730081836
222, -20716.13, 0.00, 0.00, 0.00, 0.00, 0.00, -15944.42, 0.00, 0.000, 0.000, 0.000, 15:08:01.843, 1551730081843
223, -20872.30, 0.00, 0.00, 0.00, 0.00, 0.00, -15998.89, 0.00, 0.000, 0.000, 0.000, 15:08:01.844, 1551730081844
224, -20847.67, 0.00, 0.00, 0.00, 0.00, 0.00, -16028.61, 0.00, 0.000, 0.000, 0.000, 15:08:01.850, 1551730081850
225, -20758.91, 0.00, 0.00, 0.00, 0.00, 0.00, -15999.69, 0.00, 0.000, 0.000, 0.000, 15:08:01.851, 1551730081851
226, -20702.65, 0.00, 0.00, 0.00, 0.00, 0.00, -15949.11, 0.00, 0.000, 0.000, 0.000, 15:08:01.859, 1551730081859
227, -20860.86, 0.00, 0.00, 0.00, 0.00, 0.00, -15994.44, 0.00, -0.706, 0.608, -0.352, 15:08:01.860, 1551730081860
228, -20872.15, 0.00, 0.00, 0.00, 0.00, 0.00, -16037.69, 0.00, 0.000, 0.000, 0.000, 15:08:01.866, 1551730081866
229, -20773.24, 0.00, 0.00, 0.00, 0.00, 0.00, -16010.67, 0.00, 0.000, 0.000, 0.000, 15:08:01.867, 1551730081867
230, -20699.41, 0.00, 0.00, 0.00, 0.00, 0.00, -15956.66, 0.00, 0.000, 0.000, 0.000, 15:08:01.873, 1551730081873
231, -20817.77, 0.00, 0.00, 0.00, 0.00, 0.00, -15975.95, 0.00, 0.000, 0.000, 0.000, 15:08:01.873, 1551730081873
232, -20872.10, 0.00, 0.00, 0.00, 0.00, 0.00, -16029.31, 0.00, 0.000, 0.000, 0.000, 15:08:01.881, 1551730081881
233, -20788.51, 0.00, 0.00, 0.00, 0.00, 0.00, -16015.90, 0.00, 0.000, 0.000, 0.000, 15:08:01.881, 1551730081881
234, -20696.71, 0.00, 0.00, 0.00, 0.00, 0.00, -15954.32, 0.00, 0.000, 0.000, 0.000, 15:08:01.888, 1551730081888
235, -20790.50, 0.00, 0.00, 0.00, 0.00, 0.00, -15956.46, 0.00, 0.000, 0.000, 0.000, 15:08:01.896, 1551730081896
236, -20889.38, 0.00, 0.00, 0.00, 0.00, 0.00, -16024.66, 0.00, 0.000, 0.000, 0.000, 15:08:01.897, 1551730081897
237, -20809.29, 0.00, 0.00, 0.00, 0.00, 0.00, -16018.65, 0.00, -0.706, 0.598, -0.348, 15:08:01.903, 1551730081903
238, -20712.27, 0.00, 0.00, 0.00, 0.00, 0.00, -15964.22, 0.00, 0.000, 0.000, 0.000, 15:08:01.903, 1551730081903
239, -20761.75, 0.00, 0.00, 0.00, 0.00, 0.00, -15947.61, 0.00, 0.000, 0.000, 0.000, 15:08:01.910, 1551730081910
240, -20893.83, 0.00, 0.00, 0.00, 0.00, 0.00, -16018.09, 0.00, 0.000, 0.000, 0.000, 15:08:01.910, 1551730081910
241, -20822.37, 0.00, 0.00, 0.00, 0.00, 0.00, -16026.63, 0.00, 0.000, 0.000, 0.000, 15:08:01.919, 1551730081919
242, -20730.73, 0.00, 0.00, 0.00, 0.00, 0.00, -15980.94, 0.00, 0.000, 0.000, 0.000, 15:08:01.919, 1551730081919
243, -20736.03, 0.00, 0.00, 0.00, 0.00, 0.00, -15946.36, 0.00, 0.000, 0.000, 0.000, 15:08:01.926, 1551730081926
244, -20891.77, 0.00, 0.00, 0.00, 0.00, 0.00, -16015.05, 0.00, 0.000, 0.000, 0.000, 15:08:01.926, 1551730081926
245, -20843.47, 0.00, 0.00, 0.00, 0.00, 0.00, -16036.77, 0.00, 0.000, 0.000, 0.000, 15:08:01.933, 1551730081933
246, -20752.16, 0.00, 0.00, 0.00, 0.00, 0.00, -15997.57, 0.00, 0.000, 0.000, 0.000, 15:08:01.933, 1551730081933
247, -20713.58, 0.00, 0.00, 0.00, 0.00, 0.00, -15947.10, 0.00, -0.706, 0.598, -0.352, 15:08:01.941, 1551730081941
248, -20868.01, 0.00, 0.00, 0.00, 0.00, 0.00, -16004.21, 0.00, 0.000, 0.000, 0.000, 15:08:01.941, 1551730081941
249, -20855.99, 0.00, 0.00, 0.00, 0.00, 0.00, -16039.54, 0.00, 0.000, 0.000, 0.000, 15:08:01.948, 1551730081948
250, -20760.43, 0.00, 0.00, 0.00, 0.00, 0.00, -16001.37, 0.00, 0.000, 0.000, 0.000, 15:08:01.949, 1551730081949
251, -20693.31, 0.00, 0.00, 0.00, 0.00, 0.00, -15940.84, 0.00, 0.000, 0.000, 0.000, 15:08:01.955, 1551730081955
252, -20845.37, 0.00, 0.00, 0.00, 0.00, 0.00, -15981.30, 0.00, 0.000, 0.000, 0.000, 15:08:01.963, 1551730081963
253, -20873.11, 0.00, 0.00, 0.00, 0.00, 0.00, -16033.00, 0.00, 0.000, 0.000, 0.000, 15:08:01.963, 1551730081963
254, -20779.41, 0.00, 0.00, 0.00, 0.00, 0.00, -16009.95, 0.00, 0.000, 0.000, 0.000, 15:08:01.971, 1551730081971
255, -20694.67, 0.00, 0.00, 0.00, 0.00, 0.00, -15952.69, 0.00, 0.000, 0.000, 0.000, 15:08:01.971, 1551730081971
0, -20811.35, 0.00, 0.00, 0.00, 0.00, 0.00, -15966.52, 0.00, 0.000, 0.000, 0.000, 15:08:01.979, 1551730081979
1, -20885.78, 0.00, 0.00, 0.00, 0.00, 0.00, -16029.24, 0.00, -0.698, 0.602, -0.352, 15:08:01.979, 1551730081979
2, -20792.29, 0.00, 0.00, 0.00, 0.00, 0.00, -16006.44, 0.00, 0.000, 0.000, 0.000, 15:08:01.985, 1551730081985
3, -20693.74, 0.00, 0.00, 0.00, 0.00, 0.00, -15945.94, 0.00, 0.000, 0.000, 0.000, 15:08:01.986, 1551730081986
4, -20775.65, 0.00, 0.00, 0.00, 0.00, 0.00, -15944.50, 0.00, 0.000, 0.000, 0.000, 15:08:01.994, 1551730081994
5, -20890.30, 0.00, 0.00, 0.00, 0.00, 0.00, -16017.08, 0.00, 0.000, 0.000, 0.000, 15:08:01.994, 1551730081994
6, -20813.88, 0.00, 0.00, 0.00, 0.00, 0.00, -16014.20, 0.00, 0.000, 0.000, 0.000, 15:08:02.001, 1551730082001
7, -20713.52, 0.00, 0.00, 0.00, 0.00, 0.00, -15960.06, 0.00, 0.000, 0.000, 0.000, 15:08:02.001, 1551730082001
8, -20750.22, 0.00, 0.00, 0.00, 0.00, 0.00, -15938.22, 0.00, 0.000, 0.000, 0.000, 15:08:02.008, 1551730082008
9, -20890.16, 0.00, 0.00, 0.00, 0.00, 0.00, -16006.96, 0.00, 0.000, 0.000, 0.000, 15:08:02.008, 1551730082008
10, -20826.82, 0.00, 0.00, 0.00, 0.00, 0.00, -16019.54, 0.00, 0.000, 0.000, 0.000, 15:08:02.015, 1551730082015
11, -20735.85, 0.00, 0.00, 0.00, 0.00, 0.00, -15979.64, 0.00, -0.700, 0.602, -0.348, 15:08:02.023, 1551730082023
12, -20728.38, 0.00, 0.00, 0.00, 0.00, 0.00, -15937.02, 0.00, 0.000, 0.000, 0.000, 15:08:02.023, 1551730082023
13, -20882.68, 0.00, 0.00, 0.00, 0.00, 0.00, -15999.13, 0.00, 0.000, 0.000, 0.000, 15:08:02.032, 1551730082032
14, -20839.54, 0.00, 0.00, 0.00, 0.00, 0.00, -16024.14, 0.00, 0.000, 0.000, 0.000, 15:08:02.032, 1551730082032
15, -20748.47, 0.00, 0.00, 0.00, 0.00, 0.00, -15994.37, 0.00, 0.000, 0.000, 0.000, 15:08:02.037, 1551730082037
16, -20706.52, 0.00, 0.00, 0.00, 0.00, 0.00, -15941.31, 0.00, 0.000, 0.000, 0.000, 15:08:02.038, 1551730082038
17, -20869.13, 0.00, 0.00, 0.00, 0.00, 0.00, -15994.93, 0.00, 0.000, 0.000, 0.000, 15:08:02.045, 1551730082045
18, -20866.07, 0.00, 0.00, 0.00, 0.00, 0.00, -16035.01, 0.00, 0.000, 0.000, 0.000, 15:08:02.046, 1551730082046
19, -20768.23, 0.00, 0.00, 0.00, 0.00, 0.00, -15999.60, 0.00, 0.000, 0.000, 0.000, 15:08:02.054, 1551730082054
20, -20701.20, 0.00, 0.00, 0.00, 0.00, 0.00, -15947.61, 0.00, 0.000, 0.000, 0.000, 15:08:02.054, 1551730082054
21, -20845.13, 0.00, 0.00, 0.00, 0.00, 0.00, -15982.82, 0.00, -0.704, 0.602, -0.348, 15:08:02.065, 1551730082065
22, -20877.67, 0.00, 0.00, 0.00, 0.00, 0.00, -16032.82, 0.00, 0.000, 0.000, 0.000, 15:08:02.065, 1551730082065
23, -20788.89, 0.00, 0.00, 0.00, 0.00, 0.00, -16005.79, 0.00, 0.000, 0.000, 0.000, 15:08:02.070, 1551730082070
24, -20701.11, 0.00, 0.00, 0.00, 0.00, 0.00, -15951.63, 0.00, 0.000, 0.000, 0.000, 15:08:02.070, 1551730082070
25, -20811.91, 0.00, 0.00, 0.00, 0.00, 0.00, -15962.90, 0.00, 0.000, 0.000, 0.000, 15:08:02.075, 1551730082075
26, -20897.47, 0.00, 0.00, 0.00, 0.00, 0.00, -16030.25, 0.00, 0.000, 0.000, 0.000, 15:08:02.083, 1551730082083
27, -20815.20, 0.00, 0.00, 0.00, 0.00, 0.00, -16021.22, 0.00, 0.000, 0.000, 0.000, 15:08:02.083, 1551730082083
28, -20718.97, 0.00, 0.00, 0.00, 0.00, 0.00, -15965.18, 0.00, 0.000, 0.000, 0.000, 15:08:02.090, 1551730082090
29, -20786.94, 0.00, 0.00, 0.00, 0.00, 0.00, -15959.06, 0.00, 0.000, 0.000, 0.000, 15:08:02.091, 1551730082091
30, -20900.11, 0.00, 0.00, 0.00, 0.00, 0.00, -16024.97, 0.00, -0.708, 0.604, -0.360, 15:08:02.100, 1551730082100
31, -20821.86, 0.00, 0.00, 0.00, 0.00, 0.00, -16015.16, 0.00, 0.000, 0.000, 0.000, 15:08:02.100, 1551730082100
32, -20729.01, 0.00, 0.00, 0.00, 0.00, 0.00, -15972.24, 0.00, 0.000, 0.000, 0.000, 15:08:02.106, 1551730082106
33, -20750.40, 0.00, 0.00, 0.00, 0.00, 0.00, -15941.84, 0.00, 0.000, 0.000, 0.000, 15:08:02.106, 1551730082106
34, -20900.96, 0.00, 0.00, 0.00, 0.00, 0.00, -16015.90, 0.00, 0.000, 0.000, 0.000, 15:08:02.114, 1551730082114
35, -20838.84, 0.00, 0.00, 0.00, 0.00, 0.00, -16024.34, 0.00, 0.000, 0.000, 0.000, 15:08:02.114, 1551730082114
36, -20748.77, 0.00, 0.00, 0.00, 0.00, 0.00, -15985.30, 0.00, 0.000, 0.000, 0.000, 15:08:02.121, 1551730082121
37, -20722.32, 0.00, 0.00, 0.00, 0.00, 0.00, -15938.74, 0.00, 0.000, 0.000, 0.000, 15:08:02.121, 1551730082121
38, -20889.00, 0.00, 0.00, 0.00, 0.00, 0.00, -16005.97, 0.00, 0.000, 0.000, 0.000, 15:08:02.129, 1551730082129
39, -20858.60, 0.00, 0.00, 0.00, 0.00, 0.00, -16033.60, 0.00, 0.000, 0.000, 0.000, 15:08:02.129, 1551730082129
40, -20771.56, 0.00, 0.00, 0.00, 0.00, 0.00, -15998.13, 0.00, -0.708, 0.602, -0.356, 15:08:02.136, 1551730082136
41, -20716.76, 0.00, 0.00, 0.00, 0.00, 0.00, -15941.55, 0.00, 0.000, 0.000, 0.000, 15:08:02.142, 1551730082142
42, -20881.47, 0.00, 0.00, 0.00, 0.00, 0.00, -15992.32, 0.00, 0.000, 0.000, 0.000, 15:08:02.143, 1551730082143
43, -20895.33, 0.00, 0.00, 0.00, 0.00, 0.00, -16046.18, 0.00, 0.000, 0.000, 0.000, 15:08:02.151, 1551730082151
44, -20792.69, 0.00, 0.00, 0.00, 0.00, 0.00, -16006.62, 0.00, 0.000, 0.000, 0.000, 15:08:02.152, 1551730082152
45, -20701.43, 0.00, 0.00, 0.00, 0.00, 0.00, -15942.31, 0.00, 0.000, 0.000, 0.000, 15:08:02.159, 1551730082159
46, -20840.90, 0.00, 0.00, 0.00, 0.00, 0.00, -15974.32, 0.00, 0.000, 0.000, 0.000, 15:08:02.159, 1551730082159
47, -20888.55, 0.00, 0.00, 0.00, 0.00, 0.00, -16030.22, 0.00, 0.000, 0.000, 0.000, 15:08:02.166, 1551730082166
48, -20802.63, 0.00, 0.00, 0.00, 0.00, 0.00, -16011.98, 0.00, 0.000, 0.000, 0.000, 15:08:02.166, 1551730082166
49, -20711.97, 0.00, 0.00, 0.00, 0.00, 0.00, -15953.69, 0.00, 0.000, 0.000, 0.000, 15:08:02.173, 1551730082173
50, -20818.28, 0.00, 0.00, 0.00, 0.00, 0.00, -15965.60, 0.00, -0.710, 0.596, -0.352, 15:08:02.173, 1551730082173
51, -20908.87, 0.00, 0.00, 0.00, 0.00, 0.00, -16030.80, 0.00, 0.000, 0.000, 0.000, 15:08:02.181, 1551730082181
52, -20824.54, 0.00, 0.00, 0.00, 0.00, 0.00, -16021.33, 0.00, 0.000, 0.000, 0.000, 15:08:02.181, 1551730082181
53, -20726.37, 0.00, 0.00, 0.00, 0.00, 0.00, -15962.86, 0.00, 0.000, 0.000, 0.000, 15:08:02.196, 1551730082196
54, -20780.57, 0.00, 0.00, 0.00, 0.00, 0.00, -15947.43, 0.00, 0.000, 0.000, 0.000, 15:08:02.196, 1551730082196
55, -20905.61, 0.00, 0.00, 0.00, 0.00, 0.00, -16018.85, 0.00, 0.000, 0.000, 0.000, 15:08:02.197, 1551730082197
56, -20832.85, 0.00, 0.00, 0.00, 0.00, 0.00, -16021.86, 0.00, 0.000, 0.000, 0.000, 15:08:02.198, 1551730082198
57, -20738.84, 0.00, 0.00, 0.00, 0.00, 0.00, -15973.81, 0.00, 0.000, 0.000, 0.000, 15:08:02.202, 1551730082202
58, -20750.69, 0.00, 0.00, 0.00, 0.00, 0.00, -15937.51, 0.00, 0.000, 0.000, 0.000, 15:08:02.211, 1551730082211
59, -20900.82, 0.00, 0.00, 0.00, 0.00, 0.00, -16003.67, 0.00, 0.000, 0.000, 0.000, 15:08:02.211, 1551730082211
60, -20848.77, 0.00, 0.00, 0.00, 0.00, 0.00, -16023.72, 0.00, -0.714, 0.602, -0.356, 15:08:02.219, 1551730082219
61, -20758.20, 0.00, 0.00, 0.00, 0.00, 0.00, -15981.56, 0.00, 0.000, 0.000, 0.000, 15:08:02.219, 1551730082219
62, -20744.47, 0.00, 0.00, 0.00, 0.00, 0.00, -15942.52, 0.00, 0.000, 0.000, 0.000, 15:08:02.230, 1551730082230
63, -20848.70, 0.00, 0.00, 0.00, 0.00, 0.00, -15989.03, 0.00, 0.000, 0.000, 0.000, 15:08:02.230, 1551730082230
64, -20823.20, 0.00, 0.00, 0.00, 0.00, 0.00, -16003.89, 0.00, 0.000, 0.000, 0.000, 15:08:02.233, 1551730082233
65, -20773.06, 0.00, 0.00, 0.00, 0.00, 0.00, -15979.42, 0.00, 0.000, 0.000, 0.000, 15:08:02.234, 1551730082234
66, -20753.86, 0.00, 0.00, 0.00, 0.00, 0.00, -15950.14, 0.00, 0.000, 0.000, 0.000, 15:08:02.241, 1551730082241
67, -20842.91, 0.00, 0.00, 0.00, 0.00, 0.00, -15979.73, 0.00, 0.000, 0.000, 0.000, 15:08:02.241, 1551730082241
68, -20839.22, 0.00, 0.00, 0.00, 0.00, 0.00, -16011.51, 0.00, 0.000, 0.000, 0.000, 15:08:02.249, 1551730082249
69, -20790.23, 0.00, 0.00, 0.00, 0.00, 0.00, -15992.25, 0.00, 0.000, 0.000, 0.000, 15:08:02.249, 1551730082249
70, -20759.34, 0.00, 0.00, 0.00, 0.00, 0.00, -15954.54, 0.00, -0.716, 0.602, -0.364, 15:08:02.255, 1551730082255
71, -20830.66, 0.00, 0.00, 0.00, 0.00, 0.00, -15967.53, 0.00, 0.000, 0.000, 0.000, 15:08:02.256, 1551730082256
72, -20851.88, 0.00, 0.00, 0.00, 0.00, 0.00, -16008.14, 0.00, 0.000, 0.000, 0.000, 15:08:02.273, 1551730082273
73, -20797.78, 0.00, 0.00, 0.00, 0.00, 0.00, -16000.88, 0.00, 0.000, 0.000, 0.000, 15:08:02.273, 1551730082273
74, -20755.27, 0.00, 0.00, 0.00, 0.00, 0.00, -15961.04, 0.00, 0.000, 0.000, 0.000, 15:08:02.273, 1551730082273
75, -20817.77, 0.00, 0.00, 0.00, 0.00, 0.00, -15961.83, 0.00, 0.000, 0.000, 0.000, 15:08:02.278, 1551730082278
76, -20864.99, 0.00, 0.00, 0.00, 0.00, 0.00, -16002.57, 0.00, 0.000, 0.000, 0.000, 15:08:02.278, 1551730082278
77, -20806.03, 0.00, 0.00, 0.00, 0.00, 0.00, -15993.30, 0.00, 0.000, 0.000, 0.000, 15:08:02.285, 1551730082285
78, -20762.13, 0.00, 0.00, 0.00, 0.00, 0.00, -15960.40, 0.00, 0.000, 0.000, 0.000, 15:08:02.285, 1551730082285
79, -20794.70, 0.00, 0.00, 0.00, 0.00, 0.00, -15952.24, 0.00, 0.000, 0.000, 0.000, 15:08:02.293, 1551730082293
80, -20867.90, 0.00, 0.00, 0.00, 0.00, 0.00, -16003.04, 0.00, -0.714, 0.600, -0.358, 15:08:02.293, 1551730082293
81, -20815.15, 0.00, 0.00, 0.00, 0.00, 0.00, -16001.14, 0.00, 0.000, 0.000, 0.000, 15:08:02.304, 1551730082304
82, -20772.44, 0.00, 0.00, 0.00, 0.00, 0.00, -15970.81, 0.00, 0.000, 0.000, 0.000, 15:08:02.304, 1551730082304
83, -20789.76, 0.00, 0.00, 0.00, 0.00, 0.00, -15957.38, 0.00, 0.000, 0.000, 0.000, 15:08:02.308, 1551730082308
84, -20867.83, 0.00, 0.00, 0.00, 0.00, 0.00, -16001.77, 0.00, 0.000, 0.000, 0.000, 15:08:02.308, 1551730082308
85, -20830.24, 0.00, 0.00, 0.00, 0.00, 0.00, -16011.18, 0.00, 0.000, 0.000, 0.000, 15:08:02.316, 1551730082316
86, -20780.75, 0.00, 0.00, 0.00, 0.00, 0.00, -15981.61, 0.00, 0.000, 0.000, 0.000, 15:08:02.317, 1551730082317
87, -20772.53, 0.00, 0.00, 0.00, 0.00, 0.00, -15948.35, 0.00, 0.000, 0.000, 0.000, 15:08:02.323, 1551730082323
88, -20861.31, 0.00, 0.00, 0.00, 0.00, 0.00, -15983.15, 0.00, 0.000, 0.000, 0.000, 15:08:02.331, 1551730082331
89, -20835.04, 0.00, 0.00, 0.00, 0.00, 0.00, -15997.57, 0.00, 0.000, 0.000, 0.000, 15:08:02.332, 1551730082332
90, -20772.66, 0.00, 0.00, 0.00, 0.00, 0.00, -15969.16, 0.00, -0.708, 0.598, -0.342, 15:08:02.338, 1551730082338
91, -20747.98, 0.00, 0.00, 0.00, 0.00, 0.00, -15933.75, 0.00, 0.000, 0.000, 0.000, 15:08:02.338, 1551730082338
92, -20837.95, 0.00, 0.00, 0.00, 0.00, 0.00, -15963.46, 0.00, 0.000, 0.000, 0.000, 15:08:02.345, 1551730082345
93, -20836.00, 0.00, 0.00, 0.00, 0.00, 0.00, -15994.59, 0.00, 0.000, 0.000, 0.000, 15:08:02.346, 1551730082346
94, -20790.61, 0.00, 0.00, 0.00, 0.00, 0.00, -15980.98, 0.00, 0.000, 0.000, 0.000, 15:08:02.353, 1551730082353
95, -20755.65, 0.00, 0.00, 0.00, 0.00, 0.00, -15948.64, 0.00, 0.000, 0.000, 0.000, 15:08:02.354, 1551730082354
96, -20832.52, 0.00, 0.00, 0.00, 0.00, 0.00, -15965.56, 0.00, 0.000, 0.000, 0.000, 15:08:02.361, 1551730082361
97, -20860.03, 0.00, 0.00, 0.00, 0.00, 0.00, -16008.14, 0.00, 0.000, 0.000, 0.000, 15:08:02.361, 1551730082361
98, -20804.96, 0.00, 0.00, 0.00, 0.00, 0.00, -15997.84, 0.00, 0.000, 0.000, 0.000, 15:08:02.369, 1551730082369
99, -20765.75, 0.00, 0.00, 0.00, 0.00, 0.00, -15964.13, 0.00, -0.702, 0.598, -0.352, 15:08:02.369, 1551730082369
100, -20814.48, 0.00, 0.00, 0.00, 0.00, 0.00, -15960.64, 0.00, 0.000, 0.000, 0.000, 15:08:02.376, 1551730082376
101, -20863.16, 0.00, 0.00, 0.00, 0.00, 0.00, -16003.22, 0.00, 0.000, 0.000, 0.000, 15:08:02.377, 1551730082377
102, -20806.90, 0.00, 0.00, 0.00, 0.00, 0.00, -15996.50, 0.00, 0.000, 0.000, 0.000, 15:08:02.383, 1551730082383
103, -20759.12, 0.00, 0.00, 0.00, 0.00, 0.00, -15961.96, 0.00, 0.000, 0.000, 0.000, 15:08:02.390, 1551730082390
104, -20793.76, 0.00, 0.00, 0.00, 0.00, 0.00, -15953.24, 0.00, 0.000, 0.000, 0.000, 15:08:02.391, 1551730082391
105, -20870.47, 0.00, 0.00, 0.00, 0.00, 0.00, -15994.82, 0.00, 0.000, 0.000, 0.000, 15:08:02.398, 1551730082398
106, -20823.24, 0.00, 0.00, 0.00, 0.00, 0.00, -15998.42, 0.00, 0.000, 0.000, 0.000, 15:08:02.398, 1551730082398
107, -20773.06, 0.00, 0.00, 0.00, 0.00, 0.00, -15968.62, 0.00, 0.000, 0.000, 0.000, 15:08:02.406, 1551730082406
108, -20778.09, 0.00, 0.00, 0.00, 0.00, 0.00, -15944.01, 0.00, 0.000, 0.000, 0.000, 15:08:02.406, 1551730082406
109, -20864.73, 0.00, 0.00, 0.00, 0.00, 0.00, -15990.39, 0.00, -0.702, 0.598, -0.354, 15:08:02.413, 1551730082413
110, -20826.33, 0.00, 0.00, 0.00, 0.00, 0.00, -16000.18, 0.00, 0.000, 0.000, 0.000, 15:08:02.414, 1551730082414
111, -20779.77, 0.00, 0.00, 0.00, 0.00, 0.00, -15978.88, 0.00, 0.000, 0.000, 0.000, 15:08:02.420, 1551730082420
112, -20758.56, 0.00, 0.00, 0.00, 0.00, 0.00, -15936.66, 0.00, 0.000, 0.000, 0.000, 15:08:02.421, 1551730082421
113, -20851.36, 0.00, 0.00, 0.00, 0.00, 0.00, -15974.66, 0.00, 0.000, 0.000, 0.000, 15:08:02.428, 1551730082428
114, -20832.54, 0.00, 0.00, 0.00, 0.00, 0.00, -16000.34, 0.00, 0.000, 0.000, 0.000, 15:08:02.429, 1551730082429
115, -20785.31, 0.00, 0.00, 0.00, 0.00, 0.00, -15980.40, 0.00, 0.000, 0.000, 0.000, 15:08:02.443, 1551730082443
116, -20753.50, 0.00, 0.00, 0.00, 0.00, 0.00, -15937.82, 0.00, 0.000, 0.000, 0.000, 15:08:02.444, 1551730082444
117, -20840.56, 0.00, 0.00, 0.00, 0.00, 0.00, -15969.11, 0.00, 0.000, 0.000, 0.000, 15:08:02.444, 1551730082444
118, -20847.61, 0.00, 0.00, 0.00, 0.00, 0.00, -16002.49, 0.00, 0.000, 0.000, 0.000, 15:08:02.444, 1551730082444
119, -20791.68, 0.00, 0.00, 0.00, 0.00, 0.00, -15986.15, 0.00, -0.704, 0.602, -0.356, 15:08:02.451, 1551730082451
120, -20756.86, 0.00, 0.00, 0.00, 0.00, 0.00, -15952.19, 0.00, 0.000, 0.000, 0.000, 15:08:02.458, 1551730082458
121, -20824.25, 0.00, 0.00, 0.00, 0.00, 0.00, -15955.99, 0.00, 0.000, 0.000, 0.000, 15:08:02.459, 1551730082459
122, -20862.54, 0.00, 0.00, 0.00, 0.00, 0.00, -16004.32, 0.00, 0.000, 0.000, 0.000, 15:08:02.466, 1551730082466
123, -20807.39, 0.00, 0.00, 0.00, 0.00, 0.00, -15995.11, 0.00, 0.000, 0.000, 0.000, 15:08:02.467, 1551730082467
124, -20765.15, 0.00, 0.00, 0.00, 0.00, 0.00, -15958.52, 0.00, 0.000, 0.000, 0.000, 15:08:02.473, 1551730082473
125, -20807.95, 0.00, 0.00, 0.00, 0.00, 0.00, -15950.63, 0.00, 0.000, 0.000, 0.000, 15:08:02.474, 1551730082474
126, -20871.19, 0.00, 0.00, 0.00, 0.00, 0.00, -15999.11, 0.00, 0.000, 0.000, 0.000, 15:08:02.481, 1551730082481
127, -20819.13, 0.00, 0.00, 0.00, 0.00, 0.00, -16000.54, 0.00, 0.000, 0.000, 0.000, 15:08:02.481, 1551730082481
128, -20768.73, 0.00, 0.00, 0.00, 0.00, 0.00, -15961.65, 0.00, 0.000, 0.000, 0.000, 15:08:02.489, 1551730082489
129, -20792.51, 0.00, 0.00, 0.00, 0.00, 0.00, -15945.04, 0.00, -0.704, 0.604, -0.356, 15:08:02.489, 1551730082489
130, -20871.52, 0.00, 0.00, 0.00, 0.00, 0.00, -15992.23, 0.00, 0.000, 0.000, 0.000, 15:08:02.496, 1551730082496
131, -20831.38, 0.00, 0.00, 0.00, 0.00, 0.00, -16001.08, 0.00, 0.000, 0.000, 0.000, 15:08:02.497, 1551730082497
132, -20779.90, 0.00, 0.00, 0.00, 0.00, 0.00, -15970.08, 0.00, 0.000, 0.000, 0.000, 15:08:02.504, 1551730082504
133, -20777.64, 0.00, 0.00, 0.00, 0.00, 0.00, -15941.58, 0.00, 0.000, 0.000, 0.000, 15:08:02.505, 1551730082505
134, -20865.64, 0.00, 0.00, 0.00, 0.00, 0.00, -15984.54, 0.00, 0.000, 0.000, 0.000, 15:08:02.511, 1551730082511
135, -20837.99, 0.00, 0.00, 0.00, 0.00, 0.00, -16006.75, 0.00, 0.000, 0.000, 0.000, 15:08:02.519, 1551730082519
136, -20789.36, 0.00, 0.00, 0.00, 0.00, 0.00, -15977.12, 0.00, 0.000, 0.000, 0.000, 15:08:02.519, 1551730082519
137, -20775.88, 0.00, 0.00, 0.00, 0.00, 0.00, -15948.17, 0.00, 0.000, 0.000, 0.000, 15:08:02.525, 1551730082525
138, -20864.28, 0.00, 0.00, 0.00, 0.00, 0.00, -15980.69, 0.00, 0.000, 0.000, 0.000, 15:08:02.525, 1551730082525
139, -20852.88, 0.00, 0.00, 0.00, 0.00, 0.00, -16007.89, 0.00, -0.708, 0.602, -0.350, 15:08:02.533, 1551730082533
140, -20794.14, 0.00, 0.00, 0.00, 0.00, 0.00, -15982.64, 0.00, 0.000, 0.000, 0.000, 15:08:02.534, 1551730082534
141, -20765.37, 0.00, 0.00, 0.00, 0.00, 0.00, -15947.79, 0.00, 0.000, 0.000, 0.000, 15:08:02.541, 1551730082541
142, -20846.04, 0.00, 0.00, 0.00, 0.00, 0.00, -15969.81, 0.00, 0.000, 0.000, 0.000, 15:08:02.542, 1551730082542
143, -20858.22, 0.00, 0.00, 0.00, 0.00, 0.00, -16006.55, 0.00, 0.000, 0.000, 0.000, 15:08:02.548, 1551730082548
144, -20804.29, 0.00, 0.00, 0.00, 0.00, 0.00, -15993.48, 0.00, 0.000, 0.000, 0.000, 15:08:02.549, 1551730082549
145, -20763.12, 0.00, 0.00, 0.00, 0.00, 0.00, -15953.92, 0.00, 0.000, 0.000, 0.000, 15:08:02.555, 1551730082555
146, -20824.52, 0.00, 0.00, 0.00, 0.00, 0.00, -15958.07, 0.00, 0.000, 0.000, 0.000, 15:08:02.556, 1551730082556
147, -20870.94, 0.00, 0.00, 0.00, 0.00, 0.00, -16007.96, 0.00, 0.000, 0.000, 0.000, 15:08:02.564, 1551730082564
148, -20820.49, 0.00, 0.00, 0.00, 0.00, 0.00, -16003.71, 0.00, 0.000, 0.000, 0.000, 15:08:02.564, 1551730082564
149, -20782.23, 0.00, 0.00, 0.00, 0.00, 0.00, -15974.70, 0.00, -0.710, 0.602, -0.350, 15:08:02.571, 1551730082571
150, -20824.14, 0.00, 0.00, 0.00, 0.00, 0.00, -15970.79, 0.00, 0.000, 0.000, 0.000, 15:08:02.579, 1551730082579
151, -20891.73, 0.00, 0.00, 0.00, 0.00, 0.00, -16017.59, 0.00, 0.000, 0.000, 0.000, 15:08:02.579, 1551730082579
152, -20851.23, 0.00, 0.00, 0.00, 0.00, 0.00, -16024.84, 0.00, 0.000, 0.000, 0.000, 15:08:02.585, 1551730082585
153, -20791.84, 0.00, 0.00, 0.00, 0.00, 0.00, -15976.89, 0.00, 0.000, 0.000, 0.000, 15:08:02.585, 1551730082585
154, -20788.06, 0.00, 0.00, 0.00, 0.00, 0.00, -15939.68, 0.00, 0.000, 0.000, 0.000, 15:08:02.593, 1551730082593
155, -20867.61, 0.00, 0.00, 0.00, 0.00, 0.00, -15988.25, 0.00, 0.000, 0.000, 0.000, 15:08:02.593, 1551730082593
156, -20830.21, 0.00, 0.00, 0.00, 0.00, 0.00, -16000.32, 0.00, 0.000, 0.000, 0.000, 15:08:02.602, 1551730082602
157, -20783.39, 0.00, 0.00, 0.00, 0.00, 0.00, -15971.04, 0.00, 0.000, 0.000, 0.000, 15:08:02.602, 1551730082602
158, -20756.77, 0.00, 0.00, 0.00, 0.00, 0.00, -15918.42, 0.00, -0.708, 0.604, -0.354, 15:08:02.608, 1551730082608
159, -20853.95, 0.00, 0.00, 0.00, 0.00, 0.00, -15970.50, 0.00, 0.000, 0.000, 0.000, 15:08:02.609, 1551730082609
160, -20818.66, 0.00, 0.00, 0.00, 0.00, 0.00, -15979.98, 0.00, 0.000, 0.000, 0.000, 15:08:02.616, 1551730082616
161, -20766.94, 0.00, 0.00, 0.00, 0.00, 0.00, -15959.17, 0.00, 0.000, 0.000, 0.000, 15:08:02.616, 1551730082616
162, -20754.53, 0.00, 0.00, 0.00, 0.00, 0.00, -15926.53, 0.00, 0.000, 0.000, 0.000, 15:08:02.624, 1551730082624
163, -20836.56, 0.00, 0.00, 0.00, 0.00, 0.00, -15950.56, 0.00, 0.000, 0.000, 0.000, 15:08:02.624, 1551730082624
164, -20831.80, 0.00, 0.00, 0.00, 0.00, 0.00, -15979.57, 0.00, 0.000, 0.000, 0.000, 15:08:02.631, 1551730082631
165, -20781.18, 0.00, 0.00, 0.00, 0.00, 0.00, -15966.61, 0.00, 0.000, 0.000, 0.000, 15:08:02.637, 1551730082637
166, -20744.81, 0.00, 0.00, 0.00, 0.00, 0.00, -15929.86, 0.00, 0.000, 0.000, 0.000, 15:08:02.638, 1551730082638
167, -20825.30, 0.00, 0.00, 0.00, 0.00, 0.00, -15951.68, 0.00, 0.000, 0.000, 0.000, 15:08:02.645, 1551730082645
168, -20851.43, 0.00, 0.00, 0.00, 0.00, 0.00, -15994.80, 0.00, -0.706, 0.600, -0.352, 15:08:02.646, 1551730082646
169, -20799.82, 0.00, 0.00, 0.00, 0.00, 0.00, -15986.46, 0.00, 0.000, 0.000, 0.000, 15:08:02.653, 1551730082653
170, -20760.01, 0.00, 0.00, 0.00, 0.00, 0.00, -15948.57, 0.00, 0.000, 0.000, 0.000, 15:08:02.654, 1551730082654
171, -20813.34, 0.00, 0.00, 0.00, 0.00, 0.00, -15946.32, 0.00, 0.000, 0.000, 0.000, 15:08:02.660, 1551730082660
172, -20862.87, 0.00, 0.00, 0.00, 0.00, 0.00, -15991.62, 0.00, 0.000, 0.000, 0.000, 15:08:02.660, 1551730082660
173, -20805.07, 0.00, 0.00, 0.00, 0.00, 0.00, -15977.58, 0.00, 0.000, 0.000, 0.000, 15:08:02.668, 1551730082668
174, -20756.99, 0.00, 0.00, 0.00, 0.00, 0.00, -15938.40, 0.00, 0.000, 0.000, 0.000, 15:08:02.668, 1551730082668
175, -20804.31, 0.00, 0.00, 0.00, 0.00, 0.00, -15936.99, 0.00, 0.000, 0.000, 0.000, 15:08:02.677, 1551730082677
176, -20879.39, 0.00, 0.00, 0.00, 0.00, 0.00, -15995.15, 0.00, 0.000, 0.000, 0.000, 15:08:02.678, 1551730082678
177, -20819.49, 0.00, 0.00, 0.00, 0.00, 0.00, -15995.56, 0.00, 0.000, 0.000, 0.000, 15:08:02.683, 1551730082683
178, -20775.52, 0.00, 0.00, 0.00, 0.00, 0.00, -15962.83, 0.00, -0.706, 0.600, -0.352, 15:08:02.684, 1551730082684
179, -20785.67, 0.00, 0.00, 0.00, 0.00, 0.00, -15938.00, 0.00, 0.000, 0.000, 0.000, 15:08:02.690, 1551730082690
180, -20870.65, 0.00, 0.00, 0.00, 0.00, 0.00, -15971.53, 0.00, 0.000, 0.000, 0.000, 15:08:02.690, 1551730082690
181, -20832.14, 0.00, 0.00, 0.00, 0.00, 0.00, -15986.57, 0.00, 0.000, 0.000, 0.000, 15:08:02.698, 1551730082698
182, -20783.90, 0.00, 0.00, 0.00, 0.00, 0.00, -15970.70, 0.00, 0.000, 0.000, 0.000, 15:08:02.708, 1551730082708
183, -20778.65, 0.00, 0.00, 0.00, 0.00, 0.00, -15937.60, 0.00, 0.000, 0.000, 0.000, 15:08:02.709, 1551730082709
184, -20865.42, 0.00, 0.00, 0.00, 0.00, 0.00, -15976.11, 0.00, 0.000, 0.000, 0.000, 15:08:02.713, 1551730082713
185, -20857.11, 0.00, 0.00, 0.00, 0.00, 0.00, -16002.62, 0.00, 0.000, 0.000, 0.000, 15:08:02.713, 1551730082713
186, -20795.64, 0.00, 0.00, 0.00, 0.00, 0.00, -15972.24, 0.00, 0.000, 0.000, 0.000, 15:08:02.721, 1551730082721
187, -20760.54, 0.00, 0.00, 0.00, 0.00, 0.00, -15932.01, 0.00, 0.000, 0.000, 0.000, 15:08:02.721, 1551730082721
188, -20843.67, 0.00, 0.00, 0.00, 0.00, 0.00, -15954.43, 0.00, -0.702, 0.598, -0.356, 15:08:02.728, 1551730082728
189, -20857.91, 0.00, 0.00, 0.00, 0.00, 0.00, -16003.16, 0.00, 0.000, 0.000, 0.000, 15:08:02.728, 1551730082728
190, -20801.67, 0.00, 0.00, 0.00, 0.00, 0.00, -15983.42, 0.00, 0.000, 0.000, 0.000, 15:08:02.736, 1551730082736
191, -20758.44, 0.00, 0.00, 0.00, 0.00, 0.00, -15935.76, 0.00, 0.000, 0.000, 0.000, 15:08:02.737, 1551730082737
192, -20833.77, 0.00, 0.00, 0.00, 0.00, 0.00, -15950.34, 0.00, 0.000, 0.000, 0.000, 15:08:02.744, 1551730082744
193, -20850.53, 0.00, 0.00, 0.00, 0.00, 0.00, -15988.40, 0.00, 0.000, 0.000, 0.000, 15:08:02.744, 1551730082744
194, -20814.77, 0.00, 0.00, 0.00, 0.00, 0.00, -15991.22, 0.00, 0.000, 0.000, 0.000, 15:08:02.751, 1551730082751
195, -20774.40, 0.00, 0.00, 0.00, 0.00, 0.00, -15948.55, 0.00, 0.000, 0.000, 0.000, 15:08:02.751, 1551730082751
196, -20805.83, 0.00, 0.00, 0.00, 0.00, 0.00, -15928.23, 0.00, 0.000, 0.000, 0.000, 15:08:02.758, 1551730082758
197, -20861.93, 0.00, 0.00, 0.00, 0.00, 0.00, -15979.60, 0.00, 0.000, 0.000, 0.000, 15:08:02.766, 1551730082766
198, -20820.43, 0.00, 0.00, 0.00, 0.00, 0.00, -15987.69, 0.00, -0.710, 0.602, -0.352, 15:08:02.766, 1551730082766
199, -20765.42, 0.00, 0.00, 0.00, 0.00, 0.00, -15947.16, 0.00, 0.000, 0.000, 0.000, 15:08:02.773, 1551730082773
200, -20790.56, 0.00, 0.00, 0.00, 0.00, 0.00, -15936.70, 0.00, 0.000, 0.000, 0.000, 15:08:02.773, 1551730082773
201, -20875.05, 0.00, 0.00, 0.00, 0.00, 0.00, -15990.37, 0.00, 0.000, 0.000, 0.000, 15:08:02.785, 1551730082785
202, -20822.57, 0.00, 0.00, 0.00, 0.00, 0.00, -15991.51, 0.00, 0.000, 0.000, 0.000, 15:08:02.786, 1551730082786
203, -20759.74, 0.00, 0.00, 0.00, 0.00, 0.00, -15936.53, 0.00, 0.000, 0.000, 0.000, 15:08:02.789, 1551730082789
204, -20767.16, 0.00, 0.00, 0.00, 0.00, 0.00, -15910.19, 0.00, 0.000, 0.000, 0.000, 15:08:02.789, 1551730082789
205, -20855.79, 0.00, 0.00, 0.00, 0.00, 0.00, -15966.30, 0.00, 0.000, 0.000, 0.000, 15:08:02.795, 1551730082795
206, -20826.44, 0.00, 0.00, 0.00, 0.00, 0.00, -15982.23, 0.00, 0.000, 0.000, 0.000, 15:08:02.795, 1551730082795
207, -20770.38, 0.00, 0.00, 0.00, 0.00, 0.00, -15945.82, 0.00, 0.000, 0.000, 0.000, 15:08:02.804, 1551730082804
208, -20748.43, 0.00, 0.00, 0.00, 0.00, 0.00, -15920.86, 0.00, -0.700, 0.602, -0.352, 15:08:02.804, 1551730082804
209, -20852.70, 0.00, 0.00, 0.00, 0.00, 0.00, -15967.91, 0.00, 0.000, 0.000, 0.000, 15:08:02.812, 1551730082812
210, -20847.22, 0.00, 0.00, 0.00, 0.00, 0.00, -15980.67, 0.00, 0.000, 0.000, 0.000, 15:08:02.812, 1551730082812
211, -20780.35, 0.00, 0.00, 0.00, 0.00, 0.00, -15945.38, 0.00, 0.000, 0.000, 0.000, 15:08:02.819, 1551730082819
212, -20748.92, 0.00, 0.00, 0.00, 0.00, 0.00, -15913.61, 0.00, 0.000, 0.000, 0.000, 15:08:02.825, 1551730082825
213, -20838.73, 0.00, 0.00, 0.00, 0.00, 0.00, -15944.01, 0.00, 0.000, 0.000, 0.000, 15:08:02.825, 1551730082825
214, -20844.10, 0.00, 0.00, 0.00, 0.00, 0.00, -15974.99, 0.00, 0.000, 0.000, 0.000, 15:08:02.833, 1551730082833
215, -20793.56, 0.00, 0.00, 0.00, 0.00, 0.00, -15964.00, 0.00, 0.000, 0.000, 0.000, 15:08:02.834, 1551730082834
216, -20759.38, 0.00, 0.00, 0.00, 0.00, 0.00, -15930.78, 0.00, 0.000, 0.000, 0.000, 15:08:02.841, 1551730082841
217, -20827.56, 0.00, 0.00, 0.00, 0.00, 0.00, -15935.07, 0.00, 0.000, 0.000, 0.000, 15:08:02.842, 1551730082842
218, -20858.92, 0.00, 0.00, 0.00, 0.00, 0.00, -15980.58, 0.00, -0.700, 0.604, -0.348, 15:08:02.849, 1551730082849
219, -20815.89, 0.00, 0.00, 0.00, 0.00, 0.00, -15977.34, 0.00, 0.000, 0.000, 0.000, 15:08:02.849, 1551730082849
220, -20759.79, 0.00, 0.00, 0.00, 0.00, 0.00, -15937.96, 0.00, 0.000, 0.000, 0.000, 15:08:02.856, 1551730082856
221, -20795.84, 0.00, 0.00, 0.00, 0.00, 0.00, -15925.82, 0.00, 0.000, 0.000, 0.000, 15:08:02.856, 1551730082856
222, -20857.13, 0.00, 0.00, 0.00, 0.00, 0.00, -15965.76, 0.00, 0.000, 0.000, 0.000, 15:08:02.863, 1551730082863
223, -20840.05, 0.00, 0.00, 0.00, 0.00, 0.00, -15985.68, 0.00, 0.000, 0.000, 0.000, 15:08:02.864, 1551730082864
224, -20785.42, 0.00, 0.00, 0.00, 0.00, 0.00, -15950.96, 0.00, 0.000, 0.000, 0.000, 15:08:02.872, 1551730082872
225, -20788.73, 0.00, 0.00, 0.00, 0.00, 0.00, -15929.69, 0.00, 0.000, 0.000, 0.000, 15:08:02.872, 1551730082872
226, -20878.18, 0.00, 0.00, 0.00, 0.00, 0.00, -15988.83, 0.00, 0.000, 0.000, 0.000, 15:08:02.878, 1551730082878
227, -20822.41, 0.00, 0.00, 0.00, 0.00, 0.00, -15980.92, 0.00, -0.700, 0.598, -0.346, 15:08:02.885, 1551730082885
228, -20776.30, 0.00, 0.00, 0.00, 0.00, 0.00, -15946.85, 0.00, 0.000, 0.000, 0.000, 15:08:02.885, 1551730082885
229, -20780.51, 0.00, 0.00, 0.00, 0.00, 0.00, -15924.81, 0.00, 0.000, 0.000, 0.000, 15:08:02.894, 1551730082894
230, -20897.96, 0.00, 0.00, 0.00, 0.00, 0.00, -16004.56, 0.00, 0.000, 0.000, 0.000, 15:08:02.894, 1551730082894
231, -20866.11, 0.00, 0.00, 0.00, 0.00, 0.00, -16005.77, 0.00, 0.000, 0.000, 0.000, 15:08:02.901, 1551730082901
232, -20811.31, 0.00, 0.00, 0.00, 0.00, 0.00, -15954.43, 0.00, 0.000, 0.000, 0.000, 15:08:02.902, 1551730082902
233, -20769.75, 0.00, 0.00, 0.00, 0.00, 0.00, -15945.67, 0.00, 0.000, 0.000, 0.000, 15:08:02.908, 1551730082908
234, -20877.49, 0.00, 0.00, 0.00, 0.00, 0.00, -15992.43, 0.00, 0.000, 0.000, 0.000, 15:08:02.908, 1551730082908
235, -20861.82, 0.00, 0.00, 0.00, 0.00, 0.00, -16010.13, 0.00, 0.000, 0.000, 0.000, 15:08:02.916, 1551730082916
236, -20809.09, 0.00, 0.00, 0.00, 0.00, 0.00, -15977.09, 0.00, 0.000, 0.000, 0.000, 15:08:02.917, 1551730082917
237, -20794.70, 0.00, 0.00, 0.00, 0.00, 0.00, -15949.20, 0.00, -0.702, 0.598, -0.352, 15:08:02.924, 1551730082924
238, -20869.60, 0.00, 0.00, 0.00, 0.00, 0.00, -15970.79, 0.00, 0.000, 0.000, 0.000, 15:08:02.924, 1551730082924
239, -20865.17, 0.00, 0.00, 0.00, 0.00, 0.00, -15993.83, 0.00, 0.000, 0.000, 0.000, 15:08:02.930, 1551730082930
240, -20820.94, 0.00, 0.00, 0.00, 0.00, 0.00, -15981.12, 0.00, 0.000, 0.000, 0.000, 15:08:02.931, 1551730082931
241, -20801.70, 0.00, 0.00, 0.00, 0.00, 0.00, -15966.28, 0.00, 0.000, 0.000, 0.000, 15:08:02.937, 1551730082937
242, -20858.42, 0.00, 0.00, 0.00, 0.00, 0.00, -15963.19, 0.00, 0.000, 0.000, 0.000, 15:08:02.938, 1551730082938
243, -20887.79, 0.00, 0.00, 0.00, 0.00, 0.00, -16005.57, 0.00, 0.000, 0.000, 0.000, 15:08:02.949, 1551730082949
244, -20839.98, 0.00, 0.00, 0.00, 0.00, 0.00, -16004.47, 0.00, 0.000, 0.000, 0.000, 15:08:02.954, 1551730082954
245, -20786.43, 0.00, 0.00, 0.00, 0.00, 0.00, -15958.70, 0.00, 0.000, 0.000, 0.000, 15:08:02.954, 1551730082954
246, -20818.23, 0.00, 0.00, 0.00, 0.00, 0.00, -15948.33, 0.00, 0.000, 0.000, 0.000, 15:08:02.960, 1551730082960
247, -20890.70, 0.00, 0.00, 0.00, 0.00, 0.00, -16000.32, 0.00, -0.698, 0.598, -0.356, 15:08:02.960, 1551730082960
248, -20832.41, 0.00, 0.00, 0.00, 0.00, 0.00, -15981.09, 0.00, 0.000, 0.000, 0.000, 15:08:02.969, 1551730082969
249, -20788.26, 0.00, 0.00, 0.00, 0.00, 0.00, -15960.73, 0.00, 0.000, 0.000, 0.000, 15:08:02.969, 1551730082969
250, -20796.44, 0.00, 0.00, 0.00, 0.00, 0.00, -15934.25, 0.00, 0.000, 0.000, 0.000, 15:08:02.976, 1551730082976
251, -20882.77, 0.00, 0.00, 0.00, 0.00, 0.00, -15983.60, 0.00, 0.000, 0.000, 0.000, 15:08:02.976, 1551730082976
252, -20851.20, 0.00, 0.00, 0.00, 0.00, 0.00, -16003.09, 0.00, 0.000, 0.000, 0.000, 15:08:02.987, 1551730082987
253, -20804.80, 0.00, 0.00, 0.00, 0.00, 0.00, -15974.54, 0.00, 0.000, 0.000, 0.000, 15:08:02.987, 1551730082987
254, -20803.91, 0.00, 0.00, 0.00, 0.00, 0.00, -15943.66, 0.00, 0.000, 0.000, 0.000, 15:08:02.991, 1551730082991
255, -20873.02, 0.00, 0.00, 0.00, 0.00, 0.00, -15965.20, 0.00, 0.000, 0.000, 0.000, 15:08:02.991, 1551730082991
0, -20856.84, 0.00, 0.00, 0.00, 0.00, 0.00, -15993.46, 0.00, 0.000, 0.000, 0.000, 15:08:02.999, 1551730082999
1, -20854.42, 0.00, 0.00, 0.00, 0.00, 0.00, -15990.19, 0.00, -0.696, 0.604, -0.350, 15:08:02.999, 1551730082999
2, -20781.62, 0.00, 0.00, 0.00, 0.00, 0.00, -15938.29, 0.00, 0.000, 0.000, 0.000, 15:08:03.006, 1551730083006
3, -20896.47, 0.00, 0.00, 0.00, 0.00, 0.00, -15975.60, 0.00, 0.000, 0.000, 0.000, 15:08:03.013, 1551730083013
4, -20855.85, 0.00, 0.00, 0.00, 0.00, 0.00, -15999.51, 0.00, 0.000, 0.000, 0.000, 15:08:03.014, 1551730083014
5, -20798.39, 0.00, 0.00, 0.00, 0.00, 0.00, -15966.83, 0.00, 0.000, 0.000, 0.000, 15:08:03.020, 1551730083020
6, -20775.41, 0.00, 0.00, 0.00, 0.00, 0.00, -15938.04, 0.00, 0.000, 0.000, 0.000, 15:08:03.022, 1551730083022
7, -20847.63, 0.00, 0.00, 0.00, 0.00, 0.00, -15949.29, 0.00, 0.000, 0.000, 0.000, 15:08:03.028, 1551730083028
8, -20873.22, 0.00, 0.00, 0.00, 0.00, 0.00, -15987.35, 0.00, 0.000, 0.000, 0.000, 15:08:03.029, 1551730083029
9, -20830.51, 0.00, 0.00, 0.00, 0.00, 0.00, -15990.06, 0.00, 0.000, 0.000, 0.000, 15:08:03.036, 1551730083036
10, -20794.70, 0.00, 0.00, 0.00, 0.00, 0.00, -15960.96, 0.00, 0.000, 0.000, 0.000, 15:08:03.037, 1551730083037
11, -20842.13, 0.00, 0.00, 0.00, 0.00, 0.00, -15947.23, 0.00, -0.702, 0.600, -0.344, 15:08:03.043, 1551730083043
12, -20887.17, 0.00, 0.00, 0.00, 0.00, 0.00, -15989.92, 0.00, 0.000, 0.000, 0.000, 15:08:03.043, 1551730083043
13, -20835.22, 0.00, 0.00, 0.00, 0.00, 0.00, -15986.24, 0.00, 0.000, 0.000, 0.000, 15:08:03.052, 1551730083052
14, -20793.92, 0.00, 0.00, 0.00, 0.00, 0.00, -15958.00, 0.00, 0.000, 0.000, 0.000, 15:08:03.053, 1551730083053
15, -20806.23, 0.00, 0.00, 0.00, 0.00, 0.00, -15930.31, 0.00, 0.000, 0.000, 0.000, 15:08:03.059, 1551730083059
16, -20897.40, 0.00, 0.00, 0.00, 0.00, 0.00, -15990.04, 0.00, 0.000, 0.000, 0.000, 15:08:03.059, 1551730083059
17, -20838.58, 0.00, 0.00, 0.00, 0.00, 0.00, -15998.31, 0.00, 0.000, 0.000, 0.000, 15:08:03.065, 1551730083065
18, -20795.01, 0.00, 0.00, 0.00, 0.00, 0.00, -15970.46, 0.00, 0.000, 0.000, 0.000, 15:08:03.073, 1551730083073
19, -20811.42, 0.00, 0.00, 0.00, 0.00, 0.00, -15950.23, 0.00, 0.000, 0.000, 0.000, 15:08:03.073, 1551730083073
20, -20915.29, 0.00, 0.00, 0.00, 0.00, 0.00, -16003.04, 0.00, 0.000, 0.000, 0.000, 15:08:03.089, 1551730083089
21, -20848.05, 0.00, 0.00, 0.00, 0.00, 0.00, -16002.37, 0.00, -0.700, 0.600, -0.348, 15:08:03.089, 1551730083089
22, -20793.85, 0.00, 0.00, 0.00, 0.00, 0.00, -15972.31, 0.00, 0.000, 0.000, 0.000, 15:08:03.091, 1551730083091
23, -20778.36, 0.00, 0.00, 0.00, 0.00, 0.00, -15936.10, 0.00, 0.000, 0.000, 0.000, 15:08:03.092, 1551730083092
24, -20876.73, 0.00, 0.00, 0.00, 0.00, 0.00, -15983.75, 0.00, 0.000, 0.000, 0.000, 15:08:03.095, 1551730083095
25, -20860.70, 0.00, 0.00, 0.00, 0.00, 0.00, -16008.01, 0.00, 0.000, 0.000, 0.000, 15:08:03.096, 1551730083096
26, -20808.40, 0.00, 0.00, 0.00, 0.00, 0.00, -15982.82, 0.00, 0.000, 0.000, 0.000, 15:08:03.103, 1551730083103
27, -20777.96, 0.00, 0.00, 0.00, 0.00, 0.00, -15939.05, 0.00, 0.000, 0.000, 0.000, 15:08:03.104, 1551730083104
28, -20870.05, 0.00, 0.00, 0.00, 0.00, 0.00, -15968.11, 0.00, 0.000, 0.000, 0.000, 15:08:03.111, 1551730083111
29, -20879.28, 0.00, 0.00, 0.00, 0.00, 0.00, -16002.66, 0.00, 0.000, 0.000, 0.000, 15:08:03.112, 1551730083112
30, -20822.82, 0.00, 0.00, 0.00, 0.00, 0.00, -15980.25, 0.00, -0.702, 0.598, -0.352, 15:08:03.119, 1551730083119
31, -20777.06, 0.00, 0.00, 0.00, 0.00, 0.00, -15941.33, 0.00, 0.000, 0.000, 0.000, 15:08:03.119, 1551730083119
32, -20847.87, 0.00, 0.00, 0.00, 0.00, 0.00, -15950.67, 0.00, 0.000, 0.000, 0.000, 15:08:03.126, 1551730083126
33, -20878.85, 0.00, 0.00, 0.00, 0.00, 0.00, -15996.05, 0.00, 0.000, 0.000, 0.000, 15:08:03.133, 1551730083133
34, -20834.55, 0.00, 0.00, 0.00, 0.00, 0.00, -15988.78, 0.00, 0.000, 0.000, 0.000, 15:08:03.133, 1551730083133
35, -20788.31, 0.00, 0.00, 0.00, 0.00, 0.00, -15953.71, 0.00, 0.000, 0.000, 0.000, 15:08:03.141, 1551730083141
36, -20826.37, 0.00, 0.00, 0.00, 0.00, 0.00, -15950.34, 0.00, 0.000, 0.000, 0.000, 15:08:03.142, 1551730083142
37, -20883.81, 0.00, 0.00, 0.00, 0.00, 0.00, -15999.74, 0.00, 0.000, 0.000, 0.000, 15:08:03.148, 1551730083148
38, -20832.70, 0.00, 0.00, 0.00, 0.00, 0.00, -15995.62, 0.00, 0.000, 0.000, 0.000, 15:08:03.148, 1551730083148
39, -20782.74, 0.00, 0.00, 0.00, 0.00, 0.00, -15963.19, 0.00, 0.000, 0.000, 0.000, 15:08:03.156, 1551730083156
40, -20810.19, 0.00, 0.00, 0.00, 0.00, 0.00, -15943.16, 0.00, -0.700, 0.602, -0.358, 15:08:03.156, 1551730083156
41, -20880.37, 0.00, 0.00, 0.00, 0.00, 0.00, -15987.00, 0.00, 0.000, 0.000, 0.000, 15:08:03.164, 1551730083164
42, -20831.87, 0.00, 0.00, 0.00, 0.00, 0.00, -15987.78, 0.00, 0.000, 0.000, 0.000, 15:08:03.164, 1551730083164
43, -20788.13, 0.00, 0.00, 0.00, 0.00, 0.00, -15960.96, 0.00, 0.000, 0.000, 0.000, 15:08:03.172, 1551730083172
44, -20785.51, 0.00, 0.00, 0.00, 0.00, 0.00, -15934.69, 0.00, 0.000, 0.000, 0.000, 15:08:03.172, 1551730083172
45, -20873.58, 0.00, 0.00, 0.00, 0.00, 0.00, -15979.31, 0.00, 0.000, 0.000, 0.000, 15:08:03.178, 1551730083178
46, -20836.05, 0.00, 0.00, 0.00, 0.00, 0.00, -15991.82, 0.00, 0.000, 0.000, 0.000, 15:08:03.178, 1551730083178
47, -20790.90, 0.00, 0.00, 0.00, 0.00, 0.00, -15965.69, 0.00, 0.000, 0.000, 0.000, 15:08:03.193, 1551730083193
48, -20779.75, 0.00, 0.00, 0.00, 0.00, 0.00, -15937.40, 0.00, 0.000, 0.000, 0.000, 15:08:03.194, 1551730083194
49, -20870.92, 0.00, 0.00, 0.00, 0.00, 0.00, -15973.65, 0.00, 0.000, 0.000, 0.000, 15:08:03.195, 1551730083195
50, -20859.03, 0.00, 0.00, 0.00, 0.00, 0.00, -15998.19, 0.00, -0.702, 0.596, -0.358, 15:08:03.200, 1551730083200
51, -20804.49, 0.00, 0.00, 0.00, 0.00, 0.00, -15979.98, 0.00, 0.000, 0.000, 0.000, 15:08:03.201, 1551730083201
52, -20779.43, 0.00, 0.00, 0.00, 0.00, 0.00, -15948.80, 0.00, 0.000, 0.000, 0.000, 15:08:03.208, 1551730083208
53, -20863.43, 0.00, 0.00, 0.00, 0.00, 0.00, -15973.52, 0.00, 0.000, 0.000, 0.000, 15:08:03.209, 1551730083209
54, -20877.13, 0.00, 0.00, 0.00, 0.00, 0.00, -16013.26, 0.00, 0.000, 0.000, 0.000, 15:08:03.216, 1551730083216
55, -20818.86, 0.00, 0.00, 0.00, 0.00, 0.00, -15993.68, 0.00, 0.000, 0.000, 0.000, 15:08:03.216, 1551730083216
56, -20777.00, 0.00, 0.00, 0.00, 0.00, 0.00, -15952.91, 0.00, 0.000, 0.000, 0.000, 15:08:03.225, 1551730083225
57, -20836.09, 0.00, 0.00, 0.00, 0.00, 0.00, -15956.22, 0.00, 0.000, 0.000, 0.000, 15:08:03.225, 1551730083225
58, -20862.80, 0.00, 0.00, 0.00, 0.00, 0.00, -15989.23, 0.00, 0.000, 0.000, 0.000, 15:08:03.237, 1551730083237
59, -20819.06, 0.00, 0.00, 0.00, 0.00, 0.00, -15982.82, 0.00, 0.000, 0.000, 0.000, 15:08:03.237, 1551730083237
60, -20777.35, 0.00, 0.00, 0.00, 0.00, 0.00, -15946.81, 0.00, -0.700, 0.598, -0.356, 15:08:03.239, 1551730083239
61, -20797.98, 0.00, 0.00, 0.00, 0.00, 0.00, -15937.73, 0.00, 0.000, 0.000, 0.000, 15:08:03.239, 1551730083239
62, -20867.90, 0.00, 0.00, 0.00, 0.00, 0.00, -15990.79, 0.00, 0.000, 0.000, 0.000, 15:08:03.247, 1551730083247
63, -20815.51, 0.00, 0.00, 0.00, 0.00, 0.00, -15987.58, 0.00, 0.000, 0.000, 0.000, 15:08:03.247, 1551730083247
64, -20767.90, 0.00, 0.00, 0.00, 0.00, 0.00, -15954.43, 0.00, 0.000, 0.000, 0.000, 15:08:03.254, 1551730083254
65, -20792.69, 0.00, 0.00, 0.00, 0.00, 0.00, -15938.63, 0.00, 0.000, 0.000, 0.000, 15:08:03.260, 1551730083260
66, -20871.75, 0.00, 0.00, 0.00, 0.00, 0.00, -15981.97, 0.00, 0.000, 0.000, 0.000, 15:08:03.260, 1551730083260
67, -20829.84, 0.00, 0.00, 0.00, 0.00, 0.00, -15991.31, 0.00, 0.000, 0.000, 0.000, 15:08:03.270, 1551730083270
68, -20775.65, 0.00, 0.00, 0.00, 0.00, 0.00, -15962.07, 0.00, 0.000, 0.000, 0.000, 15:08:03.270, 1551730083270
69, -20783.41, 0.00, 0.00, 0.00, 0.00, 0.00, -15943.30, 0.00, 0.000, 0.000, 0.000, 15:08:03.277, 1551730083277
70, -20877.24, 0.00, 0.00, 0.00, 0.00, 0.00, -15983.78, 0.00, -0.700, 0.602, -0.358, 15:08:03.277, 1551730083277
71, -20846.06, 0.00, 0.00, 0.00, 0.00, 0.00, -15999.51, 0.00, 0.000, 0.000, 0.000, 15:08:03.284, 1551730083284
72, -20802.88, 0.00, 0.00, 0.00, 0.00, 0.00, -15980.51, 0.00, 0.000, 0.000, 0.000, 15:08:03.284, 1551730083284
73, -20779.12, 0.00, 0.00, 0.00, 0.00, 0.00, -15944.71, 0.00, 0.000, 0.000, 0.000, 15:08:03.291, 1551730083291
74, -20872.30, 0.00, 0.00, 0.00, 0.00, 0.00, -15979.89, 0.00, 0.000, 0.000, 0.000, 15:08:03.291, 1551730083291
75, -20862.60, 0.00, 0.00, 0.00, 0.00, 0.00, -16003.45, 0.00, 0.000, 0.000, 0.000, 15:08:03.299, 1551730083299
76, -20807.66, 0.00, 0.00, 0.00, 0.00, 0.00, -15983.22, 0.00, 0.000, 0.000, 0.000, 15:08:03.299, 1551730083299
77, -20786.99, 0.00, 0.00, 0.00, 0.00, 0.00, -15952.37, 0.00, 0.000, 0.000, 0.000, 15:08:03.309, 1551730083309
78, -20869.02, 0.00, 0.00, 0.00, 0.00, 0.00, -15972.78, 0.00, 0.000, 0.000, 0.000, 15:08:03.310, 1551730083310
79, -20888.44, 0.00, 0.00, 0.00, 0.00, 0.00, -16010.02, 0.00, 0.000, 0.000, 0.000, 15:08:03.314, 1551730083314
80, -20831.06, 0.00, 0.00, 0.00, 0.00, 0.00, -15997.86, 0.00, -0.700, 0.598, -0.352, 15:08:03.320, 1551730083320
81, -20777.35, 0.00, 0.00, 0.00, 0.00, 0.00, -15955.21, 0.00, 0.000, 0.000, 0.000, 15:08:03.320, 1551730083320
82, -20828.94, 0.00, 0.00, 0.00, 0.00, 0.00, -15952.53, 0.00, 0.000, 0.000, 0.000, 15:08:03.328, 1551730083328
83, -20877.33, 0.00, 0.00, 0.00, 0.00, 0.00, -15998.80, 0.00, 0.000, 0.000, 0.000, 15:08:03.330, 1551730083330
84, -20824.31, 0.00, 0.00, 0.00, 0.00, 0.00, -15990.37, 0.00, 0.000, 0.000, 0.000, 15:08:03.336, 1551730083336
85, -20783.99, 0.00, 0.00, 0.00, 0.00, 0.00, -15956.84, 0.00, 0.000, 0.000, 0.000, 15:08:03.336, 1551730083336
86, -20822.55, 0.00, 0.00, 0.00, 0.00, 0.00, -15943.41, 0.00, 0.000, 0.000, 0.000, 15:08:03.346, 1551730083346
87, -20888.80, 0.00, 0.00, 0.00, 0.00, 0.00, -15989.19, 0.00, 0.000, 0.000, 0.000, 15:08:03.347, 1551730083347
88, -20839.58, 0.00, 0.00, 0.00, 0.00, 0.00, -15991.87, 0.00, 0.000, 0.000, 0.000, 15:08:03.351, 1551730083351
89, -20796.82, 0.00, 0.00, 0.00, 0.00, 0.00, -15964.82, 0.00, 0.000, 0.000, 0.000, 15:08:03.351, 1551730083351
90, -20813.65, 0.00, 0.00, 0.00, 0.00, 0.00, -15945.20, 0.00, -0.702, 0.596, -0.352, 15:08:03.360, 1551730083360
91, -20894.54, 0.00, 0.00, 0.00, 0.00, 0.00, -15988.90, 0.00, 0.000, 0.000, 0.000, 15:08:03.360, 1551730083360
92, -20852.63, 0.00, 0.00, 0.00, 0.00, 0.00, -15996.61, 0.00, 0.000, 0.000, 0.000, 15:08:03.366, 1551730083366
93, -20807.78, 0.00, 0.00, 0.00, 0.00, 0.00, -15970.12, 0.00, 0.000, 0.000, 0.000, 15:08:03.366, 1551730083366
94, -20795.75, 0.00, 0.00, 0.00, 0.00, 0.00, -15941.69, 0.00, 0.000, 0.000, 0.000, 15:08:03.379, 1551730083379
95, -20890.54, 0.00, 0.00, 0.00, 0.00, 0.00, -15982.99, 0.00, 0.000, 0.000, 0.000, 15:08:03.381, 1551730083381
96, -20868.35, 0.00, 0.00, 0.00, 0.00, 0.00, -15999.67, 0.00, 0.000, 0.000, 0.000, 15:08:03.381, 1551730083381
97, -20824.38, 0.00, 0.00, 0.00, 0.00, 0.00, -15979.95, 0.00, 0.000, 0.000, 0.000, 15:08:03.389, 1551730083389
98, -20795.48, 0.00, 0.00, 0.00, 0.00, 0.00, -15943.10, 0.00, 0.000, 0.000, 0.000, 15:08:03.389, 1551730083389
99, -20882.36, 0.00, 0.00, 0.00, 0.00, 0.00, -15970.12, 0.00, -0.698, 0.600, -0.350, 15:08:03.396, 1551730083396
100, -20889.36, 0.00, 0.00, 0.00, 0.00, 0.00, -16005.28, 0.00, 0.000, 0.000, 0.000, 15:08:03.396, 1551730083396
101, -20832.52, 0.00, 0.00, 0.00, 0.00, 0.00, -15985.50, 0.00, 0.000, 0.000, 0.000, 15:08:03.403, 1551730083403
102, -20784.06, 0.00, 0.00, 0.00, 0.00, 0.00, -15945.89, 0.00, 0.000, 0.000, 0.000, 15:08:03.403, 1551730083403
103, -20860.21, 0.00, 0.00, 0.00, 0.00, 0.00, -15960.13, 0.00, 0.000, 0.000, 0.000, 15:08:03.412, 1551730083412
104, -20893.27, 0.00, 0.00, 0.00, 0.00, 0.00, -16003.76, 0.00, 0.000, 0.000, 0.000, 15:08:03.412, 1551730083412
105, -20833.12, 0.00, 0.00, 0.00, 0.00, 0.00, -15990.97, 0.00, 0.000, 0.000, 0.000, 15:08:03.418, 1551730083418
106, -20786.03, 0.00, 0.00, 0.00, 0.00, 0.00, -15956.95, 0.00, 0.000, 0.000, 0.000, 15:08:03.419, 1551730083419
107, -20850.69, 0.00, 0.00, 0.00, 0.00, 0.00, -15966.01, 0.00, 0.000, 0.000, 0.000, 15:08:03.426, 1551730083426
108, -20902.75, 0.00, 0.00, 0.00, 0.00, 0.00, -16009.37, 0.00, 0.000, 0.000, 0.000, 15:08:03.427, 1551730083427
109, -20845.84, 0.00, 0.00, 0.00, 0.00, 0.00, -16000.58, 0.00, -0.696, 0.600, -0.352, 15:08:03.433, 1551730083433
110, -20800.71, 0.00, 0.00, 0.00, 0.00, 0.00, -15970.12, 0.00, 0.000, 0.000, 0.000, 15:08:03.433, 1551730083433
111, -20832.65, 0.00, 0.00, 0.00, 0.00, 0.00, -15957.40, 0.00, 0.000, 0.000, 0.000, 15:08:03.441, 1551730083441
112, -20909.70, 0.00, 0.00, 0.00, 0.00, 0.00, -16000.45, 0.00, 0.000, 0.000, 0.000, 15:08:03.450, 1551730083450
113, -20857.53, 0.00, 0.00, 0.00, 0.00, 0.00, -16002.44, 0.00, 0.000, 0.000, 0.000, 15:08:03.451, 1551730083451
114, -20810.63, 0.00, 0.00, 0.00, 0.00, 0.00, -15973.50, 0.00, 0.000, 0.000, 0.000, 15:08:03.456, 1551730083456
115, -20813.52, 0.00, 0.00, 0.00, 0.00, 0.00, -15945.47, 0.00, 0.000, 0.000, 0.000, 15:08:03.456, 1551730083456
116, -20909.70, 0.00, 0.00, 0.00, 0.00, 0.00, -15994.13, 0.00, 0.000, 0.000, 0.000, 15:08:03.464, 1551730083464
117, -20869.09, 0.00, 0.00, 0.00, 0.00, 0.00, -16004.27, 0.00, 0.000, 0.000, 0.000, 15:08:03.464, 1551730083464
118, -20818.10, 0.00, 0.00, 0.00, 0.00, 0.00, -15981.30, 0.00, 0.000, 0.000, 0.000, 15:08:03.472, 1551730083472
119, -20804.24, 0.00, 0.00, 0.00, 0.00, 0.00, -15950.56, 0.00, -0.700, 0.600, -0.356, 15:08:03.472, 1551730083472
120, -20900.42, 0.00, 0.00, 0.00, 0.00, 0.00, -15989.90, 0.00, 0.000, 0.000, 0.000, 15:08:03.484, 1551730083484
121, -20878.36, 0.00, 0.00, 0.00, 0.00, 0.00, -16009.46, 0.00, 0.000, 0.000, 0.000, 15:08:03.485, 1551730083485
122, -20824.43, 0.00, 0.00, 0.00, 0.00, 0.00, -15985.65, 0.00, 0.000, 0.000, 0.000, 15:08:03.487, 1551730083487
123, -20797.00, 0.00, 0.00, 0.00, 0.00, 0.00, -15947.28, 0.00, 0.000, 0.000, 0.000, 15:08:03.487, 1551730083487
124, -20886.07, 0.00, 0.00, 0.00, 0.00, 0.00, -15977.00, 0.00, 0.000, 0.000, 0.000, 15:08:03.494, 1551730083494
125, -20893.94, 0.00, 0.00, 0.00, 0.00, 0.00, -16011.43, 0.00, 0.000, 0.000, 0.000, 15:08:03.494, 1551730083494
126, -20828.27, 0.00, 0.00, 0.00, 0.00, 0.00, -15989.19, 0.00, 0.000, 0.000, 0.000, 15:08:03.500, 1551730083500
127, -20783.03, 0.00, 0.00, 0.00, 0.00, 0.00, -15942.11, 0.00, 0.000, 0.000, 0.000, 15:08:03.508, 1551730083508
128, -20851.03, 0.00, 0.00, 0.00, 0.00, 0.00, -15953.78, 0.00, 0.000, 0.000, 0.000, 15:08:03.508, 1551730083508
129, -20884.15, 0.00, 0.00, 0.00, 0.00, 0.00, -15995.94, 0.00, -0.700, 0.598, -0.352, 15:08:03.516, 1551730083516
130, -20823.73, 0.00, 0.00, 0.00, 0.00, 0.00, -15982.57, 0.00, 0.000, 0.000, 0.000, 15:08:03.516, 1551730083516
131, -20777.26, 0.00, 0.00, 0.00, 0.00, 0.00, -15945.85, 0.00, 0.000, 0.000, 0.000, 15:08:03.524, 1551730083524
132, -20826.10, 0.00, 0.00, 0.00, 0.00, 0.00, -15942.14, 0.00, 0.000, 0.000, 0.000, 15:08:03.524, 1551730083524
133, -20887.12, 0.00, 0.00, 0.00, 0.00, 0.00, -15989.99, 0.00, 0.000, 0.000, 0.000, 15:08:03.530, 1551730083530
134, -20831.18, 0.00, 0.00, 0.00, 0.00, 0.00, -15982.86, 0.00, 0.000, 0.000, 0.000, 15:08:03.531, 1551730083531
135, -20786.76, 0.00, 0.00, 0.00, 0.00, 0.00, -15949.51, 0.00, 0.000, 0.000, 0.000, 15:08:03.538, 1551730083538
136, -20813.63, 0.00, 0.00, 0.00, 0.00, 0.00, -15933.04, 0.00, 0.000, 0.000, 0.000, 15:08:03.539, 1551730083539
137, -20890.41, 0.00, 0.00, 0.00, 0.00, 0.00, -15982.44, 0.00, 0.000, 0.000, 0.000, 15:08:03.546, 1551730083546
138, -20841.37, 0.00, 0.00, 0.00, 0.00, 0.00, -15991.00, 0.00, 0.000, 0.000, 0.000, 15:08:03.547, 1551730083547
139, -20798.95, 0.00, 0.00, 0.00, 0.00, 0.00, -15964.38, 0.00, -0.700, 0.602, -0.356, 15:08:03.554, 1551730083554
140, -20799.33, 0.00, 0.00, 0.00, 0.00, 0.00, -15935.05, 0.00, 0.000, 0.000, 0.000, 15:08:03.554, 1551730083554
141, -20895.68, 0.00, 0.00, 0.00, 0.00, 0.00, -15979.26, 0.00, 0.000, 0.000, 0.000, 15:08:03.562, 1551730083562
142, -20858.47, 0.00, 0.00, 0.00, 0.00, 0.00, -15991.55, 0.00, 0.000, 0.000, 0.000, 15:08:03.570, 1551730083570
143, -20806.39, 0.00, 0.00, 0.00, 0.00, 0.00, -15969.27, 0.00, 0.000, 0.000, 0.000, 15:08:03.570, 1551730083570
144, -20792.75, 0.00, 0.00, 0.00, 0.00, 0.00, -15934.80, 0.00, 0.000, 0.000, 0.000, 15:08:03.576, 1551730083576
145, -20866.52, 0.00, 0.00, 0.00, 0.00, 0.00, -15958.83, 0.00, 0.000, 0.000, 0.000, 15:08:03.576, 1551730083576
146, -20857.22, 0.00, 0.00, 0.00, 0.00, 0.00, -15987.91, 0.00, 0.000, 0.000, 0.000, 15:08:03.587, 1551730083587
147, -20807.33, 0.00, 0.00, 0.00, 0.00, 0.00, -15970.37, 0.00, 0.000, 0.000, 0.000, 15:08:03.588, 1551730083588
148, -20773.17, 0.00, 0.00, 0.00, 0.00, 0.00, -15935.90, 0.00, 0.000, 0.000, 0.000, 15:08:03.591, 1551730083591
149, -20854.15, 0.00, 0.00, 0.00, 0.00, 0.00, -15957.94, 0.00, -0.706, 0.596, -0.352, 15:08:03.591, 1551730083591
150, -20875.01, 0.00, 0.00, 0.00, 0.00, 0.00, -15990.88, 0.00, 0.000, 0.000, 0.000, 15:08:03.599, 1551730083599
151, -20810.52, 0.00, 0.00, 0.00, 0.00, 0.00, -15971.68, 0.00, 0.000, 0.000, 0.000, 15:08:03.599, 1551730083599
152, -20769.11, 0.00, 0.00, 0.00, 0.00, 0.00, -15933.26, 0.00, 0.000, 0.000, 0.000, 15:08:03.606, 1551730083606
153, -20832.63, 0.00, 0.00, 0.00, 0.00, 0.00, -15940.41, 0.00, 0.000, 0.000, 0.000, 15:08:03.606, 1551730083606
154, -20870.61, 0.00, 0.00, 0.00, 0.00, 0.00, -15981.88, 0.00, 0.000, 0.000, 0.000, 15:08:03.613, 1551730083613
155, -20810.84, 0.00, 0.00, 0.00, 0.00, 0.00, -15970.90, 0.00, 0.000, 0.000, 0.000, 15:08:03.613, 1551730083613
156, -20771.92, 0.00, 0.00, 0.00, 0.00, 0.00, -15941.11, 0.00, 0.000, 0.000, 0.000, 15:08:03.621, 1551730083621
157, -20816.04, 0.00, 0.00, 0.00, 0.00, 0.00, -15931.90, 0.00, 0.000, 0.000, 0.000, 15:08:03.629, 1551730083629
158, -20864.48, 0.00, 0.00, 0.00, 0.00, 0.00, -15975.89, 0.00, -0.706, 0.592, -0.358, 15:08:03.629, 1551730083629
159, -20811.57, 0.00, 0.00, 0.00, 0.00, 0.00, -15970.54, 0.00, 0.000, 0.000, 0.000, 15:08:03.636, 1551730083636
160, -20771.68, 0.00, 0.00, 0.00, 0.00, 0.00, -15941.71, 0.00, 0.000, 0.000, 0.000, 15:08:03.636, 1551730083636
161, -20796.91, 0.00, 0.00, 0.00, 0.00, 0.00, -15929.01, 0.00, 0.000, 0.000, 0.000, 15:08:03.643, 1551730083643
162, -20882.72, 0.00, 0.00, 0.00, 0.00, 0.00, -15971.30, 0.00, 0.000, 0.000, 0.000, 15:08:03.644, 1551730083644
163, -20833.97, 0.00, 0.00, 0.00, 0.00, 0.00, -15975.82, 0.00, 0.000, 0.000, 0.000, 15:08:03.651, 1551730083651
164, -20797.07, 0.00, 0.00, 0.00, 0.00, 0.00, -15957.40, 0.00, 0.000, 0.000, 0.000, 15:08:03.652, 1551730083652
165, -20792.11, 0.00, 0.00, 0.00, 0.00, 0.00, -15930.71, 0.00, 0.000, 0.000, 0.000, 15:08:03.660, 1551730083660
166, -20889.16, 0.00, 0.00, 0.00, 0.00, 0.00, -15969.83, 0.00, 0.000, 0.000, 0.000, 15:08:03.660, 1551730083660
167, -20848.97, 0.00, 0.00, 0.00, 0.00, 0.00, -15983.75, 0.00, 0.000, 0.000, 0.000, 15:08:03.666, 1551730083666
168, -20803.30, 0.00, 0.00, 0.00, 0.00, 0.00, -15961.11, 0.00, -0.706, 0.598, -0.354, 15:08:03.666, 1551730083666
169, -20792.55, 0.00, 0.00, 0.00, 0.00, 0.00, -15932.86, 0.00, 0.000, 0.000, 0.000, 15:08:03.674, 1551730083674
170, -20859.97, 0.00, 0.00, 0.00, 0.00, 0.00, -15954.45, 0.00, 0.000, 0.000, 0.000, 15:08:03.674, 1551730083674
171, -20854.71, 0.00, 0.00, 0.00, 0.00, 0.00, -15981.43, 0.00, 0.000, 0.000, 0.000, 15:08:03.681, 1551730083681
172, -20805.03, 0.00, 0.00, 0.00, 0.00, 0.00, -15966.45, 0.00, 0.000, 0.000, 0.000, 15:08:03.681, 1551730083681
173, -20759.38, 0.00, 0.00, 0.00, 0.00, 0.00, -15921.73, 0.00, 0.000, 0.000, 0.000, 15:08:03.689, 1551730083689
174, -20836.29, 0.00, 0.00, 0.00, 0.00, 0.00, -15936.50, 0.00, 0.000, 0.000, 0.000, 15:08:03.698, 1551730083698
175, -20860.28, 0.00, 0.00, 0.00, 0.00, 0.00, -15977.74, 0.00, 0.000, 0.000, 0.000, 15:08:03.698, 1551730083698
176, -20808.67, 0.00, 0.00, 0.00, 0.00, 0.00, -15966.23, 0.00, 0.000, 0.000, 0.000, 15:08:03.703, 1551730083703
177, -20747.45, 0.00, 0.00, 0.00, 0.00, 0.00, -15921.50, 0.00, 0.000, 0.000, 0.000, 15:08:03.704, 1551730083704
178, -20808.29, 0.00, 0.00, 0.00, 0.00, 0.00, -15927.72, 0.00, -0.710, 0.600, -0.356, 15:08:03.712, 1551730083712
179, -20868.71, 0.00, 0.00, 0.00, 0.00, 0.00, -15972.27, 0.00, 0.000, 0.000, 0.000, 15:08:03.712, 1551730083712
180, -20805.92, 0.00, 0.00, 0.00, 0.00, 0.00, -15959.93, 0.00, 0.000, 0.000, 0.000, 15:08:03.718, 1551730083718
181, -20765.42, 0.00, 0.00, 0.00, 0.00, 0.00, -15929.91, 0.00, 0.000, 0.000, 0.000, 15:08:03.718, 1551730083718
182, -20793.69, 0.00, 0.00, 0.00, 0.00, 0.00, -15920.52, 0.00, 0.000, 0.000, 0.000, 15:08:03.726, 1551730083726
183, -20862.20, 0.00, 0.00, 0.00, 0.00, 0.00, -15967.71, 0.00, 0.000, 0.000, 0.000, 15:08:03.727, 1551730083727
184, -20814.99, 0.00, 0.00, 0.00, 0.00, 0.00, -15968.17, 0.00, 0.000, 0.000, 0.000, 15:08:03.736, 1551730083736
185, -20771.95, 0.00, 0.00, 0.00, 0.00, 0.00, -15937.08, 0.00, 0.000, 0.000, 0.000, 15:08:03.737, 1551730083737
186, -20791.08, 0.00, 0.00, 0.00, 0.00, 0.00, -15919.63, 0.00, 0.000, 0.000, 0.000, 15:08:03.741, 1551730083741
187, -20876.95, 0.00, 0.00, 0.00, 0.00, 0.00, -15968.62, 0.00, 0.000, 0.000, 0.000, 15:08:03.741, 1551730083741
188, -20843.83, 0.00, 0.00, 0.00, 0.00, 0.00, -15981.14, 0.00, -0.710, 0.604, -0.360, 15:08:03.748, 1551730083748
189, -20789.45, 0.00, 0.00, 0.00, 0.00, 0.00, -15951.14, 0.00, 0.000, 0.000, 0.000, 15:08:03.756, 1551730083756
190, -20762.20, 0.00, 0.00, 0.00, 0.00, 0.00, -15915.02, 0.00, 0.000, 0.000, 0.000, 15:08:03.756, 1551730083756
191, -20892.06, 0.00, 0.00, 0.00, 0.00, 0.00, -15960.24, 0.00, 0.000, 0.000, 0.000, 15:08:03.764, 1551730083764
192, -20889.29, 0.00, 0.00, 0.00, 0.00, 0.00, -15993.77, 0.00, 0.000, 0.000, 0.000, 15:08:03.764, 1551730083764
193, -20797.74, 0.00, 0.00, 0.00, 0.00, 0.00, -15967.42, 0.00, 0.000, 0.000, 0.000, 15:08:03.771, 1551730083771
194, -20730.10, 0.00, 0.00, 0.00, 0.00, 0.00, -15909.77, 0.00, 0.000, 0.000, 0.000, 15:08:03.772, 1551730083772
195, -20851.07, 0.00, 0.00, 0.00, 0.00, 0.00, -15931.90, 0.00, 0.000, 0.000, 0.000, 15:08:03.778, 1551730083778
196, -20885.56, 0.00, 0.00, 0.00, 0.00, 0.00, -15984.92, 0.00, 0.000, 0.000, 0.000, 15:08:03.778, 1551730083778
197, -20811.24, 0.00, 0.00, 0.00, 0.00, 0.00, -15969.29, 0.00, 0.000, 0.000, 0.000, 15:08:03.786, 1551730083786
198, -20737.25, 0.00, 0.00, 0.00, 0.00, 0.00, -15924.66, 0.00, -0.708, 0.600, -0.352, 15:08:03.786, 1551730083786
199, -20828.83, 0.00, 0.00, 0.00, 0.00, 0.00, -15929.46, 0.00, 0.000, 0.000, 0.000, 15:08:03.795, 1551730083795
200, -20897.61, 0.00, 0.00, 0.00, 0.00, 0.00, -15985.45, 0.00, 0.000, 0.000, 0.000, 15:08:03.800, 1551730083800
201, -20828.23, 0.00, 0.00, 0.00, 0.00, 0.00, -15979.87, 0.00, 0.000, 0.000, 0.000, 15:08:03.802, 1551730083802
202, -20736.99, 0.00, 0.00, 0.00, 0.00, 0.00, -15929.95, 0.00, 0.000, 0.000, 0.000, 15:08:03.802, 1551730083802
203, -20801.90, 0.00, 0.00, 0.00, 0.00, 0.00, -15922.94, 0.00, 0.000, 0.000, 0.000, 15:08:03.808, 1551730083808
204, -20913.70, 0.00, 0.00, 0.00, 0.00, 0.00, -15991.80, 0.00, 0.000, 0.000, 0.000, 15:08:03.816, 1551730083816
205, -20849.35, 0.00, 0.00, 0.00, 0.00, 0.00, -15991.64, 0.00, 0.000, 0.000, 0.000, 15:08:03.817, 1551730083817
206, -20768.95, 0.00, 0.00, 0.00, 0.00, 0.00, -15943.66, 0.00, 0.000, 0.000, 0.000, 15:08:03.824, 1551730083824
207, -20782.65, 0.00, 0.00, 0.00, 0.00, 0.00, -15917.50, 0.00, 0.000, 0.000, 0.000, 15:08:03.824, 1551730083824
208, -20918.13, 0.00, 0.00, 0.00, 0.00, 0.00, -15986.55, 0.00, -0.710, 0.598, -0.352, 15:08:03.832, 1551730083832
209, -20863.36, 0.00, 0.00, 0.00, 0.00, 0.00, -15999.89, 0.00, 0.000, 0.000, 0.000, 15:08:03.832, 1551730083832
210, -20775.90, 0.00, 0.00, 0.00, 0.00, 0.00, -15952.69, 0.00, 0.000, 0.000, 0.000, 15:08:03.839, 1551730083839
211, -20767.81, 0.00, 0.00, 0.00, 0.00, 0.00, -15918.17, 0.00, 0.000, 0.000, 0.000, 15:08:03.839, 1551730083839
212, -20919.40, 0.00, 0.00, 0.00, 0.00, 0.00, -15978.93, 0.00, 0.000, 0.000, 0.000, 15:08:03.847, 1551730083847
213, -20885.18, 0.00, 0.00, 0.00, 0.00, 0.00, -16004.16, 0.00, 0.000, 0.000, 0.000, 15:08:03.847, 1551730083847
214, -20793.58, 0.00, 0.00, 0.00, 0.00, 0.00, -15967.91, 0.00, 0.000, 0.000, 0.000, 15:08:03.853, 1551730083853
215, -20746.98, 0.00, 0.00, 0.00, 0.00, 0.00, -15919.63, 0.00, 0.000, 0.000, 0.000, 15:08:03.853, 1551730083853
216, -20892.89, 0.00, 0.00, 0.00, 0.00, 0.00, -15961.31, 0.00, 0.000, 0.000, 0.000, 15:08:03.862, 1551730083862
217, -20894.92, 0.00, 0.00, 0.00, 0.00, 0.00, -16000.79, 0.00, 0.000, 0.000, 0.000, 15:08:03.862, 1551730083862
218, -20809.81, 0.00, 0.00, 0.00, 0.00, 0.00, -15971.68, 0.00, -0.704, 0.596, -0.364, 15:08:03.869, 1551730083869
219, -20733.32, 0.00, 0.00, 0.00, 0.00, 0.00, -15921.64, 0.00, 0.000, 0.000, 0.000, 15:08:03.876, 1551730083876
220, -20856.63, 0.00, 0.00, 0.00, 0.00, 0.00, -15951.81, 0.00, 0.000, 0.000, 0.000, 15:08:03.877, 1551730083877
221, -20900.22, 0.00, 0.00, 0.00, 0.00, 0.00, -16004.23, 0.00, 0.000, 0.000, 0.000, 15:08:03.883, 1551730083883
222, -20812.98, 0.00, 0.00, 0.00, 0.00, 0.00, -15983.33, 0.00, 0.000, 0.000, 0.000, 15:08:03.883, 1551730083883
223, -20730.33, 0.00, 0.00, 0.00, 0.00, 0.00, -15928.10, 0.00, 0.000, 0.000, 0.000, 15:08:03.891, 1551730083891
224, -20846.80, 0.00, 0.00, 0.00, 0.00, 0.00, -15946.34, 0.00, 0.000, 0.000, 0.000, 15:08:03.891, 1551730083891
225, -20917.79, 0.00, 0.00, 0.00, 0.00, 0.00, -16011.81, 0.00, 0.000, 0.000, 0.000, 15:08:03.900, 1551730083900
226, -20822.95, 0.00, 0.00, 0.00, 0.00, 0.00, -15984.94, 0.00, 0.000, 0.000, 0.000, 15:08:03.900, 1551730083900
227, -20741.61, 0.00, 0.00, 0.00, 0.00, 0.00, -15937.31, 0.00, -0.706, 0.606, -0.356, 15:08:03.906, 1551730083906
228, -20802.97, 0.00, 0.00, 0.00, 0.00, 0.00, -15928.30, 0.00, 0.000, 0.000, 0.000, 15:08:03.906, 1551730083906
229, -20915.49, 0.00, 0.00, 0.00, 0.00, 0.00, -15991.58, 0.00, 0.000, 0.000, 0.000, 15:08:03.913, 1551730083913
230, -20849.97, 0.00, 0.00, 0.00, 0.00, 0.00, -15987.84, 0.00, 0.000, 0.000, 0.000, 15:08:03.914, 1551730083914
231, -20783.86, 0.00, 0.00, 0.00, 0.00, 0.00, -15949.69, 0.00, 0.000, 0.000, 0.000, 15:08:03.921, 1551730083921
232, -20773.17, 0.00, 0.00, 0.00, 0.00, 0.00, -15914.44, 0.00, 0.000, 0.000, 0.000, 15:08:03.922, 1551730083922
233, -20913.74, 0.00, 0.00, 0.00, 0.00, 0.00, -15977.74, 0.00, 0.000, 0.000, 0.000, 15:08:03.928, 1551730083928
234, -20865.17, 0.00, 0.00, 0.00, 0.00, 0.00, -15988.13, 0.00, 0.000, 0.000, 0.000, 15:08:03.929, 1551730083929
235, -20771.34, 0.00, 0.00, 0.00, 0.00, 0.00, -15943.88, 0.00, 0.000, 0.000, 0.000, 15:08:03.937, 1551730083937
236, -20753.19, 0.00, 0.00, 0.00, 0.00, 0.00, -15903.76, 0.00, 0.000, 0.000, 0.000, 15:08:03.944, 1551730083944
237, -20907.29, 0.00, 0.00, 0.00, 0.00, 0.00, -15963.53, 0.00, -0.702, 0.602, -0.358, 15:08:03.944, 1551730083944
238, -20895.46, 0.00, 0.00, 0.00, 0.00, 0.00, -15993.81, 0.00, 0.000, 0.000, 0.000, 15:08:03.951, 1551730083951
239, -20782.45, 0.00, 0.00, 0.00, 0.00, 0.00, -15952.93, 0.00, 0.000, 0.000, 0.000, 15:08:03.952, 1551730083952
240, -20721.65, 0.00, 0.00, 0.00, 0.00, 0.00, -15897.41, 0.00, 0.000, 0.000, 0.000, 15:08:03.959, 1551730083959
241, -20869.18, 0.00, 0.00, 0.00, 0.00, 0.00, -15943.48, 0.00, 0.000, 0.000, 0.000, 15:08:03.959, 1551730083959
242, -20885.71, 0.00, 0.00, 0.00, 0.00, 0.00, -15993.95, 0.00, 0.000, 0.000, 0.000, 15:08:03.966, 1551730083966
243, -20793.85, 0.00, 0.00, 0.00, 0.00, 0.00, -15970.46, 0.00, 0.000, 0.000, 0.000, 15:08:03.966, 1551730083966
244, -20718.75, 0.00, 0.00, 0.00, 0.00, 0.00, -15910.96, 0.00, 0.000, 0.000, 0.000, 15:08:03.974, 1551730083974
245, -20843.65, 0.00, 0.00, 0.00, 0.00, 0.00, -15938.78, 0.00, 0.000, 0.000, 0.000, 15:08:03.975, 1551730083975
246, -20899.10, 0.00, 0.00, 0.00, 0.00, 0.00, -15998.31, 0.00, 0.000, 0.000, 0.000, 15:08:03.982, 1551730083982
247, -20816.71, 0.00, 0.00, 0.00, 0.00, 0.00, -15979.13, 0.00, -0.706, 0.602, -0.354, 15:08:03.982, 1551730083982
248, -20724.40, 0.00, 0.00, 0.00, 0.00, 0.00, -15927.05, 0.00, 0.000, 0.000, 0.000, 15:08:03.988, 1551730083988
249, -20816.34, 0.00, 0.00, 0.00, 0.00, 0.00, -15928.52, 0.00, 0.000, 0.000, 0.000, 15:08:03.988, 1551730083988
250, -20909.77, 0.00, 0.00, 0.00, 0.00, 0.00, -15991.04, 0.00, 0.000, 0.000, 0.000, 15:08:03.996, 1551730083996
251, -20830.53, 0.00, 0.00, 0.00, 0.00, 0.00, -15984.42, 0.00, 0.000, 0.000, 0.000, 15:08:04.004, 1551730084004
252, -20738.75, 0.00, 0.00, 0.00, 0.00, 0.00, -15927.70, 0.00, 0.000, 0.000, 0.000, 15:08:04.005, 1551730084005
253, -20810.26, 0.00, 0.00, 0.00, 0.00, 0.00, -15920.50, 0.00, 0.000, 0.000, 0.000, 15:08:04.011, 1551730084011
254, -20933.10, 0.00, 0.00, 0.00, 0.00, 0.00, -15990.59, 0.00, 0.000, 0.000, 0.000, 15:08:04.012, 1551730084012
255, -20863.21, 0.00, 0.00, 0.00, 0.00, 0.00, -15993.28, 0.00, 0.000, 0.000, 0.000, 15:08:04.018, 1551730084018
0, -20776.26, 0.00, 0.00, 0.00, 0.00, 0.00, -15951.63, 0.00, 0.000, 0.000, 0.000, 15:08:04.018, 1551730084018
1, -20778.72, 0.00, 0.00, 0.00, 0.00, 0.00, -15915.89, 0.00, -0.706, 0.598, -0.352, 15:08:04.026, 1551730084026
2, -20917.79, 0.00, 0.00, 0.00, 0.00, 0.00, -15977.85, 0.00, 0.000, 0.000, 0.000, 15:08:04.026, 1551730084026
3, -20863.47, 0.00, 0.00, 0.00, 0.00, 0.00, -15986.15, 0.00, 0.000, 0.000, 0.000, 15:08:04.034, 1551730084034
4, -20773.15, 0.00, 0.00, 0.00, 0.00, 0.00, -15942.74, 0.00, 0.000, 0.000, 0.000, 15:08:04.034, 1551730084034
5, -20742.22, 0.00, 0.00, 0.00, 0.00, 0.00, -15895.15, 0.00, 0.000, 0.000, 0.000, 15:08:04.041, 1551730084041
6, -20896.06, 0.00, 0.00, 0.00, 0.00, 0.00, -15952.95, 0.00, 0.000, 0.000, 0.000, 15:08:04.041, 1551730084041
7, -20873.60, 0.00, 0.00, 0.00, 0.00, 0.00, -15985.16, 0.00, 0.000, 0.000, 0.000, 15:08:04.049, 1551730084049
8, -20785.71, 0.00, 0.00, 0.00, 0.00, 0.00, -15956.84, 0.00, 0.000, 0.000, 0.000, 15:08:04.050, 1551730084050
9, -20735.78, 0.00, 0.00, 0.00, 0.00, 0.00, -15911.80, 0.00, 0.000, 0.000, 0.000, 15:08:04.056, 1551730084056
10, -20862.58, 0.00, 0.00, 0.00, 0.00, 0.00, -15949.53, 0.00, 0.000, 0.000, 0.000, 15:08:04.063, 1551730084063
11, -20880.39, 0.00, 0.00, 0.00, 0.00, 0.00, -15999.80, 0.00, -0.708, 0.596, -0.356, 15:08:04.064, 1551730084064
12, -20796.98, 0.00, 0.00, 0.00, 0.00, 0.00, -15973.85, 0.00, 0.000, 0.000, 0.000, 15:08:04.072, 1551730084072
13, -20725.25, 0.00, 0.00, 0.00, 0.00, 0.00, -15914.71, 0.00, 0.000, 0.000, 0.000, 15:08:04.072, 1551730084072
14, -20856.99, 0.00, 0.00, 0.00, 0.00, 0.00, -15938.47, 0.00, 0.000, 0.000, 0.000, 15:08:04.081, 1551730084081
15, -20906.86, 0.00, 0.00, 0.00, 0.00, 0.00, -16002.15, 0.00, 0.000, 0.000, 0.000, 15:08:04.082, 1551730084082
16, -20821.92, 0.00, 0.00, 0.00, 0.00, 0.00, -15979.69, 0.00, 0.000, 0.000, 0.000, 15:08:04.086, 1551730084086
17, -20735.49, 0.00, 0.00, 0.00, 0.00, 0.00, -15924.30, 0.00, 0.000, 0.000, 0.000, 15:08:04.086, 1551730084086
18, -20837.55, 0.00, 0.00, 0.00, 0.00, 0.00, -15936.77, 0.00, 0.000, 0.000, 0.000, 15:08:04.095, 1551730084095
19, -20927.78, 0.00, 0.00, 0.00, 0.00, 0.00, -15999.58, 0.00, 0.000, 0.000, 0.000, 15:08:04.096, 1551730084096
20, -20848.63, 0.00, 0.00, 0.00, 0.00, 0.00, -15982.93, 0.00, 0.000, 0.000, 0.000, 15:08:04.101, 1551730084101
21, -20752.59, 0.00, 0.00, 0.00, 0.00, 0.00, -15929.80, 0.00, -0.708, 0.594, -0.350, 15:08:04.101, 1551730084101
22, -20782.70, 0.00, 0.00, 0.00, 0.00, 0.00, -15902.35, 0.00, 0.000, 0.000, 0.000, 15:08:04.113, 1551730084113
23, -20923.69, 0.00, 0.00, 0.00, 0.00, 0.00, -15977.54, 0.00, 0.000, 0.000, 0.000, 15:08:04.113, 1551730084113
24, -20861.26, 0.00, 0.00, 0.00, 0.00, 0.00, -15986.41, 0.00, 0.000, 0.000, 0.000, 15:08:04.116, 1551730084116
25, -20766.71, 0.00, 0.00, 0.00, 0.00, 0.00, -15941.38, 0.00, 0.000, 0.000, 0.000, 15:08:04.123, 1551730084123
26, -20768.70, 0.00, 0.00, 0.00, 0.00, 0.00, -15909.90, 0.00, 0.000, 0.000, 0.000, 15:08:04.123, 1551730084123
27, -20920.92, 0.00, 0.00, 0.00, 0.00, 0.00, -15976.22, 0.00, 0.000, 0.000, 0.000, 15:08:04.131, 1551730084131
28, -20879.46, 0.00, 0.00, 0.00, 0.00, 0.00, -15997.19, 0.00, 0.000, 0.000, 0.000, 15:08:04.131, 1551730084131
29, -20792.84, 0.00, 0.00, 0.00, 0.00, 0.00, -15961.04, 0.00, 0.000, 0.000, 0.000, 15:08:04.146, 1551730084146
30, -20757.48, 0.00, 0.00, 0.00, 0.00, 0.00, -15914.42, 0.00, -0.704, 0.602, -0.352, 15:08:04.146, 1551730084146
31, -20907.17, 0.00, 0.00, 0.00, 0.00, 0.00, -15969.90, 0.00, 0.000, 0.000, 0.000, 15:08:04.147, 1551730084147
32, -20898.97, 0.00, 0.00, 0.00, 0.00, 0.00, -16009.15, 0.00, 0.000, 0.000, 0.000, 15:08:04.147, 1551730084147
33, -20799.44, 0.00, 0.00, 0.00, 0.00, 0.00, -15972.40, 0.00, 0.000, 0.000, 0.000, 15:08:04.153, 1551730084153
34, -20734.08, 0.00, 0.00, 0.00, 0.00, 0.00, -15918.49, 0.00, 0.000, 0.000, 0.000, 15:08:04.153, 1551730084153
35, -20875.61, 0.00, 0.00, 0.00, 0.00, 0.00, -15958.59, 0.00, 0.000, 0.000, 0.000, 15:08:04.161, 1551730084161
36, -20917.30, 0.00, 0.00, 0.00, 0.00, 0.00, -16013.12, 0.00, 0.000, 0.000, 0.000, 15:08:04.161, 1551730084161
37, -20825.43, 0.00, 0.00, 0.00, 0.00, 0.00, -15984.22, 0.00, 0.000, 0.000, 0.000, 15:08:04.169, 1551730084169
38, -20738.28, 0.00, 0.00, 0.00, 0.00, 0.00, -15927.45, 0.00, 0.000, 0.000, 0.000, 15:08:04.170, 1551730084170
39, -20864.21, 0.00, 0.00, 0.00, 0.00, 0.00, -15944.66, 0.00, 0.000, 0.000, 0.000, 15:08:04.185, 1551730084185
40, -20939.54, 0.00, 0.00, 0.00, 0.00, 0.00, -16007.71, 0.00, -0.708, 0.604, -0.354, 15:08:04.185, 1551730084185
41, -20846.62, 0.00, 0.00, 0.00, 0.00, 0.00, -15991.15, 0.00, 0.000, 0.000, 0.000, 15:08:04.185, 1551730084185
42, -20749.77, 0.00, 0.00, 0.00, 0.00, 0.00, -15932.12, 0.00, 0.000, 0.000, 0.000, 15:08:04.191, 1551730084191
43, -20832.81, 0.00, 0.00, 0.00, 0.00, 0.00, -15929.84, 0.00, 0.000, 0.000, 0.000, 15:08:04.191, 1551730084191
44, -20936.83, 0.00, 0.00, 0.00, 0.00, 0.00, -15994.75, 0.00, 0.000, 0.000, 0.000, 15:08:04.199, 1551730084199
45, -20855.38, 0.00, 0.00, 0.00, 0.00, 0.00, -15991.29, 0.00, 0.000, 0.000, 0.000, 15:08:04.199, 1551730084199
46, -20770.34, 0.00, 0.00, 0.00, 0.00, 0.00, -15945.15, 0.00, 0.000, 0.000, 0.000, 15:08:04.206, 1551730084206
47, -20797.89, 0.00, 0.00, 0.00, 0.00, 0.00, -15918.58, 0.00, 0.000, 0.000, 0.000, 15:08:04.206, 1551730084206
48, -20936.21, 0.00, 0.00, 0.00, 0.00, 0.00, -15991.02, 0.00, 0.000, 0.000, 0.000, 15:08:04.217, 1551730084217
49, -20877.89, 0.00, 0.00, 0.00, 0.00, 0.00, -15999.71, 0.00, 0.000, 0.000, 0.000, 15:08:04.217, 1551730084217
50, -20780.51, 0.00, 0.00, 0.00, 0.00, 0.00, -15959.23, 0.00, -0.704, 0.600, -0.348, 15:08:04.222, 1551730084222
51, -20764.90, 0.00, 0.00, 0.00, 0.00, 0.00, -15918.44, 0.00, 0.000, 0.000, 0.000, 15:08:04.222, 1551730084222
52, -20912.65, 0.00, 0.00, 0.00, 0.00, 0.00, -15977.18, 0.00, 0.000, 0.000, 0.000, 15:08:04.229, 1551730084229
53, -20880.57, 0.00, 0.00, 0.00, 0.00, 0.00, -16003.04, 0.00, 0.000, 0.000, 0.000, 15:08:04.229, 1551730084229
54, -20791.37, 0.00, 0.00, 0.00, 0.00, 0.00, -15967.66, 0.00, 0.000, 0.000, 0.000, 15:08:04.236, 1551730084236
55, -20743.96, 0.00, 0.00, 0.00, 0.00, 0.00, -15918.64, 0.00, 0.000, 0.000, 0.000, 15:08:04.236, 1551730084236
56, -20905.32, 0.00, 0.00, 0.00, 0.00, 0.00, -15968.64, 0.00, 0.000, 0.000, 0.000, 15:08:04.250, 1551730084250
57, -20893.78, 0.00, 0.00, 0.00, 0.00, 0.00, -16004.94, 0.00, 0.000, 0.000, 0.000, 15:08:04.251, 1551730084251
58, -20798.43, 0.00, 0.00, 0.00, 0.00, 0.00, -15974.57, 0.00, 0.000, 0.000, 0.000, 15:08:04.251, 1551730084251
59, -20735.51, 0.00, 0.00, 0.00, 0.00, 0.00, -15926.42, 0.00, 0.000, 0.000, 0.000, 15:08:04.258, 1551730084258
60, -20860.14, 0.00, 0.00, 0.00, 0.00, 0.00, -15947.43, 0.00, -0.710, 0.600, -0.352, 15:08:04.258, 1551730084258
61, -20898.12, 0.00, 0.00, 0.00, 0.00, 0.00, -15997.57, 0.00, 0.000, 0.000, 0.000, 15:08:04.266, 1551730084266
62, -20817.65, 0.00, 0.00, 0.00, 0.00, 0.00, -15975.04, 0.00, 0.000, 0.000, 0.000, 15:08:04.267, 1551730084267
63, -20736.74, 0.00, 0.00, 0.00, 0.00, 0.00, -15921.95, 0.00, 0.000, 0.000, 0.000, 15:08:04.274, 1551730084274
64, -20839.85, 0.00, 0.00, 0.00, 0.00, 0.00, -15931.90, 0.00, 0.000, 0.000, 0.000, 15:08:04.274, 1551730084274
65, -20927.18, 0.00, 0.00, 0.00, 0.00, 0.00, -15988.78, 0.00, 0.000, 0.000, 0.000, 15:08:04.282, 1551730084282
66, -20841.50, 0.00, 0.00, 0.00, 0.00, 0.00, -15979.06, 0.00, 0.000, 0.000, 0.000, 15:08:04.282, 1551730084282
67, -20749.39, 0.00, 0.00, 0.00, 0.00, 0.00, -15925.95, 0.00, 0.000, 0.000, 0.000, 15:08:04.295, 1551730084295
68, -20808.02, 0.00, 0.00, 0.00, 0.00, 0.00, -15915.56, 0.00, 0.000, 0.000, 0.000, 15:08:04.296, 1551730084296
69, -20928.50, 0.00, 0.00, 0.00, 0.00, 0.00, -15984.27, 0.00, 0.000, 0.000, 0.000, 15:08:04.296, 1551730084296
70, -20857.80, 0.00, 0.00, 0.00, 0.00, 0.00, -15985.88, 0.00, -0.704, 0.598, -0.350, 15:08:04.296, 1551730084296
71, -20770.11, 0.00, 0.00, 0.00, 0.00, 0.00, -15944.19, 0.00, 0.000, 0.000, 0.000, 15:08:04.303, 1551730084303
72, -20795.59, 0.00, 0.00, 0.00, 0.00, 0.00, -15915.45, 0.00, 0.000, 0.000, 0.000, 15:08:04.311, 1551730084311
73, -20929.64, 0.00, 0.00, 0.00, 0.00, 0.00, -15979.19, 0.00, 0.000, 0.000, 0.000, 15:08:04.312, 1551730084312
74, -20863.88, 0.00, 0.00, 0.00, 0.00, 0.00, -15990.24, 0.00, 0.000, 0.000, 0.000, 15:08:04.318, 1551730084318
75, -20783.30, 0.00, 0.00, 0.00, 0.00, 0.00, -15956.28, 0.00, 0.000, 0.000, 0.000, 15:08:04.318, 1551730084318
76, -20744.59, 0.00, 0.00, 0.00, 0.00, 0.00, -15909.86, 0.00, 0.000, 0.000, 0.000, 15:08:04.329, 1551730084329
77, -20903.55, 0.00, 0.00, 0.00, 0.00, 0.00, -15973.96, 0.00, 0.000, 0.000, 0.000, 15:08:04.329, 1551730084329
78, -20879.61, 0.00, 0.00, 0.00, 0.00, 0.00, -15998.51, 0.00, 0.000, 0.000, 0.000, 15:08:04.335, 1551730084335
79, -20786.70, 0.00, 0.00, 0.00, 0.00, 0.00, -15961.07, 0.00, 0.000, 0.000, 0.000, 15:08:04.335, 1551730084335
80, -20730.01, 0.00, 0.00, 0.00, 0.00, 0.00, -15915.72, 0.00, -0.708, 0.602, -0.352, 15:08:04.341, 1551730084341
81, -20880.15, 0.00, 0.00, 0.00, 0.00, 0.00, -15955.79, 0.00, 0.000, 0.000, 0.000, 15:08:04.341, 1551730084341
82, -20896.24, 0.00, 0.00, 0.00, 0.00, 0.00, -16003.25, 0.00, 0.000, 0.000, 0.000, 15:08:04.349, 1551730084349
83, -20814.48, 0.00, 0.00, 0.00, 0.00, 0.00, -15976.22, 0.00, 0.000, 0.000, 0.000, 15:08:04.349, 1551730084349
84, -20734.91, 0.00, 0.00, 0.00, 0.00, 0.00, -15916.18, 0.00, 0.000, 0.000, 0.000, 15:08:04.357, 1551730084357
85, -20859.77, 0.00, 0.00, 0.00, 0.00, 0.00, -15942.94, 0.00, 0.000, 0.000, 0.000, 15:08:04.357, 1551730084357
86, -20913.56, 0.00, 0.00, 0.00, 0.00, 0.00, -15996.88, 0.00, 0.000, 0.000, 0.000, 15:08:04.364, 1551730084364
87, -20830.71, 0.00, 0.00, 0.00, 0.00, 0.00, -15979.51, 0.00, 0.000, 0.000, 0.000, 15:08:04.371, 1551730084371
88, -20748.99, 0.00, 0.00, 0.00, 0.00, 0.00, -15922.73, 0.00, 0.000, 0.000, 0.000, 15:08:04.371, 1551730084371
89, -20848.54, 0.00, 0.00, 0.00, 0.00, 0.00, -15932.48, 0.00, 0.000, 0.000, 0.000, 15:08:04.378, 1551730084378
90, -20918.95, 0.00, 0.00, 0.00, 0.00, 0.00, -15992.20, 0.00, -0.708, 0.598, -0.354, 15:08:04.378, 1551730084378
91, -20835.00, 0.00, 0.00, 0.00, 0.00, 0.00, -15982.08, 0.00, 0.000, 0.000, 0.000, 15:08:04.386, 1551730084386
92, -20745.35, 0.00, 0.00, 0.00, 0.00, 0.00, -15925.48, 0.00, 0.000, 0.000, 0.000, 15:08:04.386, 1551730084386
93, -20803.01, 0.00, 0.00, 0.00, 0.00, 0.00, -15908.63, 0.00, 0.000, 0.000, 0.000, 15:08:04.393, 1551730084393
94, -20938.91, 0.00, 0.00, 0.00, 0.00, 0.00, -15984.02, 0.00, 0.000, 0.000, 0.000, 15:08:04.394, 1551730084394
95, -20862.65, 0.00, 0.00, 0.00, 0.00, 0.00, -15986.77, 0.00, 0.000, 0.000, 0.000, 15:08:04.401, 1551730084401
96, -20762.51, 0.00, 0.00, 0.00, 0.00, 0.00, -15938.72, 0.00, 0.000, 0.000, 0.000, 15:08:04.402, 1551730084402
97, -20760.84, 0.00, 0.00, 0.00, 0.00, 0.00, -15907.29, 0.00, 0.000, 0.000, 0.000, 15:08:04.409, 1551730084409
98, -20910.75, 0.00, 0.00, 0.00, 0.00, 0.00, -15976.49, 0.00, 0.000, 0.000, 0.000, 15:08:04.409, 1551730084409
99, -20865.87, 0.00, 0.00, 0.00, 0.00, 0.00, -15987.20, 0.00, -0.708, 0.598, -0.350, 15:08:04.417, 1551730084417
100, -20775.30, 0.00, 0.00, 0.00, 0.00, 0.00, -15952.10, 0.00, 0.000, 0.000, 0.000, 15:08:04.417, 1551730084417
101, -20748.43, 0.00, 0.00, 0.00, 0.00, 0.00, -15901.95, 0.00, 0.000, 0.000, 0.000, 15:08:04.423, 1551730084423
102, -20900.94, 0.00, 0.00, 0.00, 0.00, 0.00, -15958.00, 0.00, 0.000, 0.000, 0.000, 15:08:04.423, 1551730084423
103, -20882.54, 0.00, 0.00, 0.00, 0.00, 0.00, -15989.86, 0.00, 0.000, 0.000, 0.000, 15:08:04.431, 1551730084431
104, -20807.84, 0.00, 0.00, 0.00, 0.00, 0.00, -15969.47, 0.00, 0.000, 0.000, 0.000, 15:08:04.439, 1551730084439
105, -20730.28, 0.00, 0.00, 0.00, 0.00, 0.00, -15903.42, 0.00, 0.000, 0.000, 0.000, 15:08:04.439, 1551730084439
106, -20881.09, 0.00, 0.00, 0.00, 0.00, 0.00, -15937.26, 0.00, 0.000, 0.000, 0.000, 15:08:04.447, 1551730084447
107, -20903.73, 0.00, 0.00, 0.00, 0.00, 0.00, -15989.01, 0.00, 0.000, 0.000, 0.000, 15:08:04.447, 1551730084447
108, -20811.24, 0.00, 0.00, 0.00, 0.00, 0.00, -15964.78, 0.00, 0.000, 0.000, 0.000, 15:08:04.453, 1551730084453
109, -20727.80, 0.00, 0.00, 0.00, 0.00, 0.00, -15902.86, 0.00, -0.710, 0.598, -0.348, 15:08:04.454, 1551730084454
110, -20846.15, 0.00, 0.00, 0.00, 0.00, 0.00, -15922.24, 0.00, 0.000, 0.000, 0.000, 15:08:04.461, 1551730084461
111, -20920.61, 0.00, 0.00, 0.00, 0.00, 0.00, -15991.26, 0.00, 0.000, 0.000, 0.000, 15:08:04.461, 1551730084461
112, -20830.13, 0.00, 0.00, 0.00, 0.00, 0.00, -15980.13, 0.00, 0.000, 0.000, 0.000, 15:08:04.471, 1551730084471
113, -20731.60, 0.00, 0.00, 0.00, 0.00, 0.00, -15915.40, 0.00, 0.000, 0.000, 0.000, 15:08:04.472, 1551730084472
114, -20817.99, 0.00, 0.00, 0.00, 0.00, 0.00, -15915.67, 0.00, 0.000, 0.000, 0.000, 15:08:04.477, 1551730084477
115, -20917.52, 0.00, 0.00, 0.00, 0.00, 0.00, -15983.75, 0.00, 0.000, 0.000, 0.000, 15:08:04.477, 1551730084477
116, -20836.21, 0.00, 0.00, 0.00, 0.00, 0.00, -15986.62, 0.00, 0.000, 0.000, 0.000, 15:08:04.484, 1551730084484
117, -20759.34, 0.00, 0.00, 0.00, 0.00, 0.00, -15934.76, 0.00, 0.000, 0.000, 0.000, 15:08:04.484, 1551730084484
118, -20787.32, 0.00, 0.00, 0.00, 0.00, 0.00, -15911.78, 0.00, 0.000, 0.000, 0.000, 15:08:04.491, 1551730084491
119, -20922.39, 0.00, 0.00, 0.00, 0.00, 0.00, -15976.98, 0.00, -0.706, 0.594, -0.354, 15:08:04.500, 1551730084500
120, -20845.77, 0.00, 0.00, 0.00, 0.00, 0.00, -15977.65, 0.00, 0.000, 0.000, 0.000, 15:08:04.500, 1551730084500
121, -20747.09, 0.00, 0.00, 0.00, 0.00, 0.00, -15923.07, 0.00, 0.000, 0.000, 0.000, 15:08:04.506, 1551730084506
122, -20748.39, 0.00, 0.00, 0.00, 0.00, 0.00, -15887.19, 0.00, 0.000, 0.000, 0.000, 15:08:04.506, 1551730084506
123, -20905.83, 0.00, 0.00, 0.00, 0.00, 0.00, -15956.84, 0.00, 0.000, 0.000, 0.000, 15:08:04.517, 1551730084517
124, -20858.11, 0.00, 0.00, 0.00, 0.00, 0.00, -15979.75, 0.00, 0.000, 0.000, 0.000, 15:08:04.517, 1551730084517
125, -20774.07, 0.00, 0.00, 0.00, 0.00, 0.00, -15942.74, 0.00, 0.000, 0.000, 0.000, 15:08:04.522, 1551730084522
126, -20737.97, 0.00, 0.00, 0.00, 0.00, 0.00, -15894.24, 0.00, 0.000, 0.000, 0.000, 15:08:04.522, 1551730084522
127, -20899.08, 0.00, 0.00, 0.00, 0.00, 0.00, -15949.40, 0.00, 0.000, 0.000, 0.000, 15:08:04.530, 1551730084530
128, -20887.39, 0.00, 0.00, 0.00, 0.00, 0.00, -15988.78, 0.00, 0.000, 0.000, 0.000, 15:08:04.531, 1551730084531
129, -20806.17, 0.00, 0.00, 0.00, 0.00, 0.00, -15964.42, 0.00, -0.700, 0.600, -0.354, 15:08:04.536, 1551730084536
130, -20720.54, 0.00, 0.00, 0.00, 0.00, 0.00, -15900.72, 0.00, 0.000, 0.000, 0.000, 15:08:04.537, 1551730084537
131, -20869.46, 0.00, 0.00, 0.00, 0.00, 0.00, -15941.02, 0.00, 0.000, 0.000, 0.000, 15:08:04.544, 1551730084544
132, -20891.13, 0.00, 0.00, 0.00, 0.00, 0.00, -16003.76, 0.00, 0.000, 0.000, 0.000, 15:08:04.544, 1551730084544
133, -20798.72, 0.00, 0.00, 0.00, 0.00, 0.00, -15959.03, 0.00, 0.000, 0.000, 0.000, 15:08:04.553, 1551730084553
134, -20722.32, 0.00, 0.00, 0.00, 0.00, 0.00, -15892.78, 0.00, 0.000, 0.000, 0.000, 15:08:04.559, 1551730084559
135, -20848.77, 0.00, 0.00, 0.00, 0.00, 0.00, -15916.16, 0.00, 0.000, 0.000, 0.000, 15:08:04.559, 1551730084559
136, -20920.14, 0.00, 0.00, 0.00, 0.00, 0.00, -15974.17, 0.00, 0.000, 0.000, 0.000, 15:08:04.567, 1551730084567
137, -20825.14, 0.00, 0.00, 0.00, 0.00, 0.00, -15962.18, 0.00, 0.000, 0.000, 0.000, 15:08:04.567, 1551730084567
138, -20733.19, 0.00, 0.00, 0.00, 0.00, 0.00, -15912.50, 0.00, 0.000, 0.000, 0.000, 15:08:04.574, 1551730084574
139, -20810.52, 0.00, 0.00, 0.00, 0.00, 0.00, -15908.07, 0.00, -0.706, 0.596, -0.344, 15:08:04.574, 1551730084574
140, -20933.55, 0.00, 0.00, 0.00, 0.00, 0.00, -15979.91, 0.00, 0.000, 0.000, 0.000, 15:08:04.582, 1551730084582
141, -20850.02, 0.00, 0.00, 0.00, 0.00, 0.00, -15974.01, 0.00, 0.000, 0.000, 0.000, 15:08:04.582, 1551730084582
142, -20746.35, 0.00, 0.00, 0.00, 0.00, 0.00, -15923.99, 0.00, 0.000, 0.000, 0.000, 15:08:04.588, 1551730084588
143, -20782.96, 0.00, 0.00, 0.00, 0.00, 0.00, -15911.92, 0.00, 0.000, 0.000, 0.000, 15:08:04.589, 1551730084589
144, -20929.57, 0.00, 0.00, 0.00, 0.00, 0.00, -15969.52, 0.00, 0.000, 0.000, 0.000, 15:08:04.599, 1551730084599
145, -20856.86, 0.00, 0.00, 0.00, 0.00, 0.00, -15976.07, 0.00, 0.000, 0.000, 0.000, 15:08:04.600, 1551730084600
146, -20768.28, 0.00, 0.00, 0.00, 0.00, 0.00, -15936.15, 0.00, 0.000, 0.000, 0.000, 15:08:04.604, 1551730084604
147, -20763.16, 0.00, 0.00, 0.00, 0.00, 0.00, -15897.25, 0.00, 0.000, 0.000, 0.000, 15:08:04.604, 1551730084604
148, -20913.99, 0.00, 0.00, 0.00, 0.00, 0.00, -15962.86, 0.00, 0.000, 0.000, 0.000, 15:08:04.611, 1551730084611
149, -20890.30, 0.00, 0.00, 0.00, 0.00, 0.00, -15995.82, 0.00, -0.704, 0.598, -0.344, 15:08:04.619, 1551730084619
150, -20780.93, 0.00, 0.00, 0.00, 0.00, 0.00, -15945.94, 0.00, 0.000, 0.000, 0.000, 15:08:04.619, 1551730084619
151, -20732.58, 0.00, 0.00, 0.00, 0.00, 0.00, -15898.55, 0.00, 0.000, 0.000, 0.000, 15:08:04.632, 1551730084632
152, -20899.33, 0.00, 0.00, 0.00, 0.00, 0.00, -15959.28, 0.00, 0.000, 0.000, 0.000, 15:08:04.632, 1551730084632
153, -20902.14, 0.00, 0.00, 0.00, 0.00, 0.00, -15998.35, 0.00, 0.000, 0.000, 0.000, 15:08:04.634, 1551730084634
154, -20816.51, 0.00, 0.00, 0.00, 0.00, 0.00, -15963.93, 0.00, 0.000, 0.000, 0.000, 15:08:04.634, 1551730084634
155, -20736.65, 0.00, 0.00, 0.00, 0.00, 0.00, -15905.41, 0.00, 0.000, 0.000, 0.000, 15:08:04.641, 1551730084641
156, -20865.60, 0.00, 0.00, 0.00, 0.00, 0.00, -15938.83, 0.00, 0.000, 0.000, 0.000, 15:08:04.641, 1551730084641
157, -20923.22, 0.00, 0.00, 0.00, 0.00, 0.00, -15989.52, 0.00, 0.000, 0.000, 0.000, 15:08:04.649, 1551730084649
158, -20852.81, 0.00, 0.00, 0.00, 0.00, 0.00, -15976.24, 0.00, -0.706, 0.602, -0.352, 15:08:04.650, 1551730084650
159, -20743.31, 0.00, 0.00, 0.00, 0.00, 0.00, -15915.09, 0.00, 0.000, 0.000, 0.000, 15:08:04.657, 1551730084657
160, -20825.70, 0.00, 0.00, 0.00, 0.00, 0.00, -15917.79, 0.00, 0.000, 0.000, 0.000, 15:08:04.657, 1551730084657
161, -20913.12, 0.00, 0.00, 0.00, 0.00, 0.00, -15977.21, 0.00, 0.000, 0.000, 0.000, 15:08:04.664, 1551730084664
162, -20831.20, 0.00, 0.00, 0.00, 0.00, 0.00, -15968.82, 0.00, 0.000, 0.000, 0.000, 15:08:04.665, 1551730084665
163, -20745.30, 0.00, 0.00, 0.00, 0.00, 0.00, -15924.81, 0.00, 0.000, 0.000, 0.000, 15:08:04.670, 1551730084670
164, -20811.57, 0.00, 0.00, 0.00, 0.00, 0.00, -15921.17, 0.00, 0.000, 0.000, 0.000, 15:08:04.670, 1551730084670
165, -20935.80, 0.00, 0.00, 0.00, 0.00, 0.00, -15995.51, 0.00, 0.000, 0.000, 0.000, 15:08:04.678, 1551730084678
166, -20857.62, 0.00, 0.00, 0.00, 0.00, 0.00, -15994.71, 0.00, 0.000, 0.000, 0.000, 15:08:04.687, 1551730084687
167, -20768.05, 0.00, 0.00, 0.00, 0.00, 0.00, -15945.06, 0.00, 0.000, 0.000, 0.000, 15:08:04.687, 1551730084687
168, -20776.75, 0.00, 0.00, 0.00, 0.00, 0.00, -15913.35, 0.00, -0.704, 0.608, -0.346, 15:08:04.693, 1551730084693
169, -20916.70, 0.00, 0.00, 0.00, 0.00, 0.00, -15982.44, 0.00, 0.000, 0.000, 0.000, 15:08:04.694, 1551730084694
170, -20872.37, 0.00, 0.00, 0.00, 0.00, 0.00, -16000.74, 0.00, 0.000, 0.000, 0.000, 15:08:04.709, 1551730084709
171, -20776.57, 0.00, 0.00, 0.00, 0.00, 0.00, -15937.98, 0.00, 0.000, 0.000, 0.000, 15:08:04.710, 1551730084710
172, -20744.25, 0.00, 0.00, 0.00, 0.00, 0.00, -15897.14, 0.00, 0.000, 0.000, 0.000, 15:08:04.710, 1551730084710
173, -20903.28, 0.00, 0.00, 0.00, 0.00, 0.00, -15955.73, 0.00, 0.000, 0.000, 0.000, 15:08:04.710, 1551730084710
174, -20880.87, 0.00, 0.00, 0.00, 0.00, 0.00, -15988.54, 0.00, 0.000, 0.000, 0.000, 15:08:04.717, 1551730084717
175, -20789.85, 0.00, 0.00, 0.00, 0.00, 0.00, -15960.51, 0.00, 0.000, 0.000, 0.000, 15:08:04.718, 1551730084718
176, -20735.20, 0.00, 0.00, 0.00, 0.00, 0.00, -15904.36, 0.00, 0.000, 0.000, 0.000, 15:08:04.723, 1551730084723
177, -20881.89, 0.00, 0.00, 0.00, 0.00, 0.00, -15945.94, 0.00, 0.000, 0.000, 0.000, 15:08:04.724, 1551730084724
178, -20903.60, 0.00, 0.00, 0.00, 0.00, 0.00, -15992.43, 0.00, -0.708, 0.600, -0.352, 15:08:04.732, 1551730084732
179, -20828.96, 0.00, 0.00, 0.00, 0.00, 0.00, -15990.46, 0.00, 0.000, 0.000, 0.000, 15:08:04.732, 1551730084732
180, -20733.10, 0.00, 0.00, 0.00, 0.00, 0.00, -15933.82, 0.00, 0.000, 0.000, 0.000, 15:08:04.739, 1551730084739
181, -20875.75, 0.00, 0.00, 0.00, 0.00, 0.00, -15948.77, 0.00, 0.000, 0.000, 0.000, 15:08:04.747, 1551730084747
182, -20900.54, 0.00, 0.00, 0.00, 0.00, 0.00, -15979.49, 0.00, 0.000, 0.000, 0.000, 15:08:04.748, 1551730084748
183, -20837.46, 0.00, 0.00, 0.00, 0.00, 0.00, -15954.58, 0.00, 0.000, 0.000, 0.000, 15:08:04.753, 1551730084753
184, -20728.18, 0.00, 0.00, 0.00, 0.00, 0.00, -15900.11, 0.00, 0.000, 0.000, 0.000, 15:08:04.753, 1551730084753
185, -20810.61, 0.00, 0.00, 0.00, 0.00, 0.00, -15902.86, 0.00, 0.000, 0.000, 0.000, 15:08:04.761, 1551730084761
186, -20908.31, 0.00, 0.00, 0.00, 0.00, 0.00, -15976.49, 0.00, 0.000, 0.000, 0.000, 15:08:04.762, 1551730084762
187, -20831.11, 0.00, 0.00, 0.00, 0.00, 0.00, -15977.79, 0.00, 0.000, 0.000, 0.000, 15:08:04.770, 1551730084770
188, -20746.02, 0.00, 0.00, 0.00, 0.00, 0.00, -15928.23, 0.00, -0.716, 0.606, -0.358, 15:08:04.770, 1551730084770
189, -20788.78, 0.00, 0.00, 0.00, 0.00, 0.00, -15906.86, 0.00, 0.000, 0.000, 0.000, 15:08:04.778, 1551730084778
190, -20921.99, 0.00, 0.00, 0.00, 0.00, 0.00, -15973.70, 0.00, 0.000, 0.000, 0.000, 15:08:04.778, 1551730084778
191, -20873.67, 0.00, 0.00, 0.00, 0.00, 0.00, -15994.26, 0.00, 0.000, 0.000, 0.000, 15:08:04.784, 1551730084784
192, -20813.18, 0.00, 0.00, 0.00, 0.00, 0.00, -15956.82, 0.00, 0.000, 0.000, 0.000, 15:08:04.784, 1551730084784
193, -20802.83, 0.00, 0.00, 0.00, 0.00, 0.00, -15924.19, 0.00, 0.000, 0.000, 0.000, 15:08:04.793, 1551730084793
194, -21034.89, 0.00, 0.00, 0.00, 0.00, 0.00, -16024.30, 0.00, 0.000, 0.000, 0.000, 15:08:04.793, 1551730084793
195, -20937.59, 0.00, 0.00, 0.00, 0.00, 0.00, -16007.85, 0.00, 0.000, 0.000, 0.000, 15:08:04.800, 1551730084800
196, -20761.44, 0.00, 0.00, 0.00, 0.00, 0.00, -15943.92, 0.00, 0.000, 0.000, 0.000, 15:08:04.807, 1551730084807
197, -20755.05, 0.00, 0.00, 0.00, 0.00, 0.00, -15912.70, 0.00, 0.000, 0.000, 0.000, 15:08:04.807, 1551730084807
198, -20924.67, 0.00, 0.00, 0.00, 0.00, 0.00, -15977.52, 0.00, -0.714, 0.606, -0.358, 15:08:04.815, 1551730084815
199, -20990.54, 0.00, 0.00, 0.00, 0.00, 0.00, -16039.72, 0.00, 0.000, 0.000, 0.000, 15:08:04.816, 1551730084816
200, -20936.81, 0.00, 0.00, 0.00, 0.00, 0.00, -15985.74, 0.00, 0.000, 0.000, 0.000, 15:08:04.821, 1551730084821
201, -20704.42, 0.00, 0.00, 0.00, 0.00, 0.00, -15908.05, 0.00, 0.000, 0.000, 0.000, 15:08:04.822, 1551730084822
202, -20858.47, 0.00, 0.00, 0.00, 0.00, 0.00, -15969.99, 0.00, 0.000, 0.000, 0.000, 15:08:04.829, 1551730084829
203, -20978.68, 0.00, 0.00, 0.00, 0.00, 0.00, -16051.50, 0.00, 0.000, 0.000, 0.000, 15:08:04.829, 1551730084829
204, -20832.43, 0.00, 0.00, 0.00, 0.00, 0.00, -16018.47, 0.00, 0.000, 0.000, 0.000, 15:08:04.836, 1551730084836
205, -20751.25, 0.00, 0.00, 0.00, 0.00, 0.00, -15929.60, 0.00, 0.000, 0.000, 0.000, 15:08:04.837, 1551730084837
206, -20868.62, 0.00, 0.00, 0.00, 0.00, 0.00, -15957.22, 0.00, 0.000, 0.000, 0.000, 15:08:04.845, 1551730084845
207, -20972.22, 0.00, 0.00, 0.00, 0.00, 0.00, -16037.96, 0.00, 0.000, 0.000, 0.000, 15:08:04.845, 1551730084845
208, -20856.48, 0.00, 0.00, 0.00, 0.00, 0.00, -16018.51, 0.00, -0.712, 0.602, -0.352, 15:08:04.852, 1551730084852
209, -20758.00, 0.00, 0.00, 0.00, 0.00, 0.00, -15960.89, 0.00, 0.000, 0.000, 0.000, 15:08:04.852, 1551730084852
210, -20856.95, 0.00, 0.00, 0.00, 0.00, 0.00, -15966.77, 0.00, 0.000, 0.000, 0.000, 15:08:04.859, 1551730084859
211, -20960.77, 0.00, 0.00, 0.00, 0.00, 0.00, -16026.31, 0.00, 0.000, 0.000, 0.000, 15:08:04.866, 1551730084866
212, -20878.90, 0.00, 0.00, 0.00, 0.00, 0.00, -16019.96, 0.00, 0.000, 0.000, 0.000, 15:08:04.866, 1551730084866
213, -20849.79, 0.00, 0.00, 0.00, 0.00, 0.00, -15987.80, 0.00, 0.000, 0.000, 0.000, 15:08:04.874, 1551730084874
214, -20961.40, 0.00, 0.00, 0.00, 0.00, 0.00, -15983.98, 0.00, 0.000, 0.000, 0.000, 15:08:04.874, 1551730084874
215, -21051.63, 0.00, 0.00, 0.00, 0.00, 0.00, -16052.84, 0.00, 0.000, 0.000, 0.000, 15:08:04.882, 1551730084882
216, -21012.43, 0.00, 0.00, 0.00, 0.00, 0.00, -16068.80, 0.00, 0.000, 0.000, 0.000, 15:08:04.884, 1551730084884
217, -20719.08, 0.00, 0.00, 0.00, 0.00, 0.00, -15950.92, 0.00, 0.000, 0.000, 0.000, 15:08:04.889, 1551730084889
218, -20684.44, 0.00, 0.00, 0.00, 0.00, 0.00, -15902.53, 0.00, -0.708, 0.600, -0.354, 15:08:04.890, 1551730084890
219, -20884.51, 0.00, 0.00, 0.00, 0.00, 0.00, -15977.41, 0.00, 0.000, 0.000, 0.000, 15:08:04.896, 1551730084896
220, -20873.00, 0.00, 0.00, 0.00, 0.00, 0.00, -16007.25, 0.00, 0.000, 0.000, 0.000, 15:08:04.897, 1551730084897
221, -20808.65, 0.00, 0.00, 0.00, 0.00, 0.00, -15978.75, 0.00, 0.000, 0.000, 0.000, 15:08:04.904, 1551730084904
222, -20790.29, 0.00, 0.00, 0.00, 0.00, 0.00, -15938.20, 0.00, 0.000, 0.000, 0.000, 15:08:04.905, 1551730084905
223, -20992.22, 0.00, 0.00, 0.00, 0.00, 0.00, -15998.19, 0.00, 0.000, 0.000, 0.000, 15:08:04.911, 1551730084911
224, -20949.62, 0.00, 0.00, 0.00, 0.00, 0.00, -16012.92, 0.00, 0.000, 0.000, 0.000, 15:08:04.911, 1551730084911
225, -20800.31, 0.00, 0.00, 0.00, 0.00, 0.00, -15978.93, 0.00, 0.000, 0.000, 0.000, 15:08:04.918, 1551730084918
226, -20752.95, 0.00, 0.00, 0.00, 0.00, 0.00, -15932.39, 0.00, 0.000, 0.000, 0.000, 15:08:04.918, 1551730084918
227, -20855.92, 0.00, 0.00, 0.00, 0.00, 0.00, -15948.28, 0.00, -0.710, 0.594, -0.354, 15:08:04.926, 1551730084926
228, -20954.00, 0.00, 0.00, 0.00, 0.00, 0.00, -16019.65, 0.00, 0.000, 0.000, 0.000, 15:08:04.934, 1551730084934
229, -20869.18, 0.00, 0.00, 0.00, 0.00, 0.00, -15994.82, 0.00, 0.000, 0.000, 0.000, 15:08:04.934, 1551730084934
230, -20718.48, 0.00, 0.00, 0.00, 0.00, 0.00, -15918.53, 0.00, 0.000, 0.000, 0.000, 15:08:04.941, 1551730084941
231, -20836.56, 0.00, 0.00, 0.00, 0.00, 0.00, -15939.94, 0.00, 0.000, 0.000, 0.000, 15:08:04.941, 1551730084941
232, -20940.88, 0.00, 0.00, 0.00, 0.00, 0.00, -16014.35, 0.00, 0.000, 0.000, 0.000, 15:08:04.951, 1551730084951
233, -20895.46, 0.00, 0.00, 0.00, 0.00, 0.00, -15997.68, 0.00, 0.000, 0.000, 0.000, 15:08:04.951, 1551730084951
234, -20824.02, 0.00, 0.00, 0.00, 0.00, 0.00, -15957.04, 0.00, 0.000, 0.000, 0.000, 15:08:04.957, 1551730084957
235, -20818.88, 0.00, 0.00, 0.00, 0.00, 0.00, -15924.59, 0.00, 0.000, 0.000, 0.000, 15:08:04.957, 1551730084957
236, -20899.86, 0.00, 0.00, 0.00, 0.00, 0.00, -15988.96, 0.00, 0.000, 0.000, 0.000, 15:08:04.964, 1551730084964
237, -20858.00, 0.00, 0.00, 0.00, 0.00, 0.00, -15995.31, 0.00, -0.706, 0.596, -0.348, 15:08:04.964, 1551730084964
238, -20802.05, 0.00, 0.00, 0.00, 0.00, 0.00, -15960.64, 0.00, 0.000, 0.000, 0.000, 15:08:04.972, 1551730084972
239, -20875.12, 0.00, 0.00, 0.00, 0.00, 0.00, -15953.76, 0.00, 0.000, 0.000, 0.000, 15:08:04.972, 1551730084972
240, -20943.49, 0.00, 0.00, 0.00, 0.00, 0.00, -15985.59, 0.00, 0.000, 0.000, 0.000, 15:08:04.983, 1551730084983
241, -20830.64, 0.00, 0.00, 0.00, 0.00, 0.00, -15991.29, 0.00, 0.000, 0.000, 0.000, 15:08:04.984, 1551730084984
242, -20779.90, 0.00, 0.00, 0.00, 0.00, 0.00, -15965.11, 0.00, 0.000, 0.000, 0.000, 15:08:04.988, 1551730084988
243, -20781.58, 0.00, 0.00, 0.00, 0.00, 0.00, -15925.62, 0.00, 0.000, 0.000, 0.000, 15:08:04.993, 1551730084993
244, -20937.71, 0.00, 0.00, 0.00, 0.00, 0.00, -15979.17, 0.00, 0.000, 0.000, 0.000, 15:08:04.994, 1551730084994
245, -20878.07, 0.00, 0.00, 0.00, 0.00, 0.00, -15996.03, 0.00, 0.000, 0.000, 0.000, 15:08:05.001, 1551730085001
246, -20803.30, 0.00, 0.00, 0.00, 0.00, 0.00, -15968.67, 0.00, 0.000, 0.000, 0.000, 15:08:05.001, 1551730085001
247, -20899.35, 0.00, 0.00, 0.00, 0.00, 0.00, -15950.81, 0.00, -0.702, 0.598, -0.352, 15:08:05.010, 1551730085010
248, -20894.57, 0.00, 0.00, 0.00, 0.00, 0.00, -15971.33, 0.00, 0.000, 0.000, 0.000, 15:08:05.011, 1551730085011
249, -21050.22, 0.00, 0.00, 0.00, 0.00, 0.00, -16044.39, 0.00, 0.000, 0.000, 0.000, 15:08:05.022, 1551730085022
250, -20800.98, 0.00, 0.00, 0.00, 0.00, 0.00, -15957.31, 0.00, 0.000, 0.000, 0.000, 15:08:05.023, 1551730085023
251, -20766.13, 0.00, 0.00, 0.00, 0.00, 0.00, -15920.05, 0.00, 0.000, 0.000, 0.000, 15:08:05.024, 1551730085024
252, -20796.04, 0.00, 0.00, 0.00, 0.00, 0.00, -15922.80, 0.00, 0.000, 0.000, 0.000, 15:08:05.024, 1551730085024
253, -20903.71, 0.00, 0.00, 0.00, 0.00, 0.00, -15993.52, 0.00, 0.000, 0.000, 0.000, 15:08:05.031, 1551730085031
254, -20870.70, 0.00, 0.00, 0.00, 0.00, 0.00, -15985.63, 0.00, 0.000, 0.000, 0.000, 15:08:05.032, 1551730085032
255, -20847.67, 0.00, 0.00, 0.00, 0.00, 0.00, -15954.14, 0.00, 0.000, 0.000, 0.000, 15:08:05.039, 1551730085039
0, -20809.12, 0.00, 0.00, 0.00, 0.00, 0.00, -15913.82, 0.00, 0.000, 0.000, 0.000, 15:08:05.040, 1551730085040
1, -20867.90, 0.00, 0.00, 0.00, 0.00, 0.00, -15983.55, 0.00, -0.700, 0.594, -0.358, 15:08:05.046, 1551730085046
2, -20895.28, 0.00, 0.00, 0.00, 0.00, 0.00, -16005.61, 0.00, 0.000, 0.000, 0.000, 15:08:05.055, 1551730085055
3, -20831.40, 0.00, 0.00, 0.00, 0.00, 0.00, -15956.73, 0.00, 0.000, 0.000, 0.000, 15:08:05.055, 1551730085055
4, -21040.88, 0.00, 0.00, 0.00, 0.00, 0.00, -15982.10, 0.00, 0.000, 0.000, 0.000, 15:08:05.061, 1551730085061
5, -21184.29, 0.00, 0.00, 0.00, 0.00, 0.00, -16040.55, 0.00, 0.000, 0.000, 0.000, 15:08:05.062, 1551730085062
6, -20828.88, 0.00, 0.00, 0.00, 0.00, 0.00, -15978.26, 0.00, 0.000, 0.000, 0.000, 15:08:05.070, 1551730085070
7, -20656.90, 0.00, 0.00, 0.00, 0.00, 0.00, -15927.34, 0.00, 0.000, 0.000, 0.000, 15:08:05.070, 1551730085070
8, -20914.57, 0.00, 0.00, 0.00, 0.00, 0.00, -15958.83, 0.00, 0.000, 0.000, 0.000, 15:08:05.076, 1551730085076
9, -20847.90, 0.00, 0.00, 0.00, 0.00, 0.00, -15960.64, 0.00, 0.000, 0.000, 0.000, 15:08:05.076, 1551730085076
10, -20857.62, 0.00, 0.00, 0.00, 0.00, 0.00, -15989.88, 0.00, 0.000, 0.000, 0.000, 15:08:05.084, 1551730085084
11, -20856.43, 0.00, 0.00, 0.00, 0.00, 0.00, -15966.34, 0.00, -0.704, 0.602, -0.352, 15:08:05.084, 1551730085084
12, -20614.79, 0.00, 0.00, 0.00, 0.00, 0.00, -15890.28, 0.00, 0.000, 0.000, 0.000, 15:08:05.092, 1551730085092
13, -20942.78, 0.00, 0.00, 0.00, 0.00, 0.00, -15989.45, 0.00, 0.000, 0.000, 0.000, 15:08:05.092, 1551730085092
14, -21088.96, 0.00, 0.00, 0.00, 0.00, 0.00, -16066.66, 0.00, 0.000, 0.000, 0.000, 15:08:05.099, 1551730085099
15, -20961.26, 0.00, 0.00, 0.00, 0.00, 0.00, -15996.94, 0.00, 0.000, 0.000, 0.000, 15:08:05.099, 1551730085099
16, -20699.23, 0.00, 0.00, 0.00, 0.00, 0.00, -15913.53, 0.00, 0.000, 0.000, 0.000, 15:08:05.105, 1551730085105
17, -20726.71, 0.00, 0.00, 0.00, 0.00, 0.00, -15900.56, 0.00, 0.000, 0.000, 0.000, 15:08:05.113, 1551730085113
18, -20980.71, 0.00, 0.00, 0.00, 0.00, 0.00, -16015.83, 0.00, 0.000, 0.000, 0.000, 15:08:05.114, 1551730085114
19, -20721.81, 0.00, 0.00, 0.00, 0.00, 0.00, -15950.32, 0.00, 0.000, 0.000, 0.000, 15:08:05.122, 1551730085122
20, -20670.69, 0.00, 0.00, 0.00, 0.00, 0.00, -15909.43, 0.00, 0.000, 0.000, 0.000, 15:08:05.122, 1551730085122
21, -20893.38, 0.00, 0.00, 0.00, 0.00, 0.00, -15942.29, 0.00, -0.708, 0.602, -0.356, 15:08:05.129, 1551730085129
22, -20952.93, 0.00, 0.00, 0.00, 0.00, 0.00, -16001.10, 0.00, 0.000, 0.000, 0.000, 15:08:05.129, 1551730085129
23, -20787.17, 0.00, 0.00, 0.00, 0.00, 0.00, -15972.91, 0.00, 0.000, 0.000, 0.000, 15:08:05.136, 1551730085136
24, -20728.74, 0.00, 0.00, 0.00, 0.00, 0.00, -15913.35, 0.00, 0.000, 0.000, 0.000, 15:08:05.136, 1551730085136
25, -20885.65, 0.00, 0.00, 0.00, 0.00, 0.00, -15939.39, 0.00, 0.000, 0.000, 0.000, 15:08:05.144, 1551730085144
26, -20913.34, 0.00, 0.00, 0.00, 0.00, 0.00, -16003.33, 0.00, 0.000, 0.000, 0.000, 15:08:05.144, 1551730085144
27, -21022.24, 0.00, 0.00, 0.00, 0.00, 0.00, -16047.81, 0.00, 0.000, 0.000, 0.000, 15:08:05.153, 1551730085153
28, -20774.96, 0.00, 0.00, 0.00, 0.00, 0.00, -15938.69, 0.00, 0.000, 0.000, 0.000, 15:08:05.153, 1551730085153
29, -20758.42, 0.00, 0.00, 0.00, 0.00, 0.00, -15915.63, 0.00, 0.000, 0.000, 0.000, 15:08:05.159, 1551730085159
30, -20933.30, 0.00, 0.00, 0.00, 0.00, 0.00, -16003.42, 0.00, -0.702, 0.598, -0.358, 15:08:05.159, 1551730085159
31, -20904.29, 0.00, 0.00, 0.00, 0.00, 0.00, -15992.05, 0.00, 0.000, 0.000, 0.000, 15:08:05.166, 1551730085166
32, -20766.29, 0.00, 0.00, 0.00, 0.00, 0.00, -15935.54, 0.00, 0.000, 0.000, 0.000, 15:08:05.166, 1551730085166
33, -20728.38, 0.00, 0.00, 0.00, 0.00, 0.00, -15902.51, 0.00, 0.000, 0.000, 0.000, 15:08:05.174, 1551730085174
34, -20944.68, 0.00, 0.00, 0.00, 0.00, 0.00, -15981.76, 0.00, 0.000, 0.000, 0.000, 15:08:05.181, 1551730085181
35, -20896.27, 0.00, 0.00, 0.00, 0.00, 0.00, -16005.12, 0.00, 0.000, 0.000, 0.000, 15:08:05.181, 1551730085181
36, -20750.78, 0.00, 0.00, 0.00, 0.00, 0.00, -15962.25, 0.00, 0.000, 0.000, 0.000, 15:08:05.189, 1551730085189
37, -20792.75, 0.00, 0.00, 0.00, 0.00, 0.00, -15930.58, 0.00, 0.000, 0.000, 0.000, 15:08:05.189, 1551730085189
38, -21081.65, 0.00, 0.00, 0.00, 0.00, 0.00, -15995.65, 0.00, 0.000, 0.000, 0.000, 15:08:05.197, 1551730085197
39, -20991.84, 0.00, 0.00, 0.00, 0.00, 0.00, -16034.49, 0.00, 0.000, 0.000, 0.000, 15:08:05.197, 1551730085197
40, -20775.86, 0.00, 0.00, 0.00, 0.00, 0.00, -15974.34, 0.00, -0.704, 0.598, -0.354, 15:08:05.205, 1551730085205
41, -20658.06, 0.00, 0.00, 0.00, 0.00, 0.00, -15921.88, 0.00, 0.000, 0.000, 0.000, 15:08:05.205, 1551730085205
42, -20896.53, 0.00, 0.00, 0.00, 0.00, 0.00, -15973.29, 0.00, 0.000, 0.000, 0.000, 15:08:05.211, 1551730085211
43, -21039.90, 0.00, 0.00, 0.00, 0.00, 0.00, -16043.28, 0.00, 0.000, 0.000, 0.000, 15:08:05.211, 1551730085211
44, -20830.53, 0.00, 0.00, 0.00, 0.00, 0.00, -15984.13, 0.00, 0.000, 0.000, 0.000, 15:08:05.219, 1551730085219
45, -20723.42, 0.00, 0.00, 0.00, 0.00, 0.00, -15927.00, 0.00, 0.000, 0.000, 0.000, 15:08:05.219, 1551730085219
46, -20936.19, 0.00, 0.00, 0.00, 0.00, 0.00, -15957.63, 0.00, 0.000, 0.000, 0.000, 15:08:05.228, 1551730085228
47, -20938.60, 0.00, 0.00, 0.00, 0.00, 0.00, -15994.48, 0.00, 0.000, 0.000, 0.000, 15:08:05.228, 1551730085228
48, -20935.11, 0.00, 0.00, 0.00, 0.00, 0.00, -16009.12, 0.00, 0.000, 0.000, 0.000, 15:08:05.234, 1551730085234
