%OpenBCI Raw EEG Data
%Number of channels = 8
%Sample Rate = 250.0 Hz
%First Column = SampleIndex
%Last Column = Timestamp 
%Other Columns = EEG data in microvolts followed by Accel Data (in G) interleaved with Aux Data
0, 0.00, 0.00, 0.00, 0.00, 0.00, 0.00, 0.00, 0.00, -0.162, 0.616, 0.760, 14:00:16.251, 1551726016251
1, -921.83, 0.00, 0.00, 0.00, 0.00, 0.00, 0.00, 0.00, 0.000, 0.000, 0.000, 14:00:16.259, 1551726016259
2, -888.50, 0.00, 0.00, 0.00, 0.00, 0.00, 0.00, 0.00, 0.000, 0.000, 0.000, 14:00:16.259, 1551726016259
3, -933.30, 0.00, 0.00, 0.00, 0.00, 0.00, 0.00, 0.00, 0.000, 0.000, 0.000, 14:00:16.266, 1551726016266
4, -997.67, 0.00, 0.00, 0.00, 0.00, 0.00, 0.00, 0.00, 0.000, 0.000, 0.000, 14:00:16.266, 1551726016266
5, -924.07, 0.00, 0.00, 0.00, 0.00, 0.00, 0.00, 0.00, 0.000, 0.000, 0.000, 14:00:16.274, 1551726016274
6, -881.42, 0.00, 0.00, 0.00, 0.00, 0.00, 0.00, 0.00, 0.000, 0.000, 0.000, 14:00:16.274, 1551726016274
7, -929.59, 0.00, 0.00, 0.00, 0.00, 0.00, 0.00, 0.00, 0.000, 0.000, 0.000, 14:00:16.282, 1551726016282
8, -993.47, 0.00, 0.00, 0.00, 0.00, 0.00, 0.00, 0.00, 0.000, 0.000, 0.000, 14:00:16.282, 1551726016282
9, -963.72, 0.00, 0.00, 0.00, 0.00, 0.00, 0.00, 0.00, 0.000, 0.000, 0.000, 14:00:16.290, 1551726016290
10, -898.14, 0.00, 0.00, 0.00, 0.00, 0.00, 0.00, 0.00, 0.000, 0.000, 0.000, 14:00:16.290, 1551726016290
11, -929.72, 0.00, 0.00, 0.00, 0.00, 0.00, 0.00, 0.00, -0.250, 0.628, 0.724, 14:00:16.296, 1551726016296
12, -1009.00, 0.00, 0.00, 0.00, 0.00, 0.00, 0.00, 0.00, 0.000, 0.000, 0.000, 14:00:16.296, 1551726016296
13, -978.72, 0.00, 0.00, 0.00, 0.00, 0.00, 0.00, 0.00, 0.000, 0.000, 0.000, 14:00:16.304, 1551726016304
14, -882.42, 0.00, 0.00, 0.00, 0.00, 0.00, 0.00, 0.00, 0.000, 0.000, 0.000, 14:00:16.304, 1551726016304
15, -934.91, 0.00, 0.00, 0.00, 0.00, 0.00, 0.00, 0.00, 0.000, 0.000, 0.000, 14:00:16.312, 1551726016312
16, -972.84, 0.00, 0.00, 0.00, 0.00, 0.00, 0.00, 0.00, 0.000, 0.000, 0.000, 14:00:16.322, 1551726016322
17, -944.14, 0.00, 0.00, 0.00, 0.00, 0.00, 0.00, 0.00, 0.000, 0.000, 0.000, 14:00:16.322, 1551726016322
18, -871.65, 0.00, 0.00, 0.00, 0.00, 0.00, 0.00, 0.00, 0.000, 0.000, 0.000, 14:00:16.327, 1551726016327
19, -893.58, 0.00, 0.00, 0.00, 0.00, 0.00, 0.00, 0.00, 0.000, 0.000, 0.000, 14:00:16.328, 1551726016328
20, -945.70, 0.00, 0.00, 0.00, 0.00, 0.00, 0.00, 0.00, 0.000, 0.000, 0.000, 14:00:16.334, 1551726016334
21, -962.15, 0.00, 0.00, 0.00, 0.00, 0.00, 0.00, 0.00, -0.296, 0.628, 0.712, 14:00:16.335, 1551726016335
22, -871.81, 0.00, 0.00, 0.00, 0.00, 0.00, 0.00, 0.00, 0.000, 0.000, 0.000, 14:00:16.342, 1551726016342
23, -859.65, 0.00, 0.00, 0.00, 0.00, 0.00, 0.00, 0.00, 0.000, 0.000, 0.000, 14:00:16.342, 1551726016342
24, -912.31, 0.00, 0.00, 0.00, 0.00, 0.00, 0.00, 0.00, 0.000, 0.000, 0.000, 14:00:16.349, 1551726016349
25, -970.67, 0.00, 0.00, 0.00, 0.00, 0.00, 0.00, 0.00, 0.000, 0.000, 0.000, 14:00:16.349, 1551726016349
26, -891.48, 0.00, 0.00, 0.00, 0.00, 0.00, 0.00, 0.00, 0.000, 0.000, 0.000, 14:00:16.357, 1551726016357
27, -857.70, 0.00, 0.00, 0.00, 0.00, 0.00, 0.00, 0.00, 0.000, 0.000, 0.000, 14:00:16.357, 1551726016357
28, -907.17, 0.00, 0.00, 0.00, 0.00, 0.00, 0.00, 0.00, 0.000, 0.000, 0.000, 14:00:16.365, 1551726016365
29, -969.78, 0.00, 0.00, 0.00, 0.00, 0.00, 0.00, 0.00, 0.000, 0.000, 0.000, 14:00:16.365, 1551726016365
30, -903.32, 0.00, 0.00, 0.00, 0.00, 0.00, 0.00, 0.00, -0.318, 0.636, 0.702, 14:00:16.372, 1551726016372
31, -855.89, 0.00, 0.00, 0.00, 0.00, 0.00, 0.00, 0.00, 0.000, 0.000, 0.000, 14:00:16.378, 1551726016378
32, -895.39, 0.00, 0.00, 0.00, 0.00, 0.00, 0.00, 0.00, 0.000, 0.000, 0.000, 14:00:16.378, 1551726016378
33, -955.96, 0.00, 0.00, 0.00, 0.00, 0.00, 0.00, 0.00, 0.000, 0.000, 0.000, 14:00:16.387, 1551726016387
34, -919.08, 0.00, 0.00, 0.00, 0.00, 0.00, 0.00, 0.00, 0.000, 0.000, 0.000, 14:00:16.387, 1551726016387
35, -860.25, 0.00, 0.00, 0.00, 0.00, 0.00, 0.00, 0.00, 0.000, 0.000, 0.000, 14:00:16.394, 1551726016394
36, -888.64, 0.00, 0.00, 0.00, 0.00, 0.00, 0.00, 0.00, 0.000, 0.000, 0.000, 14:00:16.394, 1551726016394
37, -949.14, 0.00, 0.00, 0.00, 0.00, 0.00, 0.00, 0.00, 0.000, 0.000, 0.000, 14:00:16.401, 1551726016401
38, -931.53, 0.00, 0.00, 0.00, 0.00, 0.00, 0.00, 0.00, 0.000, 0.000, 0.000, 14:00:16.401, 1551726016401
39, -854.46, 0.00, 0.00, 0.00, 0.00, 0.00, 0.00, 0.00, 0.000, 0.000, 0.000, 14:00:16.409, 1551726016409
40, -875.12, 0.00, 0.00, 0.00, 0.00, 0.00, 0.00, 0.00, -0.328, 0.642, 0.704, 14:00:16.409, 1551726016409
41, -940.27, 0.00, 0.00, 0.00, 0.00, 0.00, 0.00, 0.00, 0.000, 0.000, 0.000, 14:00:16.417, 1551726016417
42, -947.85, 0.00, 0.00, 0.00, 0.00, 0.00, 0.00, 0.00, 0.000, 0.000, 0.000, 14:00:16.417, 1551726016417
43, -865.93, 0.00, 0.00, 0.00, 0.00, 0.00, 0.00, 0.00, 0.000, 0.000, 0.000, 14:00:16.425, 1551726016425
44, -879.52, 0.00, 0.00, 0.00, 0.00, 0.00, 0.00, 0.00, 0.000, 0.000, 0.000, 14:00:16.425, 1551726016425
45, -922.68, 0.00, 0.00, 0.00, 0.00, 0.00, 0.00, 0.00, 0.000, 0.000, 0.000, 14:00:16.431, 1551726016431
46, -950.55, 0.00, 0.00, 0.00, 0.00, 0.00, 0.00, 0.00, 0.000, 0.000, 0.000, 14:00:16.439, 1551726016439
47, -871.58, 0.00, 0.00, 0.00, 0.00, 0.00, 0.00, 0.00, 0.000, 0.000, 0.000, 14:00:16.439, 1551726016439
48, -860.18, 0.00, 0.00, 0.00, 0.00, 0.00, 0.00, 0.00, 0.000, 0.000, 0.000, 14:00:16.447, 1551726016447
49, -917.00, 0.00, 0.00, 0.00, 0.00, 0.00, 0.00, 0.00, 0.000, 0.000, 0.000, 14:00:16.447, 1551726016447
50, -967.85, 0.00, 0.00, 0.00, 0.00, 0.00, 0.00, 0.00, -0.338, 0.638, 0.702, 14:00:16.455, 1551726016455
51, -895.28, 0.00, 0.00, 0.00, 0.00, 0.00, 0.00, 0.00, 0.000, 0.000, 0.000, 14:00:16.455, 1551726016455
52, -858.13, 0.00, 0.00, 0.00, 0.00, 0.00, 0.00, 0.00, 0.000, 0.000, 0.000, 14:00:16.461, 1551726016461
53, -898.09, 0.00, 0.00, 0.00, 0.00, 0.00, 0.00, 0.00, 0.000, 0.000, 0.000, 14:00:16.461, 1551726016461
54, -958.67, 0.00, 0.00, 0.00, 0.00, 0.00, 0.00, 0.00, 0.000, 0.000, 0.000, 14:00:16.469, 1551726016469
55, -904.33, 0.00, 0.00, 0.00, 0.00, 0.00, 0.00, 0.00, 0.000, 0.000, 0.000, 14:00:16.469, 1551726016469
56, -857.57, 0.00, 0.00, 0.00, 0.00, 0.00, 0.00, 0.00, 0.000, 0.000, 0.000, 14:00:16.477, 1551726016477
57, -888.46, 0.00, 0.00, 0.00, 0.00, 0.00, 0.00, 0.00, 0.000, 0.000, 0.000, 14:00:16.477, 1551726016477
58, -962.91, 0.00, 0.00, 0.00, 0.00, 0.00, 0.00, 0.00, 0.000, 0.000, 0.000, 14:00:16.484, 1551726016484
59, -927.58, 0.00, 0.00, 0.00, 0.00, 0.00, 0.00, 0.00, 0.000, 0.000, 0.000, 14:00:16.484, 1551726016484
60, -857.75, 0.00, 0.00, 0.00, 0.00, 0.00, 0.00, 0.00, -0.336, 0.644, 0.702, 14:00:16.491, 1551726016491
61, -886.60, 0.00, 0.00, 0.00, 0.00, 0.00, 0.00, 0.00, 0.000, 0.000, 0.000, 14:00:16.491, 1551726016491
62, -959.76, 0.00, 0.00, 0.00, 0.00, 0.00, 0.00, 0.00, 0.000, 0.000, 0.000, 14:00:16.499, 1551726016499
63, -946.08, 0.00, 0.00, 0.00, 0.00, 0.00, 0.00, 0.00, 0.000, 0.000, 0.000, 14:00:16.507, 1551726016507
64, -866.00, 0.00, 0.00, 0.00, 0.00, 0.00, 0.00, 0.00, 0.000, 0.000, 0.000, 14:00:16.507, 1551726016507
65, -886.85, 0.00, 0.00, 0.00, 0.00, 0.00, 0.00, 0.00, 0.000, 0.000, 0.000, 14:00:16.514, 1551726016514
66, -950.55, 0.00, 0.00, 0.00, 0.00, 0.00, 0.00, 0.00, 0.000, 0.000, 0.000, 14:00:16.514, 1551726016514
67, -964.34, 0.00, 0.00, 0.00, 0.00, 0.00, 0.00, 0.00, 0.000, 0.000, 0.000, 14:00:16.521, 1551726016521
68, -876.37, 0.00, 0.00, 0.00, 0.00, 0.00, 0.00, 0.00, 0.000, 0.000, 0.000, 14:00:16.522, 1551726016522
69, -891.14, 0.00, 0.00, 0.00, 0.00, 0.00, 0.00, 0.00, 0.000, 0.000, 0.000, 14:00:16.530, 1551726016530
70, -946.31, 0.00, 0.00, 0.00, 0.00, 0.00, 0.00, 0.00, -0.338, 0.644, 0.704, 14:00:16.530, 1551726016530
71, -975.54, 0.00, 0.00, 0.00, 0.00, 0.00, 0.00, 0.00, 0.000, 0.000, 0.000, 14:00:16.537, 1551726016537
72, -887.30, 0.00, 0.00, 0.00, 0.00, 0.00, 0.00, 0.00, 0.000, 0.000, 0.000, 14:00:16.537, 1551726016537
73, -862.13, 0.00, 0.00, 0.00, 0.00, 0.00, 0.00, 0.00, 0.000, 0.000, 0.000, 14:00:16.544, 1551726016544
74, -919.15, 0.00, 0.00, 0.00, 0.00, 0.00, 0.00, 0.00, 0.000, 0.000, 0.000, 14:00:16.544, 1551726016544
75, -978.60, 0.00, 0.00, 0.00, 0.00, 0.00, 0.00, 0.00, 0.000, 0.000, 0.000, 14:00:16.552, 1551726016552
76, -904.55, 0.00, 0.00, 0.00, 0.00, 0.00, 0.00, 0.00, 0.000, 0.000, 0.000, 14:00:16.552, 1551726016552
77, -863.43, 0.00, 0.00, 0.00, 0.00, 0.00, 0.00, 0.00, 0.000, 0.000, 0.000, 14:00:16.559, 1551726016559
78, -911.66, 0.00, 0.00, 0.00, 0.00, 0.00, 0.00, 0.00, 0.000, 0.000, 0.000, 14:00:16.566, 1551726016566
79, -976.26, 0.00, 0.00, 0.00, 0.00, 0.00, 0.00, 0.00, 0.000, 0.000, 0.000, 14:00:16.566, 1551726016566
80, -931.44, 0.00, 0.00, 0.00, 0.00, 0.00, 0.00, 0.00, -0.336, 0.640, 0.704, 14:00:16.574, 1551726016574
81, -863.02, 0.00, 0.00, 0.00, 0.00, 0.00, 0.00, 0.00, 0.000, 0.000, 0.000, 14:00:16.574, 1551726016574
82, -891.25, 0.00, 0.00, 0.00, 0.00, 0.00, 0.00, 0.00, 0.000, 0.000, 0.000, 14:00:16.582, 1551726016582
83, -971.85, 0.00, 0.00, 0.00, 0.00, 0.00, 0.00, 0.00, 0.000, 0.000, 0.000, 14:00:16.582, 1551726016582
84, -930.93, 0.00, 0.00, 0.00, 0.00, 0.00, 0.00, 0.00, 0.000, 0.000, 0.000, 14:00:16.589, 1551726016589
85, -864.63, 0.00, 0.00, 0.00, 0.00, 0.00, 0.00, 0.00, 0.000, 0.000, 0.000, 14:00:16.589, 1551726016589
86, -886.22, 0.00, 0.00, 0.00, 0.00, 0.00, 0.00, 0.00, 0.000, 0.000, 0.000, 14:00:16.596, 1551726016596
87, -956.05, 0.00, 0.00, 0.00, 0.00, 0.00, 0.00, 0.00, 0.000, 0.000, 0.000, 14:00:16.597, 1551726016597
88, -946.37, 0.00, 0.00, 0.00, 0.00, 0.00, 0.00, 0.00, 0.000, 0.000, 0.000, 14:00:16.604, 1551726016604
89, -871.03, 0.00, 0.00, 0.00, 0.00, 0.00, 0.00, 0.00, 0.000, 0.000, 0.000, 14:00:16.605, 1551726016605
90, -877.02, 0.00, 0.00, 0.00, 0.00, 0.00, 0.00, 0.00, -0.340, 0.642, 0.692, 14:00:16.612, 1551726016612
91, -941.43, 0.00, 0.00, 0.00, 0.00, 0.00, 0.00, 0.00, 0.000, 0.000, 0.000, 14:00:16.613, 1551726016613
92, -959.61, 0.00, 0.00, 0.00, 0.00, 0.00, 0.00, 0.00, 0.000, 0.000, 0.000, 14:00:16.619, 1551726016619
93, -868.34, 0.00, 0.00, 0.00, 0.00, 0.00, 0.00, 0.00, 0.000, 0.000, 0.000, 14:00:16.626, 1551726016626
94, -871.09, 0.00, 0.00, 0.00, 0.00, 0.00, 0.00, 0.00, 0.000, 0.000, 0.000, 14:00:16.626, 1551726016626
95, -927.31, 0.00, 0.00, 0.00, 0.00, 0.00, 0.00, 0.00, 0.000, 0.000, 0.000, 14:00:16.634, 1551726016634
96, -968.48, 0.00, 0.00, 0.00, 0.00, 0.00, 0.00, 0.00, 0.000, 0.000, 0.000, 14:00:16.634, 1551726016634
97, -889.09, 0.00, 0.00, 0.00, 0.00, 0.00, 0.00, 0.00, 0.000, 0.000, 0.000, 14:00:16.642, 1551726016642
98, -870.24, 0.00, 0.00, 0.00, 0.00, 0.00, 0.00, 0.00, 0.000, 0.000, 0.000, 14:00:16.642, 1551726016642
99, -914.16, 0.00, 0.00, 0.00, 0.00, 0.00, 0.00, 0.00, -0.342, 0.646, 0.692, 14:00:16.649, 1551726016649
100, -973.13, 0.00, 0.00, 0.00, 0.00, 0.00, 0.00, 0.00, 0.000, 0.000, 0.000, 14:00:16.649, 1551726016649
101, -899.46, 0.00, 0.00, 0.00, 0.00, 0.00, 0.00, 0.00, 0.000, 0.000, 0.000, 14:00:16.657, 1551726016657
102, -867.56, 0.00, 0.00, 0.00, 0.00, 0.00, 0.00, 0.00, 0.000, 0.000, 0.000, 14:00:16.657, 1551726016657
103, -918.32, 0.00, 0.00, 0.00, 0.00, 0.00, 0.00, 0.00, 0.000, 0.000, 0.000, 14:00:16.665, 1551726016665
104, -970.11, 0.00, 0.00, 0.00, 0.00, 0.00, 0.00, 0.00, 0.000, 0.000, 0.000, 14:00:16.665, 1551726016665
105, -920.15, 0.00, 0.00, 0.00, 0.00, 0.00, 0.00, 0.00, 0.000, 0.000, 0.000, 14:00:16.672, 1551726016672
106, -864.52, 0.00, 0.00, 0.00, 0.00, 0.00, 0.00, 0.00, 0.000, 0.000, 0.000, 14:00:16.672, 1551726016672
107, -891.32, 0.00, 0.00, 0.00, 0.00, 0.00, 0.00, 0.00, 0.000, 0.000, 0.000, 14:00:16.679, 1551726016679
108, -964.86, 0.00, 0.00, 0.00, 0.00, 0.00, 0.00, 0.00, 0.000, 0.000, 0.000, 14:00:16.686, 1551726016686
109, -941.28, 0.00, 0.00, 0.00, 0.00, 0.00, 0.00, 0.00, -0.340, 0.644, 0.688, 14:00:16.687, 1551726016687
110, -867.76, 0.00, 0.00, 0.00, 0.00, 0.00, 0.00, 0.00, 0.000, 0.000, 0.000, 14:00:16.694, 1551726016694
111, -890.67, 0.00, 0.00, 0.00, 0.00, 0.00, 0.00, 0.00, 0.000, 0.000, 0.000, 14:00:16.694, 1551726016694
112, -957.68, 0.00, 0.00, 0.00, 0.00, 0.00, 0.00, 0.00, 0.000, 0.000, 0.000, 14:00:16.702, 1551726016702
113, -951.18, 0.00, 0.00, 0.00, 0.00, 0.00, 0.00, 0.00, 0.000, 0.000, 0.000, 14:00:16.702, 1551726016702
114, -864.32, 0.00, 0.00, 0.00, 0.00, 0.00, 0.00, 0.00, 0.000, 0.000, 0.000, 14:00:16.709, 1551726016709
115, -875.81, 0.00, 0.00, 0.00, 0.00, 0.00, 0.00, 0.00, 0.000, 0.000, 0.000, 14:00:16.709, 1551726016709
116, -935.22, 0.00, 0.00, 0.00, 0.00, 0.00, 0.00, 0.00, 0.000, 0.000, 0.000, 14:00:16.717, 1551726016717
117, -952.85, 0.00, 0.00, 0.00, 0.00, 0.00, 0.00, 0.00, 0.000, 0.000, 0.000, 14:00:16.717, 1551726016717
118, -864.70, 0.00, 0.00, 0.00, 0.00, 0.00, 0.00, 0.00, 0.000, 0.000, 0.000, 14:00:16.725, 1551726016725
119, -866.82, 0.00, 0.00, 0.00, 0.00, 0.00, 0.00, 0.00, -0.340, 0.646, 0.694, 14:00:16.725, 1551726016725
120, -925.38, 0.00, 0.00, 0.00, 0.00, 0.00, 0.00, 0.00, 0.000, 0.000, 0.000, 14:00:16.732, 1551726016732
121, -972.41, 0.00, 0.00, 0.00, 0.00, 0.00, 0.00, 0.00, 0.000, 0.000, 0.000, 14:00:16.732, 1551726016732
122, -888.79, 0.00, 0.00, 0.00, 0.00, 0.00, 0.00, 0.00, 0.000, 0.000, 0.000, 14:00:16.739, 1551726016739
123, -869.06, 0.00, 0.00, 0.00, 0.00, 0.00, 0.00, 0.00, 0.000, 0.000, 0.000, 14:00:16.740, 1551726016740
124, -902.79, 0.00, 0.00, 0.00, 0.00, 0.00, 0.00, 0.00, 0.000, 0.000, 0.000, 14:00:16.746, 1551726016746
125, -968.57, 0.00, 0.00, 0.00, 0.00, 0.00, 0.00, 0.00, 0.000, 0.000, 0.000, 14:00:16.754, 1551726016754
126, -900.17, 0.00, 0.00, 0.00, 0.00, 0.00, 0.00, 0.00, 0.000, 0.000, 0.000, 14:00:16.754, 1551726016754
127, -854.91, 0.00, 0.00, 0.00, 0.00, 0.00, 0.00, 0.00, 0.000, 0.000, 0.000, 14:00:16.762, 1551726016762
128, -895.39, 0.00, 0.00, 0.00, 0.00, 0.00, 0.00, 0.00, 0.000, 0.000, 0.000, 14:00:16.762, 1551726016762
129, -967.25, 0.00, 0.00, 0.00, 0.00, 0.00, 0.00, 0.00, -0.340, 0.646, 0.700, 14:00:16.769, 1551726016769
130, -925.61, 0.00, 0.00, 0.00, 0.00, 0.00, 0.00, 0.00, 0.000, 0.000, 0.000, 14:00:16.769, 1551726016769
131, -868.83, 0.00, 0.00, 0.00, 0.00, 0.00, 0.00, 0.00, 0.000, 0.000, 0.000, 14:00:16.776, 1551726016776
132, -900.26, 0.00, 0.00, 0.00, 0.00, 0.00, 0.00, 0.00, 0.000, 0.000, 0.000, 14:00:16.777, 1551726016777
133, -963.52, 0.00, 0.00, 0.00, 0.00, 0.00, 0.00, 0.00, 0.000, 0.000, 0.000, 14:00:16.786, 1551726016786
134, -936.23, 0.00, 0.00, 0.00, 0.00, 0.00, 0.00, 0.00, 0.000, 0.000, 0.000, 14:00:16.787, 1551726016787
135, -856.99, 0.00, 0.00, 0.00, 0.00, 0.00, 0.00, 0.00, 0.000, 0.000, 0.000, 14:00:16.796, 1551726016796
136, -882.02, 0.00, 0.00, 0.00, 0.00, 0.00, 0.00, 0.00, 0.000, 0.000, 0.000, 14:00:16.796, 1551726016796
137, -957.48, 0.00, 0.00, 0.00, 0.00, 0.00, 0.00, 0.00, 0.000, 0.000, 0.000, 14:00:16.799, 1551726016799
138, -941.95, 0.00, 0.00, 0.00, 0.00, 0.00, 0.00, 0.00, 0.000, 0.000, 0.000, 14:00:16.799, 1551726016799
139, -857.86, 0.00, 0.00, 0.00, 0.00, 0.00, 0.00, 0.00, -0.338, 0.646, 0.696, 14:00:16.807, 1551726016807
140, -857.46, 0.00, 0.00, 0.00, 0.00, 0.00, 0.00, 0.00, 0.000, 0.000, 0.000, 14:00:16.815, 1551726016815
141, -918.68, 0.00, 0.00, 0.00, 0.00, 0.00, 0.00, 0.00, 0.000, 0.000, 0.000, 14:00:16.815, 1551726016815
142, -951.56, 0.00, 0.00, 0.00, 0.00, 0.00, 0.00, 0.00, 0.000, 0.000, 0.000, 14:00:16.821, 1551726016821
143, -874.60, 0.00, 0.00, 0.00, 0.00, 0.00, 0.00, 0.00, 0.000, 0.000, 0.000, 14:00:16.822, 1551726016822
144, -854.51, 0.00, 0.00, 0.00, 0.00, 0.00, 0.00, 0.00, 0.000, 0.000, 0.000, 14:00:16.830, 1551726016830
145, -904.58, 0.00, 0.00, 0.00, 0.00, 0.00, 0.00, 0.00, 0.000, 0.000, 0.000, 14:00:16.830, 1551726016830
146, -953.08, 0.00, 0.00, 0.00, 0.00, 0.00, 0.00, 0.00, 0.000, 0.000, 0.000, 14:00:16.837, 1551726016837
147, -880.64, 0.00, 0.00, 0.00, 0.00, 0.00, 0.00, 0.00, 0.000, 0.000, 0.000, 14:00:16.837, 1551726016837
148, -845.81, 0.00, 0.00, 0.00, 0.00, 0.00, 0.00, 0.00, 0.000, 0.000, 0.000, 14:00:16.845, 1551726016845
149, -896.98, 0.00, 0.00, 0.00, 0.00, 0.00, 0.00, 0.00, -0.336, 0.652, 0.694, 14:00:16.845, 1551726016845
150, -958.26, 0.00, 0.00, 0.00, 0.00, 0.00, 0.00, 0.00, 0.000, 0.000, 0.000, 14:00:16.852, 1551726016852
151, -888.24, 0.00, 0.00, 0.00, 0.00, 0.00, 0.00, 0.00, 0.000, 0.000, 0.000, 14:00:16.852, 1551726016852
152, -844.76, 0.00, 0.00, 0.00, 0.00, 0.00, 0.00, 0.00, 0.000, 0.000, 0.000, 14:00:16.860, 1551726016860
153, -882.49, 0.00, 0.00, 0.00, 0.00, 0.00, 0.00, 0.00, 0.000, 0.000, 0.000, 14:00:16.860, 1551726016860
154, -954.82, 0.00, 0.00, 0.00, 0.00, 0.00, 0.00, 0.00, 0.000, 0.000, 0.000, 14:00:16.867, 1551726016867
155, -900.80, 0.00, 0.00, 0.00, 0.00, 0.00, 0.00, 0.00, 0.000, 0.000, 0.000, 14:00:16.875, 1551726016875
156, -844.96, 0.00, 0.00, 0.00, 0.00, 0.00, 0.00, 0.00, 0.000, 0.000, 0.000, 14:00:16.875, 1551726016875
157, -879.03, 0.00, 0.00, 0.00, 0.00, 0.00, 0.00, 0.00, 0.000, 0.000, 0.000, 14:00:16.882, 1551726016882
158, -945.03, 0.00, 0.00, 0.00, 0.00, 0.00, 0.00, 0.00, -0.338, 0.648, 0.690, 14:00:16.883, 1551726016883
159, -929.97, 0.00, 0.00, 0.00, 0.00, 0.00, 0.00, 0.00, 0.000, 0.000, 0.000, 14:00:16.889, 1551726016889
160, -848.07, 0.00, 0.00, 0.00, 0.00, 0.00, 0.00, 0.00, 0.000, 0.000, 0.000, 14:00:16.889, 1551726016889
161, -871.25, 0.00, 0.00, 0.00, 0.00, 0.00, 0.00, 0.00, 0.000, 0.000, 0.000, 14:00:16.898, 1551726016898
162, -958.87, 0.00, 0.00, 0.00, 0.00, 0.00, 0.00, 0.00, 0.000, 0.000, 0.000, 14:00:16.898, 1551726016898
163, -943.89, 0.00, 0.00, 0.00, 0.00, 0.00, 0.00, 0.00, 0.000, 0.000, 0.000, 14:00:16.907, 1551726016907
164, -851.15, 0.00, 0.00, 0.00, 0.00, 0.00, 0.00, 0.00, 0.000, 0.000, 0.000, 14:00:16.907, 1551726016907
165, -861.59, 0.00, 0.00, 0.00, 0.00, 0.00, 0.00, 0.00, 0.000, 0.000, 0.000, 14:00:16.912, 1551726016912
166, -932.34, 0.00, 0.00, 0.00, 0.00, 0.00, 0.00, 0.00, 0.000, 0.000, 0.000, 14:00:16.912, 1551726016912
167, -967.83, 0.00, 0.00, 0.00, 0.00, 0.00, 0.00, 0.00, 0.000, 0.000, 0.000, 14:00:16.920, 1551726016920
168, -871.65, 0.00, 0.00, 0.00, 0.00, 0.00, 0.00, 0.00, -0.336, 0.648, 0.690, 14:00:16.920, 1551726016920
169, -861.59, 0.00, 0.00, 0.00, 0.00, 0.00, 0.00, 0.00, 0.000, 0.000, 0.000, 14:00:16.927, 1551726016927
170, -918.32, 0.00, 0.00, 0.00, 0.00, 0.00, 0.00, 0.00, 0.000, 0.000, 0.000, 14:00:16.936, 1551726016936
171, -973.75, 0.00, 0.00, 0.00, 0.00, 0.00, 0.00, 0.00, 0.000, 0.000, 0.000, 14:00:16.936, 1551726016936
172, -891.05, 0.00, 0.00, 0.00, 0.00, 0.00, 0.00, 0.00, 0.000, 0.000, 0.000, 14:00:16.942, 1551726016942
173, -863.76, 0.00, 0.00, 0.00, 0.00, 0.00, 0.00, 0.00, 0.000, 0.000, 0.000, 14:00:16.942, 1551726016942
174, -904.89, 0.00, 0.00, 0.00, 0.00, 0.00, 0.00, 0.00, 0.000, 0.000, 0.000, 14:00:16.951, 1551726016951
175, -966.71, 0.00, 0.00, 0.00, 0.00, 0.00, 0.00, 0.00, 0.000, 0.000, 0.000, 14:00:16.951, 1551726016951
176, -907.68, 0.00, 0.00, 0.00, 0.00, 0.00, 0.00, 0.00, 0.000, 0.000, 0.000, 14:00:16.957, 1551726016957
177, -860.92, 0.00, 0.00, 0.00, 0.00, 0.00, 0.00, 0.00, 0.000, 0.000, 0.000, 14:00:16.957, 1551726016957
178, -894.49, 0.00, 0.00, 0.00, 0.00, 0.00, 0.00, 0.00, -0.340, 0.646, 0.690, 14:00:16.966, 1551726016966
179, -961.66, 0.00, 0.00, 0.00, 0.00, 0.00, 0.00, 0.00, 0.000, 0.000, 0.000, 14:00:16.966, 1551726016966
180, -921.81, 0.00, 0.00, 0.00, 0.00, 0.00, 0.00, 0.00, 0.000, 0.000, 0.000, 14:00:16.972, 1551726016972
181, -852.50, 0.00, 0.00, 0.00, 0.00, 0.00, 0.00, 0.00, 0.000, 0.000, 0.000, 14:00:16.972, 1551726016972
182, -892.97, 0.00, 0.00, 0.00, 0.00, 0.00, 0.00, 0.00, 0.000, 0.000, 0.000, 14:00:16.981, 1551726016981
183, -952.54, 0.00, 0.00, 0.00, 0.00, 0.00, 0.00, 0.00, 0.000, 0.000, 0.000, 14:00:16.981, 1551726016981
184, -932.27, 0.00, 0.00, 0.00, 0.00, 0.00, 0.00, 0.00, 0.000, 0.000, 0.000, 14:00:16.986, 1551726016986
185, -863.54, 0.00, 0.00, 0.00, 0.00, 0.00, 0.00, 0.00, 0.000, 0.000, 0.000, 14:00:16.987, 1551726016987
186, -882.38, 0.00, 0.00, 0.00, 0.00, 0.00, 0.00, 0.00, 0.000, 0.000, 0.000, 14:00:16.994, 1551726016994
187, -956.25, 0.00, 0.00, 0.00, 0.00, 0.00, 0.00, 0.00, 0.000, 0.000, 0.000, 14:00:17.009, 1551726017009
188, -957.24, 0.00, 0.00, 0.00, 0.00, 0.00, 0.00, 0.00, -0.334, 0.650, 0.690, 14:00:17.010, 1551726017010
189, -872.19, 0.00, 0.00, 0.00, 0.00, 0.00, 0.00, 0.00, 0.000, 0.000, 0.000, 14:00:17.010, 1551726017010
190, -882.22, 0.00, 0.00, 0.00, 0.00, 0.00, 0.00, 0.00, 0.000, 0.000, 0.000, 14:00:17.010, 1551726017010
191, -937.14, 0.00, 0.00, 0.00, 0.00, 0.00, 0.00, 0.00, 0.000, 0.000, 0.000, 14:00:17.017, 1551726017017
192, -973.84, 0.00, 0.00, 0.00, 0.00, 0.00, 0.00, 0.00, 0.000, 0.000, 0.000, 14:00:17.017, 1551726017017
193, -884.59, 0.00, 0.00, 0.00, 0.00, 0.00, 0.00, 0.00, 0.000, 0.000, 0.000, 14:00:17.025, 1551726017025
194, -873.64, 0.00, 0.00, 0.00, 0.00, 0.00, 0.00, 0.00, 0.000, 0.000, 0.000, 14:00:17.025, 1551726017025
195, -927.46, 0.00, 0.00, 0.00, 0.00, 0.00, 0.00, 0.00, 0.000, 0.000, 0.000, 14:00:17.032, 1551726017032
196, -983.72, 0.00, 0.00, 0.00, 0.00, 0.00, 0.00, 0.00, 0.000, 0.000, 0.000, 14:00:17.033, 1551726017033
197, -903.28, 0.00, 0.00, 0.00, 0.00, 0.00, 0.00, 0.00, 0.000, 0.000, 0.000, 14:00:17.039, 1551726017039
198, -871.36, 0.00, 0.00, 0.00, 0.00, 0.00, 0.00, 0.00, -0.334, 0.650, 0.690, 14:00:17.040, 1551726017040
199, -924.47, 0.00, 0.00, 0.00, 0.00, 0.00, 0.00, 0.00, 0.000, 0.000, 0.000, 14:00:17.048, 1551726017048
200, -982.65, 0.00, 0.00, 0.00, 0.00, 0.00, 0.00, 0.00, 0.000, 0.000, 0.000, 14:00:17.048, 1551726017048
201, -925.27, 0.00, 0.00, 0.00, 0.00, 0.00, 0.00, 0.00, 0.000, 0.000, 0.000, 14:00:17.054, 1551726017054
202, -885.62, 0.00, 0.00, 0.00, 0.00, 0.00, 0.00, 0.00, 0.000, 0.000, 0.000, 14:00:17.062, 1551726017062
203, -927.35, 0.00, 0.00, 0.00, 0.00, 0.00, 0.00, 0.00, 0.000, 0.000, 0.000, 14:00:17.062, 1551726017062
204, -975.23, 0.00, 0.00, 0.00, 0.00, 0.00, 0.00, 0.00, 0.000, 0.000, 0.000, 14:00:17.069, 1551726017069
205, -943.33, 0.00, 0.00, 0.00, 0.00, 0.00, 0.00, 0.00, 0.000, 0.000, 0.000, 14:00:17.069, 1551726017069
206, -874.67, 0.00, 0.00, 0.00, 0.00, 0.00, 0.00, 0.00, 0.000, 0.000, 0.000, 14:00:17.077, 1551726017077
207, -900.04, 0.00, 0.00, 0.00, 0.00, 0.00, 0.00, 0.00, 0.000, 0.000, 0.000, 14:00:17.077, 1551726017077
208, -972.52, 0.00, 0.00, 0.00, 0.00, 0.00, 0.00, 0.00, -0.340, 0.642, 0.688, 14:00:17.084, 1551726017084
209, -959.27, 0.00, 0.00, 0.00, 0.00, 0.00, 0.00, 0.00, 0.000, 0.000, 0.000, 14:00:17.085, 1551726017085
210, -873.06, 0.00, 0.00, 0.00, 0.00, 0.00, 0.00, 0.00, 0.000, 0.000, 0.000, 14:00:17.092, 1551726017092
211, -888.08, 0.00, 0.00, 0.00, 0.00, 0.00, 0.00, 0.00, 0.000, 0.000, 0.000, 14:00:17.092, 1551726017092
212, -947.33, 0.00, 0.00, 0.00, 0.00, 0.00, 0.00, 0.00, 0.000, 0.000, 0.000, 14:00:17.100, 1551726017100
213, -967.58, 0.00, 0.00, 0.00, 0.00, 0.00, 0.00, 0.00, 0.000, 0.000, 0.000, 14:00:17.100, 1551726017100
214, -878.24, 0.00, 0.00, 0.00, 0.00, 0.00, 0.00, 0.00, 0.000, 0.000, 0.000, 14:00:17.107, 1551726017107
215, -893.06, 0.00, 0.00, 0.00, 0.00, 0.00, 0.00, 0.00, 0.000, 0.000, 0.000, 14:00:17.108, 1551726017108
216, -938.06, 0.00, 0.00, 0.00, 0.00, 0.00, 0.00, 0.00, 0.000, 0.000, 0.000, 14:00:17.114, 1551726017114
217, -981.82, 0.00, 0.00, 0.00, 0.00, 0.00, 0.00, 0.00, 0.000, 0.000, 0.000, 14:00:17.122, 1551726017122
218, -906.18, 0.00, 0.00, 0.00, 0.00, 0.00, 0.00, 0.00, -0.340, 0.638, 0.696, 14:00:17.122, 1551726017122
219, -882.27, 0.00, 0.00, 0.00, 0.00, 0.00, 0.00, 0.00, 0.000, 0.000, 0.000, 14:00:17.129, 1551726017129
220, -925.43, 0.00, 0.00, 0.00, 0.00, 0.00, 0.00, 0.00, 0.000, 0.000, 0.000, 14:00:17.129, 1551726017129
221, -973.35, 0.00, 0.00, 0.00, 0.00, 0.00, 0.00, 0.00, 0.000, 0.000, 0.000, 14:00:17.137, 1551726017137
222, -901.47, 0.00, 0.00, 0.00, 0.00, 0.00, 0.00, 0.00, 0.000, 0.000, 0.000, 14:00:17.138, 1551726017138
223, -876.61, 0.00, 0.00, 0.00, 0.00, 0.00, 0.00, 0.00, 0.000, 0.000, 0.000, 14:00:17.145, 1551726017145
224, -901.78, 0.00, 0.00, 0.00, 0.00, 0.00, 0.00, 0.00, 0.000, 0.000, 0.000, 14:00:17.145, 1551726017145
225, -974.45, 0.00, 0.00, 0.00, 0.00, 0.00, 0.00, 0.00, 0.000, 0.000, 0.000, 14:00:17.151, 1551726017151
226, -929.21, 0.00, 0.00, 0.00, 0.00, 0.00, 0.00, 0.00, 0.000, 0.000, 0.000, 14:00:17.152, 1551726017152
227, -880.08, 0.00, 0.00, 0.00, 0.00, 0.00, 0.00, 0.00, -0.338, 0.636, 0.694, 14:00:17.160, 1551726017160
228, -945.57, 0.00, 0.00, 0.00, 0.00, 0.00, 0.00, 0.00, 0.000, 0.000, 0.000, 14:00:17.160, 1551726017160
229, -1012.78, 0.00, 0.00, 0.00, 0.00, 0.00, 0.00, 0.00, 0.000, 0.000, 0.000, 14:00:17.168, 1551726017168
230, -945.84, 0.00, 0.00, 0.00, 0.00, 0.00, 0.00, 0.00, 0.000, 0.000, 0.000, 14:00:17.168, 1551726017168
231, -890.11, 0.00, 0.00, 0.00, 0.00, 0.00, 0.00, 0.00, 0.000, 0.000, 0.000, 14:00:17.174, 1551726017174
232, -970.38, 0.00, 0.00, 0.00, 0.00, 0.00, 0.00, 0.00, 0.000, 0.000, 0.000, 14:00:17.181, 1551726017181
233, -996.13, 0.00, 0.00, 0.00, 0.00, 0.00, 0.00, 0.00, 0.000, 0.000, 0.000, 14:00:17.181, 1551726017181
234, -981.96, 0.00, 0.00, 0.00, 0.00, 0.00, 0.00, 0.00, 0.000, 0.000, 0.000, 14:00:17.189, 1551726017189
235, -883.81, 0.00, 0.00, 0.00, 0.00, 0.00, 0.00, 0.00, 0.000, 0.000, 0.000, 14:00:17.189, 1551726017189
236, -947.33, 0.00, 0.00, 0.00, 0.00, 0.00, 0.00, 0.00, 0.000, 0.000, 0.000, 14:00:17.197, 1551726017197
237, -991.46, 0.00, 0.00, 0.00, 0.00, 0.00, 0.00, 0.00, -0.332, 0.638, 0.694, 14:00:17.197, 1551726017197
238, -1027.87, 0.00, 0.00, 0.00, 0.00, 0.00, 0.00, 0.00, 0.000, 0.000, 0.000, 14:00:17.204, 1551726017204
239, -876.05, 0.00, 0.00, 0.00, 0.00, 0.00, 0.00, 0.00, 0.000, 0.000, 0.000, 14:00:17.204, 1551726017204
240, -851.24, 0.00, 0.00, 0.00, 0.00, 0.00, 0.00, 0.00, 0.000, 0.000, 0.000, 14:00:17.212, 1551726017212
241, -941.52, 0.00, 0.00, 0.00, 0.00, 0.00, 0.00, 0.00, 0.000, 0.000, 0.000, 14:00:17.212, 1551726017212
242, -933.12, 0.00, 0.00, 0.00, 0.00, 0.00, 0.00, 0.00, 0.000, 0.000, 0.000, 14:00:17.220, 1551726017220
243, -875.16, 0.00, 0.00, 0.00, 0.00, 0.00, 0.00, 0.00, 0.000, 0.000, 0.000, 14:00:17.220, 1551726017220
244, -862.02, 0.00, 0.00, 0.00, 0.00, 0.00, 0.00, 0.00, 0.000, 0.000, 0.000, 14:00:17.227, 1551726017227
245, -932.29, 0.00, 0.00, 0.00, 0.00, 0.00, 0.00, 0.00, 0.000, 0.000, 0.000, 14:00:17.227, 1551726017227
246, -995.99, 0.00, 0.00, 0.00, 0.00, 0.00, 0.00, 0.00, 0.000, 0.000, 0.000, 14:00:17.233, 1551726017233
247, -936.25, 0.00, 0.00, 0.00, 0.00, 0.00, 0.00, 0.00, -0.336, 0.652, 0.694, 14:00:17.234, 1551726017234
248, -878.71, 0.00, 0.00, 0.00, 0.00, 0.00, 0.00, 0.00, 0.000, 0.000, 0.000, 14:00:17.243, 1551726017243
249, -907.50, 0.00, 0.00, 0.00, 0.00, 0.00, 0.00, 0.00, 0.000, 0.000, 0.000, 14:00:17.249, 1551726017249
250, -983.05, 0.00, 0.00, 0.00, 0.00, 0.00, 0.00, 0.00, 0.000, 0.000, 0.000, 14:00:17.250, 1551726017250
251, -942.86, 0.00, 0.00, 0.00, 0.00, 0.00, 0.00, 0.00, 0.000, 0.000, 0.000, 14:00:17.257, 1551726017257
252, -895.88, 0.00, 0.00, 0.00, 0.00, 0.00, 0.00, 0.00, 0.000, 0.000, 0.000, 14:00:17.257, 1551726017257
253, -905.63, 0.00, 0.00, 0.00, 0.00, 0.00, 0.00, 0.00, 0.000, 0.000, 0.000, 14:00:17.264, 1551726017264
254, -977.06, 0.00, 0.00, 0.00, 0.00, 0.00, 0.00, 0.00, 0.000, 0.000, 0.000, 14:00:17.265, 1551726017265
255, -960.59, 0.00, 0.00, 0.00, 0.00, 0.00, 0.00, 0.00, 0.000, 0.000, 0.000, 14:00:17.272, 1551726017272
0, -880.01, 0.00, 0.00, 0.00, 0.00, 0.00, 0.00, 0.00, 0.000, 0.000, 0.000, 14:00:17.272, 1551726017272
1, -914.01, 0.00, 0.00, 0.00, 0.00, 0.00, 0.00, 0.00, -0.336, 0.648, 0.694, 14:00:17.280, 1551726017280
2, -988.30, 0.00, 0.00, 0.00, 0.00, 0.00, 0.00, 0.00, 0.000, 0.000, 0.000, 14:00:17.280, 1551726017280
3, -987.54, 0.00, 0.00, 0.00, 0.00, 0.00, 0.00, 0.00, 0.000, 0.000, 0.000, 14:00:17.287, 1551726017287
4, -890.36, 0.00, 0.00, 0.00, 0.00, 0.00, 0.00, 0.00, 0.000, 0.000, 0.000, 14:00:17.287, 1551726017287
5, -892.26, 0.00, 0.00, 0.00, 0.00, 0.00, 0.00, 0.00, 0.000, 0.000, 0.000, 14:00:17.295, 1551726017295
6, -955.51, 0.00, 0.00, 0.00, 0.00, 0.00, 0.00, 0.00, 0.000, 0.000, 0.000, 14:00:17.295, 1551726017295
7, -981.73, 0.00, 0.00, 0.00, 0.00, 0.00, 0.00, 0.00, 0.000, 0.000, 0.000, 14:00:17.302, 1551726017302
8, -900.48, 0.00, 0.00, 0.00, 0.00, 0.00, 0.00, 0.00, 0.000, 0.000, 0.000, 14:00:17.309, 1551726017309
9, -914.12, 0.00, 0.00, 0.00, 0.00, 0.00, 0.00, 0.00, 0.000, 0.000, 0.000, 14:00:17.309, 1551726017309
10, -957.71, 0.00, 0.00, 0.00, 0.00, 0.00, 0.00, 0.00, 0.000, 0.000, 0.000, 14:00:17.316, 1551726017316
11, -991.64, 0.00, 0.00, 0.00, 0.00, 0.00, 0.00, 0.00, -0.334, 0.642, 0.696, 14:00:17.317, 1551726017317
12, -914.77, 0.00, 0.00, 0.00, 0.00, 0.00, 0.00, 0.00, 0.000, 0.000, 0.000, 14:00:17.325, 1551726017325
13, -889.40, 0.00, 0.00, 0.00, 0.00, 0.00, 0.00, 0.00, 0.000, 0.000, 0.000, 14:00:17.325, 1551726017325
14, -933.86, 0.00, 0.00, 0.00, 0.00, 0.00, 0.00, 0.00, 0.000, 0.000, 0.000, 14:00:17.332, 1551726017332
15, -1008.73, 0.00, 0.00, 0.00, 0.00, 0.00, 0.00, 0.00, 0.000, 0.000, 0.000, 14:00:17.333, 1551726017333
16, -951.38, 0.00, 0.00, 0.00, 0.00, 0.00, 0.00, 0.00, 0.000, 0.000, 0.000, 14:00:17.339, 1551726017339
17, -887.74, 0.00, 0.00, 0.00, 0.00, 0.00, 0.00, 0.00, 0.000, 0.000, 0.000, 14:00:17.339, 1551726017339
18, -932.20, 0.00, 0.00, 0.00, 0.00, 0.00, 0.00, 0.00, 0.000, 0.000, 0.000, 14:00:17.347, 1551726017347
19, -1009.20, 0.00, 0.00, 0.00, 0.00, 0.00, 0.00, 0.00, 0.000, 0.000, 0.000, 14:00:17.347, 1551726017347
20, -964.28, 0.00, 0.00, 0.00, 0.00, 0.00, 0.00, 0.00, 0.000, 0.000, 0.000, 14:00:17.355, 1551726017355
21, -893.31, 0.00, 0.00, 0.00, 0.00, 0.00, 0.00, 0.00, -0.340, 0.646, 0.694, 14:00:17.355, 1551726017355
22, -933.61, 0.00, 0.00, 0.00, 0.00, 0.00, 0.00, 0.00, 0.000, 0.000, 0.000, 14:00:17.362, 1551726017362
23, -1067.79, 0.00, 0.00, 0.00, 0.00, 0.00, 0.00, 0.00, 0.000, 0.000, 0.000, 14:00:17.369, 1551726017369
24, -1030.77, 0.00, 0.00, 0.00, 0.00, 0.00, 0.00, 0.00, 0.000, 0.000, 0.000, 14:00:17.369, 1551726017369
25, -880.64, 0.00, 0.00, 0.00, 0.00, 0.00, 0.00, 0.00, 0.000, 0.000, 0.000, 14:00:17.377, 1551726017377
26, -933.45, 0.00, 0.00, 0.00, 0.00, 0.00, 0.00, 0.00, 0.000, 0.000, 0.000, 14:00:17.377, 1551726017377
27, -974.42, 0.00, 0.00, 0.00, 0.00, 0.00, 0.00, 0.00, 0.000, 0.000, 0.000, 14:00:17.385, 1551726017385
28, -988.55, 0.00, 0.00, 0.00, 0.00, 0.00, 0.00, 0.00, 0.000, 0.000, 0.000, 14:00:17.385, 1551726017385
29, -910.19, 0.00, 0.00, 0.00, 0.00, 0.00, 0.00, 0.00, 0.000, 0.000, 0.000, 14:00:17.392, 1551726017392
30, -951.98, 0.00, 0.00, 0.00, 0.00, 0.00, 0.00, 0.00, -0.338, 0.652, 0.696, 14:00:17.393, 1551726017393
31, -965.62, 0.00, 0.00, 0.00, 0.00, 0.00, 0.00, 0.00, 0.000, 0.000, 0.000, 14:00:17.399, 1551726017399
32, -1025.70, 0.00, 0.00, 0.00, 0.00, 0.00, 0.00, 0.00, 0.000, 0.000, 0.000, 14:00:17.399, 1551726017399
33, -963.29, 0.00, 0.00, 0.00, 0.00, 0.00, 0.00, 0.00, 0.000, 0.000, 0.000, 14:00:17.407, 1551726017407
34, -857.73, 0.00, 0.00, 0.00, 0.00, 0.00, 0.00, 0.00, 0.000, 0.000, 0.000, 14:00:17.407, 1551726017407
35, -931.78, 0.00, 0.00, 0.00, 0.00, 0.00, 0.00, 0.00, 0.000, 0.000, 0.000, 14:00:17.415, 1551726017415
36, -997.36, 0.00, 0.00, 0.00, 0.00, 0.00, 0.00, 0.00, 0.000, 0.000, 0.000, 14:00:17.416, 1551726017416
37, -916.51, 0.00, 0.00, 0.00, 0.00, 0.00, 0.00, 0.00, 0.000, 0.000, 0.000, 14:00:17.421, 1551726017421
38, -895.95, 0.00, 0.00, 0.00, 0.00, 0.00, 0.00, 0.00, 0.000, 0.000, 0.000, 14:00:17.429, 1551726017429
39, -935.11, 0.00, 0.00, 0.00, 0.00, 0.00, 0.00, 0.00, 0.000, 0.000, 0.000, 14:00:17.429, 1551726017429
40, -986.72, 0.00, 0.00, 0.00, 0.00, 0.00, 0.00, 0.00, -0.344, 0.652, 0.698, 14:00:17.437, 1551726017437
41, -924.29, 0.00, 0.00, 0.00, 0.00, 0.00, 0.00, 0.00, 0.000, 0.000, 0.000, 14:00:17.437, 1551726017437
42, -898.36, 0.00, 0.00, 0.00, 0.00, 0.00, 0.00, 0.00, 0.000, 0.000, 0.000, 14:00:17.444, 1551726017444
43, -928.98, 0.00, 0.00, 0.00, 0.00, 0.00, 0.00, 0.00, 0.000, 0.000, 0.000, 14:00:17.444, 1551726017444
44, -1050.26, 0.00, 0.00, 0.00, 0.00, 0.00, 0.00, 0.00, 0.000, 0.000, 0.000, 14:00:17.451, 1551726017451
45, -988.48, 0.00, 0.00, 0.00, 0.00, 0.00, 0.00, 0.00, 0.000, 0.000, 0.000, 14:00:17.452, 1551726017452
46, -913.78, 0.00, 0.00, 0.00, 0.00, 0.00, 0.00, 0.00, 0.000, 0.000, 0.000, 14:00:17.460, 1551726017460
47, -893.78, 0.00, 0.00, 0.00, 0.00, 0.00, 0.00, 0.00, 0.000, 0.000, 0.000, 14:00:17.460, 1551726017460
48, -950.95, 0.00, 0.00, 0.00, 0.00, 0.00, 0.00, 0.00, 0.000, 0.000, 0.000, 14:00:17.468, 1551726017468
49, -938.26, 0.00, 0.00, 0.00, 0.00, 0.00, 0.00, 0.00, 0.000, 0.000, 0.000, 14:00:17.469, 1551726017469
50, -876.14, 0.00, 0.00, 0.00, 0.00, 0.00, 0.00, 0.00, -0.344, 0.650, 0.702, 14:00:17.474, 1551726017474
51, -888.79, 0.00, 0.00, 0.00, 0.00, 0.00, 0.00, 0.00, 0.000, 0.000, 0.000, 14:00:17.474, 1551726017474
52, -965.53, 0.00, 0.00, 0.00, 0.00, 0.00, 0.00, 0.00, 0.000, 0.000, 0.000, 14:00:17.481, 1551726017481
53, -1078.67, 0.00, 0.00, 0.00, 0.00, 0.00, 0.00, 0.00, 0.000, 0.000, 0.000, 14:00:17.482, 1551726017482
54, -1032.90, 0.00, 0.00, 0.00, 0.00, 0.00, 0.00, 0.00, 0.000, 0.000, 0.000, 14:00:17.489, 1551726017489
55, -853.43, 0.00, 0.00, 0.00, 0.00, 0.00, 0.00, 0.00, 0.000, 0.000, 0.000, 14:00:17.497, 1551726017497
56, -919.44, 0.00, 0.00, 0.00, 0.00, 0.00, 0.00, 0.00, 0.000, 0.000, 0.000, 14:00:17.497, 1551726017497
57, -997.98, 0.00, 0.00, 0.00, 0.00, 0.00, 0.00, 0.00, 0.000, 0.000, 0.000, 14:00:17.504, 1551726017504
58, -883.54, 0.00, 0.00, 0.00, 0.00, 0.00, 0.00, 0.00, 0.000, 0.000, 0.000, 14:00:17.504, 1551726017504
59, -890.85, 0.00, 0.00, 0.00, 0.00, 0.00, 0.00, 0.00, 0.000, 0.000, 0.000, 14:00:17.512, 1551726017512
60, -1005.34, 0.00, 0.00, 0.00, 0.00, 0.00, 0.00, 0.00, -0.346, 0.650, 0.698, 14:00:17.512, 1551726017512
61, -1064.28, 0.00, 0.00, 0.00, 0.00, 0.00, 0.00, 0.00, 0.000, 0.000, 0.000, 14:00:17.520, 1551726017520
62, -1032.72, 0.00, 0.00, 0.00, 0.00, 0.00, 0.00, 0.00, 0.000, 0.000, 0.000, 14:00:17.520, 1551726017520
63, -823.33, 0.00, 0.00, 0.00, 0.00, 0.00, 0.00, 0.00, 0.000, 0.000, 0.000, 14:00:17.527, 1551726017527
64, -900.73, 0.00, 0.00, 0.00, 0.00, 0.00, 0.00, 0.00, 0.000, 0.000, 0.000, 14:00:17.527, 1551726017527
65, -990.18, 0.00, 0.00, 0.00, 0.00, 0.00, 0.00, 0.00, 0.000, 0.000, 0.000, 14:00:17.535, 1551726017535
66, -927.93, 0.00, 0.00, 0.00, 0.00, 0.00, 0.00, 0.00, 0.000, 0.000, 0.000, 14:00:17.535, 1551726017535
67, -883.77, 0.00, 0.00, 0.00, 0.00, 0.00, 0.00, 0.00, 0.000, 0.000, 0.000, 14:00:17.542, 1551726017542
68, -928.04, 0.00, 0.00, 0.00, 0.00, 0.00, 0.00, 0.00, 0.000, 0.000, 0.000, 14:00:17.543, 1551726017543
69, -1012.89, 0.00, 0.00, 0.00, 0.00, 0.00, 0.00, 0.00, 0.000, 0.000, 0.000, 14:00:17.550, 1551726017550
70, -1003.30, 0.00, 0.00, 0.00, 0.00, 0.00, 0.00, 0.00, -0.340, 0.648, 0.698, 14:00:17.557, 1551726017557
71, -943.02, 0.00, 0.00, 0.00, 0.00, 0.00, 0.00, 0.00, 0.000, 0.000, 0.000, 14:00:17.557, 1551726017557
72, -1008.31, 0.00, 0.00, 0.00, 0.00, 0.00, 0.00, 0.00, 0.000, 0.000, 0.000, 14:00:17.564, 1551726017564
73, -952.94, 0.00, 0.00, 0.00, 0.00, 0.00, 0.00, 0.00, 0.000, 0.000, 0.000, 14:00:17.564, 1551726017564
74, -997.07, 0.00, 0.00, 0.00, 0.00, 0.00, 0.00, 0.00, 0.000, 0.000, 0.000, 14:00:17.572, 1551726017572
75, -1038.48, 0.00, 0.00, 0.00, 0.00, 0.00, 0.00, 0.00, 0.000, 0.000, 0.000, 14:00:17.572, 1551726017572
76, -932.31, 0.00, 0.00, 0.00, 0.00, 0.00, 0.00, 0.00, 0.000, 0.000, 0.000, 14:00:17.579, 1551726017579
77, -973.44, 0.00, 0.00, 0.00, 0.00, 0.00, 0.00, 0.00, 0.000, 0.000, 0.000, 14:00:17.579, 1551726017579
78, -1021.56, 0.00, 0.00, 0.00, 0.00, 0.00, 0.00, 0.00, 0.000, 0.000, 0.000, 14:00:17.587, 1551726017587
79, -908.02, 0.00, 0.00, 0.00, 0.00, 0.00, 0.00, 0.00, 0.000, 0.000, 0.000, 14:00:17.587, 1551726017587
80, -972.59, 0.00, 0.00, 0.00, 0.00, 0.00, 0.00, 0.00, -0.336, 0.648, 0.700, 14:00:17.595, 1551726017595
81, -1008.49, 0.00, 0.00, 0.00, 0.00, 0.00, 0.00, 0.00, 0.000, 0.000, 0.000, 14:00:17.595, 1551726017595
82, -988.89, 0.00, 0.00, 0.00, 0.00, 0.00, 0.00, 0.00, 0.000, 0.000, 0.000, 14:00:17.603, 1551726017603
83, -915.28, 0.00, 0.00, 0.00, 0.00, 0.00, 0.00, 0.00, 0.000, 0.000, 0.000, 14:00:17.603, 1551726017603
84, -930.68, 0.00, 0.00, 0.00, 0.00, 0.00, 0.00, 0.00, 0.000, 0.000, 0.000, 14:00:17.609, 1551726017609
85, -976.46, 0.00, 0.00, 0.00, 0.00, 0.00, 0.00, 0.00, 0.000, 0.000, 0.000, 14:00:17.617, 1551726017617
86, -1038.73, 0.00, 0.00, 0.00, 0.00, 0.00, 0.00, 0.00, 0.000, 0.000, 0.000, 14:00:17.617, 1551726017617
87, -1015.64, 0.00, 0.00, 0.00, 0.00, 0.00, 0.00, 0.00, 0.000, 0.000, 0.000, 14:00:17.624, 1551726017624
88, -993.40, 0.00, 0.00, 0.00, 0.00, 0.00, 0.00, 0.00, 0.000, 0.000, 0.000, 14:00:17.625, 1551726017625
89, -1011.35, 0.00, 0.00, 0.00, 0.00, 0.00, 0.00, 0.00, -0.338, 0.646, 0.694, 14:00:17.633, 1551726017633
90, -1105.74, 0.00, 0.00, 0.00, 0.00, 0.00, 0.00, 0.00, 0.000, 0.000, 0.000, 14:00:17.633, 1551726017633
91, -892.62, 0.00, 0.00, 0.00, 0.00, 0.00, 0.00, 0.00, 0.000, 0.000, 0.000, 14:00:17.639, 1551726017639
92, -882.11, 0.00, 0.00, 0.00, 0.00, 0.00, 0.00, 0.00, 0.000, 0.000, 0.000, 14:00:17.639, 1551726017639
93, -943.13, 0.00, 0.00, 0.00, 0.00, 0.00, 0.00, 0.00, 0.000, 0.000, 0.000, 14:00:17.647, 1551726017647
94, -1037.23, 0.00, 0.00, 0.00, 0.00, 0.00, 0.00, 0.00, 0.000, 0.000, 0.000, 14:00:17.647, 1551726017647
95, -1025.77, 0.00, 0.00, 0.00, 0.00, 0.00, 0.00, 0.00, 0.000, 0.000, 0.000, 14:00:17.656, 1551726017656
96, -932.60, 0.00, 0.00, 0.00, 0.00, 0.00, 0.00, 0.00, 0.000, 0.000, 0.000, 14:00:17.656, 1551726017656
97, -967.56, 0.00, 0.00, 0.00, 0.00, 0.00, 0.00, 0.00, 0.000, 0.000, 0.000, 14:00:17.663, 1551726017663
98, -986.32, 0.00, 0.00, 0.00, 0.00, 0.00, 0.00, 0.00, 0.000, 0.000, 0.000, 14:00:17.663, 1551726017663
99, -997.16, 0.00, 0.00, 0.00, 0.00, 0.00, 0.00, 0.00, -0.334, 0.650, 0.692, 14:00:17.669, 1551726017669
100, -943.13, 0.00, 0.00, 0.00, 0.00, 0.00, 0.00, 0.00, 0.000, 0.000, 0.000, 14:00:17.677, 1551726017677
101, -959.83, 0.00, 0.00, 0.00, 0.00, 0.00, 0.00, 0.00, 0.000, 0.000, 0.000, 14:00:17.677, 1551726017677
102, -1019.37, 0.00, 0.00, 0.00, 0.00, 0.00, 0.00, 0.00, 0.000, 0.000, 0.000, 14:00:17.685, 1551726017685
103, -1040.43, 0.00, 0.00, 0.00, 0.00, 0.00, 0.00, 0.00, 0.000, 0.000, 0.000, 14:00:17.685, 1551726017685
104, -932.05, 0.00, 0.00, 0.00, 0.00, 0.00, 0.00, 0.00, 0.000, 0.000, 0.000, 14:00:17.692, 1551726017692
105, -944.58, 0.00, 0.00, 0.00, 0.00, 0.00, 0.00, 0.00, 0.000, 0.000, 0.000, 14:00:17.692, 1551726017692
106, -1005.81, 0.00, 0.00, 0.00, 0.00, 0.00, 0.00, 0.00, 0.000, 0.000, 0.000, 14:00:17.699, 1551726017699
107, -1045.64, 0.00, 0.00, 0.00, 0.00, 0.00, 0.00, 0.00, 0.000, 0.000, 0.000, 14:00:17.700, 1551726017700
108, -1004.96, 0.00, 0.00, 0.00, 0.00, 0.00, 0.00, 0.00, 0.000, 0.000, 0.000, 14:00:17.707, 1551726017707
109, -996.31, 0.00, 0.00, 0.00, 0.00, 0.00, 0.00, 0.00, -0.336, 0.648, 0.692, 14:00:17.708, 1551726017708
110, -975.45, 0.00, 0.00, 0.00, 0.00, 0.00, 0.00, 0.00, 0.000, 0.000, 0.000, 14:00:17.714, 1551726017714
111, -1021.70, 0.00, 0.00, 0.00, 0.00, 0.00, 0.00, 0.00, 0.000, 0.000, 0.000, 14:00:17.715, 1551726017715
112, -994.23, 0.00, 0.00, 0.00, 0.00, 0.00, 0.00, 0.00, 0.000, 0.000, 0.000, 14:00:17.722, 1551726017722
113, -972.90, 0.00, 0.00, 0.00, 0.00, 0.00, 0.00, 0.00, 0.000, 0.000, 0.000, 14:00:17.722, 1551726017722
114, -944.07, 0.00, 0.00, 0.00, 0.00, 0.00, 0.00, 0.00, 0.000, 0.000, 0.000, 14:00:17.729, 1551726017729
115, -1032.45, 0.00, 0.00, 0.00, 0.00, 0.00, 0.00, 0.00, 0.000, 0.000, 0.000, 14:00:17.729, 1551726017729
116, -998.43, 0.00, 0.00, 0.00, 0.00, 0.00, 0.00, 0.00, 0.000, 0.000, 0.000, 14:00:17.737, 1551726017737
117, -936.45, 0.00, 0.00, 0.00, 0.00, 0.00, 0.00, 0.00, 0.000, 0.000, 0.000, 14:00:17.744, 1551726017744
118, -976.39, 0.00, 0.00, 0.00, 0.00, 0.00, 0.00, 0.00, 0.000, 0.000, 0.000, 14:00:17.745, 1551726017745
119, -1033.12, 0.00, 0.00, 0.00, 0.00, 0.00, 0.00, 0.00, -0.340, 0.640, 0.692, 14:00:17.752, 1551726017752
120, -1007.04, 0.00, 0.00, 0.00, 0.00, 0.00, 0.00, 0.00, 0.000, 0.000, 0.000, 14:00:17.752, 1551726017752
121, -942.01, 0.00, 0.00, 0.00, 0.00, 0.00, 0.00, 0.00, 0.000, 0.000, 0.000, 14:00:17.759, 1551726017759
122, -969.51, 0.00, 0.00, 0.00, 0.00, 0.00, 0.00, 0.00, 0.000, 0.000, 0.000, 14:00:17.760, 1551726017760
123, -1043.04, 0.00, 0.00, 0.00, 0.00, 0.00, 0.00, 0.00, 0.000, 0.000, 0.000, 14:00:17.768, 1551726017768
124, -1033.95, 0.00, 0.00, 0.00, 0.00, 0.00, 0.00, 0.00, 0.000, 0.000, 0.000, 14:00:17.768, 1551726017768
125, -951.33, 0.00, 0.00, 0.00, 0.00, 0.00, 0.00, 0.00, 0.000, 0.000, 0.000, 14:00:17.774, 1551726017774
126, -968.52, 0.00, 0.00, 0.00, 0.00, 0.00, 0.00, 0.00, 0.000, 0.000, 0.000, 14:00:17.774, 1551726017774
127, -1043.02, 0.00, 0.00, 0.00, 0.00, 0.00, 0.00, 0.00, 0.000, 0.000, 0.000, 14:00:17.782, 1551726017782
128, -1078.11, 0.00, 0.00, 0.00, 0.00, 0.00, 0.00, 0.00, 0.000, 0.000, 0.000, 14:00:17.783, 1551726017783
129, -946.69, 0.00, 0.00, 0.00, 0.00, 0.00, 0.00, 0.00, -0.342, 0.646, 0.694, 14:00:17.790, 1551726017790
130, -930.95, 0.00, 0.00, 0.00, 0.00, 0.00, 0.00, 0.00, 0.000, 0.000, 0.000, 14:00:17.790, 1551726017790
131, -1002.74, 0.00, 0.00, 0.00, 0.00, 0.00, 0.00, 0.00, 0.000, 0.000, 0.000, 14:00:17.797, 1551726017797
132, -1050.40, 0.00, 0.00, 0.00, 0.00, 0.00, 0.00, 0.00, 0.000, 0.000, 0.000, 14:00:17.804, 1551726017804
133, -969.44, 0.00, 0.00, 0.00, 0.00, 0.00, 0.00, 0.00, 0.000, 0.000, 0.000, 14:00:17.804, 1551726017804
134, -942.62, 0.00, 0.00, 0.00, 0.00, 0.00, 0.00, 0.00, 0.000, 0.000, 0.000, 14:00:17.812, 1551726017812
135, -974.87, 0.00, 0.00, 0.00, 0.00, 0.00, 0.00, 0.00, 0.000, 0.000, 0.000, 14:00:17.812, 1551726017812
136, -1043.47, 0.00, 0.00, 0.00, 0.00, 0.00, 0.00, 0.00, 0.000, 0.000, 0.000, 14:00:17.820, 1551726017820
137, -984.75, 0.00, 0.00, 0.00, 0.00, 0.00, 0.00, 0.00, 0.000, 0.000, 0.000, 14:00:17.820, 1551726017820
138, -933.88, 0.00, 0.00, 0.00, 0.00, 0.00, 0.00, 0.00, 0.000, 0.000, 0.000, 14:00:17.827, 1551726017827
139, -983.90, 0.00, 0.00, 0.00, 0.00, 0.00, 0.00, 0.00, -0.344, 0.650, 0.690, 14:00:17.827, 1551726017827
140, -1058.73, 0.00, 0.00, 0.00, 0.00, 0.00, 0.00, 0.00, 0.000, 0.000, 0.000, 14:00:17.835, 1551726017835
141, -998.32, 0.00, 0.00, 0.00, 0.00, 0.00, 0.00, 0.00, 0.000, 0.000, 0.000, 14:00:17.835, 1551726017835
142, -937.30, 0.00, 0.00, 0.00, 0.00, 0.00, 0.00, 0.00, 0.000, 0.000, 0.000, 14:00:17.843, 1551726017843
143, -979.74, 0.00, 0.00, 0.00, 0.00, 0.00, 0.00, 0.00, 0.000, 0.000, 0.000, 14:00:17.843, 1551726017843
144, -1038.44, 0.00, 0.00, 0.00, 0.00, 0.00, 0.00, 0.00, 0.000, 0.000, 0.000, 14:00:17.850, 1551726017850
145, -1019.73, 0.00, 0.00, 0.00, 0.00, 0.00, 0.00, 0.00, 0.000, 0.000, 0.000, 14:00:17.850, 1551726017850
146, -954.58, 0.00, 0.00, 0.00, 0.00, 0.00, 0.00, 0.00, 0.000, 0.000, 0.000, 14:00:17.856, 1551726017856
147, -996.33, 0.00, 0.00, 0.00, 0.00, 0.00, 0.00, 0.00, 0.000, 0.000, 0.000, 14:00:17.864, 1551726017864
148, -1034.77, 0.00, 0.00, 0.00, 0.00, 0.00, 0.00, 0.00, 0.000, 0.000, 0.000, 14:00:17.864, 1551726017864
149, -1022.97, 0.00, 0.00, 0.00, 0.00, 0.00, 0.00, 0.00, -0.340, 0.646, 0.690, 14:00:17.872, 1551726017872
150, -939.76, 0.00, 0.00, 0.00, 0.00, 0.00, 0.00, 0.00, 0.000, 0.000, 0.000, 14:00:17.872, 1551726017872
151, -958.89, 0.00, 0.00, 0.00, 0.00, 0.00, 0.00, 0.00, 0.000, 0.000, 0.000, 14:00:17.879, 1551726017879
152, -1012.74, 0.00, 0.00, 0.00, 0.00, 0.00, 0.00, 0.00, 0.000, 0.000, 0.000, 14:00:17.879, 1551726017879
153, -1047.43, 0.00, 0.00, 0.00, 0.00, 0.00, 0.00, 0.00, 0.000, 0.000, 0.000, 14:00:17.887, 1551726017887
154, -965.26, 0.00, 0.00, 0.00, 0.00, 0.00, 0.00, 0.00, 0.000, 0.000, 0.000, 14:00:17.887, 1551726017887
155, -964.03, 0.00, 0.00, 0.00, 0.00, 0.00, 0.00, 0.00, 0.000, 0.000, 0.000, 14:00:17.895, 1551726017895
156, -1010.66, 0.00, 0.00, 0.00, 0.00, 0.00, 0.00, 0.00, 0.000, 0.000, 0.000, 14:00:17.895, 1551726017895
157, -1072.08, 0.00, 0.00, 0.00, 0.00, 0.00, 0.00, 0.00, 0.000, 0.000, 0.000, 14:00:17.903, 1551726017903
158, -986.81, 0.00, 0.00, 0.00, 0.00, 0.00, 0.00, 0.00, -0.338, 0.650, 0.692, 14:00:17.903, 1551726017903
159, -952.23, 0.00, 0.00, 0.00, 0.00, 0.00, 0.00, 0.00, 0.000, 0.000, 0.000, 14:00:17.910, 1551726017910
160, -1011.28, 0.00, 0.00, 0.00, 0.00, 0.00, 0.00, 0.00, 0.000, 0.000, 0.000, 14:00:17.910, 1551726017910
161, -1077.58, 0.00, 0.00, 0.00, 0.00, 0.00, 0.00, 0.00, 0.000, 0.000, 0.000, 14:00:17.916, 1551726017916
162, -1008.26, 0.00, 0.00, 0.00, 0.00, 0.00, 0.00, 0.00, 0.000, 0.000, 0.000, 14:00:17.926, 1551726017926
163, -958.78, 0.00, 0.00, 0.00, 0.00, 0.00, 0.00, 0.00, 0.000, 0.000, 0.000, 14:00:17.926, 1551726017926
164, -987.61, 0.00, 0.00, 0.00, 0.00, 0.00, 0.00, 0.00, 0.000, 0.000, 0.000, 14:00:17.932, 1551726017932
165, -1055.47, 0.00, 0.00, 0.00, 0.00, 0.00, 0.00, 0.00, 0.000, 0.000, 0.000, 14:00:17.933, 1551726017933
166, -1028.74, 0.00, 0.00, 0.00, 0.00, 0.00, 0.00, 0.00, 0.000, 0.000, 0.000, 14:00:17.939, 1551726017939
167, -959.58, 0.00, 0.00, 0.00, 0.00, 0.00, 0.00, 0.00, 0.000, 0.000, 0.000, 14:00:17.940, 1551726017940
168, -975.52, 0.00, 0.00, 0.00, 0.00, 0.00, 0.00, 0.00, -0.338, 0.646, 0.694, 14:00:17.947, 1551726017947
169, -1045.64, 0.00, 0.00, 0.00, 0.00, 0.00, 0.00, 0.00, 0.000, 0.000, 0.000, 14:00:17.947, 1551726017947
170, -1045.15, 0.00, 0.00, 0.00, 0.00, 0.00, 0.00, 0.00, 0.000, 0.000, 0.000, 14:00:17.955, 1551726017955
171, -951.18, 0.00, 0.00, 0.00, 0.00, 0.00, 0.00, 0.00, 0.000, 0.000, 0.000, 14:00:17.955, 1551726017955
172, -969.89, 0.00, 0.00, 0.00, 0.00, 0.00, 0.00, 0.00, 0.000, 0.000, 0.000, 14:00:17.962, 1551726017962
173, -1047.78, 0.00, 0.00, 0.00, 0.00, 0.00, 0.00, 0.00, 0.000, 0.000, 0.000, 14:00:17.962, 1551726017962
174, -1069.98, 0.00, 0.00, 0.00, 0.00, 0.00, 0.00, 0.00, 0.000, 0.000, 0.000, 14:00:17.969, 1551726017969
175, -960.88, 0.00, 0.00, 0.00, 0.00, 0.00, 0.00, 0.00, 0.000, 0.000, 0.000, 14:00:17.970, 1551726017970
176, -960.83, 0.00, 0.00, 0.00, 0.00, 0.00, 0.00, 0.00, 0.000, 0.000, 0.000, 14:00:17.977, 1551726017977
177, -1019.13, 0.00, 0.00, 0.00, 0.00, 0.00, 0.00, 0.00, 0.000, 0.000, 0.000, 14:00:17.977, 1551726017977
178, -1069.24, 0.00, 0.00, 0.00, 0.00, 0.00, 0.00, 0.00, -0.340, 0.646, 0.692, 14:00:17.985, 1551726017985
179, -978.98, 0.00, 0.00, 0.00, 0.00, 0.00, 0.00, 0.00, 0.000, 0.000, 0.000, 14:00:17.991, 1551726017991
180, -970.76, 0.00, 0.00, 0.00, 0.00, 0.00, 0.00, 0.00, 0.000, 0.000, 0.000, 14:00:17.992, 1551726017992
181, -1017.09, 0.00, 0.00, 0.00, 0.00, 0.00, 0.00, 0.00, 0.000, 0.000, 0.000, 14:00:17.999, 1551726017999
182, -1072.12, 0.00, 0.00, 0.00, 0.00, 0.00, 0.00, 0.00, 0.000, 0.000, 0.000, 14:00:18.000, 1551726018000
183, -1013.25, 0.00, 0.00, 0.00, 0.00, 0.00, 0.00, 0.00, 0.000, 0.000, 0.000, 14:00:18.007, 1551726018007
184, -955.20, 0.00, 0.00, 0.00, 0.00, 0.00, 0.00, 0.00, 0.000, 0.000, 0.000, 14:00:18.008, 1551726018008
185, -1006.70, 0.00, 0.00, 0.00, 0.00, 0.00, 0.00, 0.00, 0.000, 0.000, 0.000, 14:00:18.015, 1551726018015
186, -1084.95, 0.00, 0.00, 0.00, 0.00, 0.00, 0.00, 0.00, 0.000, 0.000, 0.000, 14:00:18.015, 1551726018015
187, -1026.93, 0.00, 0.00, 0.00, 0.00, 0.00, 0.00, 0.00, 0.000, 0.000, 0.000, 14:00:18.022, 1551726018022
188, -968.77, 0.00, 0.00, 0.00, 0.00, 0.00, 0.00, 0.00, -0.342, 0.650, 0.688, 14:00:18.022, 1551726018022
189, -1018.88, 0.00, 0.00, 0.00, 0.00, 0.00, 0.00, 0.00, 0.000, 0.000, 0.000, 14:00:18.030, 1551726018030
190, -1074.78, 0.00, 0.00, 0.00, 0.00, 0.00, 0.00, 0.00, 0.000, 0.000, 0.000, 14:00:18.030, 1551726018030
191, -1035.71, 0.00, 0.00, 0.00, 0.00, 0.00, 0.00, 0.00, 0.000, 0.000, 0.000, 14:00:18.038, 1551726018038
192, -960.88, 0.00, 0.00, 0.00, 0.00, 0.00, 0.00, 0.00, 0.000, 0.000, 0.000, 14:00:18.038, 1551726018038
193, -973.24, 0.00, 0.00, 0.00, 0.00, 0.00, 0.00, 0.00, 0.000, 0.000, 0.000, 14:00:18.045, 1551726018045
194, -1042.24, 0.00, 0.00, 0.00, 0.00, 0.00, 0.00, 0.00, 0.000, 0.000, 0.000, 14:00:18.052, 1551726018052
195, -1041.57, 0.00, 0.00, 0.00, 0.00, 0.00, 0.00, 0.00, 0.000, 0.000, 0.000, 14:00:18.052, 1551726018052
196, -955.22, 0.00, 0.00, 0.00, 0.00, 0.00, 0.00, 0.00, 0.000, 0.000, 0.000, 14:00:18.060, 1551726018060
197, -958.35, 0.00, 0.00, 0.00, 0.00, 0.00, 0.00, 0.00, 0.000, 0.000, 0.000, 14:00:18.060, 1551726018060
198, -1032.56, 0.00, 0.00, 0.00, 0.00, 0.00, 0.00, 0.00, -0.338, 0.646, 0.688, 14:00:18.068, 1551726018068
199, -1049.03, 0.00, 0.00, 0.00, 0.00, 0.00, 0.00, 0.00, 0.000, 0.000, 0.000, 14:00:18.068, 1551726018068
200, -965.51, 0.00, 0.00, 0.00, 0.00, 0.00, 0.00, 0.00, 0.000, 0.000, 0.000, 14:00:18.074, 1551726018074
201, -967.61, 0.00, 0.00, 0.00, 0.00, 0.00, 0.00, 0.00, 0.000, 0.000, 0.000, 14:00:18.075, 1551726018075
202, -1025.65, 0.00, 0.00, 0.00, 0.00, 0.00, 0.00, 0.00, 0.000, 0.000, 0.000, 14:00:18.083, 1551726018083
203, -1078.72, 0.00, 0.00, 0.00, 0.00, 0.00, 0.00, 0.00, 0.000, 0.000, 0.000, 14:00:18.083, 1551726018083
204, -979.50, 0.00, 0.00, 0.00, 0.00, 0.00, 0.00, 0.00, 0.000, 0.000, 0.000, 14:00:18.090, 1551726018090
205, -947.02, 0.00, 0.00, 0.00, 0.00, 0.00, 0.00, 0.00, 0.000, 0.000, 0.000, 14:00:18.091, 1551726018091
206, -1017.16, 0.00, 0.00, 0.00, 0.00, 0.00, 0.00, 0.00, 0.000, 0.000, 0.000, 14:00:18.097, 1551726018097
207, -1075.95, 0.00, 0.00, 0.00, 0.00, 0.00, 0.00, 0.00, 0.000, 0.000, 0.000, 14:00:18.098, 1551726018098
208, -991.17, 0.00, 0.00, 0.00, 0.00, 0.00, 0.00, 0.00, -0.338, 0.654, 0.690, 14:00:18.104, 1551726018104
209, -927.35, 0.00, 0.00, 0.00, 0.00, 0.00, 0.00, 0.00, 0.000, 0.000, 0.000, 14:00:18.112, 1551726018112
210, -997.16, 0.00, 0.00, 0.00, 0.00, 0.00, 0.00, 0.00, 0.000, 0.000, 0.000, 14:00:18.113, 1551726018113
211, -1045.82, 0.00, 0.00, 0.00, 0.00, 0.00, 0.00, 0.00, 0.000, 0.000, 0.000, 14:00:18.120, 1551726018120
212, -987.32, 0.00, 0.00, 0.00, 0.00, 0.00, 0.00, 0.00, 0.000, 0.000, 0.000, 14:00:18.120, 1551726018120
213, -931.55, 0.00, 0.00, 0.00, 0.00, 0.00, 0.00, 0.00, 0.000, 0.000, 0.000, 14:00:18.127, 1551726018127
214, -980.77, 0.00, 0.00, 0.00, 0.00, 0.00, 0.00, 0.00, 0.000, 0.000, 0.000, 14:00:18.127, 1551726018127
215, -1092.60, 0.00, 0.00, 0.00, 0.00, 0.00, 0.00, 0.00, 0.000, 0.000, 0.000, 14:00:18.135, 1551726018135
216, -1065.89, 0.00, 0.00, 0.00, 0.00, 0.00, 0.00, 0.00, 0.000, 0.000, 0.000, 14:00:18.135, 1551726018135
217, -898.50, 0.00, 0.00, 0.00, 0.00, 0.00, 0.00, 0.00, -0.336, 0.642, 0.692, 14:00:18.143, 1551726018143
218, -948.76, 0.00, 0.00, 0.00, 0.00, 0.00, 0.00, 0.00, 0.000, 0.000, 0.000, 14:00:18.143, 1551726018143
219, -1033.66, 0.00, 0.00, 0.00, 0.00, 0.00, 0.00, 0.00, 0.000, 0.000, 0.000, 14:00:18.150, 1551726018150
220, -1035.94, 0.00, 0.00, 0.00, 0.00, 0.00, 0.00, 0.00, 0.000, 0.000, 0.000, 14:00:18.152, 1551726018152
221, -963.67, 0.00, 0.00, 0.00, 0.00, 0.00, 0.00, 0.00, 0.000, 0.000, 0.000, 14:00:18.157, 1551726018157
222, -943.42, 0.00, 0.00, 0.00, 0.00, 0.00, 0.00, 0.00, 0.000, 0.000, 0.000, 14:00:18.157, 1551726018157
223, -994.03, 0.00, 0.00, 0.00, 0.00, 0.00, 0.00, 0.00, 0.000, 0.000, 0.000, 14:00:18.164, 1551726018164
224, -1040.97, 0.00, 0.00, 0.00, 0.00, 0.00, 0.00, 0.00, 0.000, 0.000, 0.000, 14:00:18.172, 1551726018172
225, -951.22, 0.00, 0.00, 0.00, 0.00, 0.00, 0.00, 0.00, 0.000, 0.000, 0.000, 14:00:18.173, 1551726018173
226, -991.46, 0.00, 0.00, 0.00, 0.00, 0.00, 0.00, 0.00, 0.000, 0.000, 0.000, 14:00:18.180, 1551726018180
227, -1058.82, 0.00, 0.00, 0.00, 0.00, 0.00, 0.00, 0.00, -0.334, 0.638, 0.688, 14:00:18.180, 1551726018180
228, -1099.68, 0.00, 0.00, 0.00, 0.00, 0.00, 0.00, 0.00, 0.000, 0.000, 0.000, 14:00:18.188, 1551726018188
229, -1050.89, 0.00, 0.00, 0.00, 0.00, 0.00, 0.00, 0.00, 0.000, 0.000, 0.000, 14:00:18.188, 1551726018188
230, -1009.65, 0.00, 0.00, 0.00, 0.00, 0.00, 0.00, 0.00, 0.000, 0.000, 0.000, 14:00:18.194, 1551726018194
231, -965.84, 0.00, 0.00, 0.00, 0.00, 0.00, 0.00, 0.00, 0.000, 0.000, 0.000, 14:00:18.194, 1551726018194
232, -1016.83, 0.00, 0.00, 0.00, 0.00, 0.00, 0.00, 0.00, 0.000, 0.000, 0.000, 14:00:18.202, 1551726018202
233, -989.44, 0.00, 0.00, 0.00, 0.00, 0.00, 0.00, 0.00, 0.000, 0.000, 0.000, 14:00:18.202, 1551726018202
234, -990.76, 0.00, 0.00, 0.00, 0.00, 0.00, 0.00, 0.00, 0.000, 0.000, 0.000, 14:00:18.210, 1551726018210
235, -979.61, 0.00, 0.00, 0.00, 0.00, 0.00, 0.00, 0.00, 0.000, 0.000, 0.000, 14:00:18.210, 1551726018210
236, -1059.18, 0.00, 0.00, 0.00, 0.00, 0.00, 0.00, 0.00, 0.000, 0.000, 0.000, 14:00:18.218, 1551726018218
237, -1014.90, 0.00, 0.00, 0.00, 0.00, 0.00, 0.00, 0.00, -0.340, 0.650, 0.690, 14:00:18.218, 1551726018218
238, -983.36, 0.00, 0.00, 0.00, 0.00, 0.00, 0.00, 0.00, 0.000, 0.000, 0.000, 14:00:18.224, 1551726018224
239, -1065.93, 0.00, 0.00, 0.00, 0.00, 0.00, 0.00, 0.00, 0.000, 0.000, 0.000, 14:00:18.224, 1551726018224
240, -1131.13, 0.00, 0.00, 0.00, 0.00, 0.00, 0.00, 0.00, 0.000, 0.000, 0.000, 14:00:18.232, 1551726018232
241, -1094.32, 0.00, 0.00, 0.00, 0.00, 0.00, 0.00, 0.00, 0.000, 0.000, 0.000, 14:00:18.240, 1551726018240
242, -951.67, 0.00, 0.00, 0.00, 0.00, 0.00, 0.00, 0.00, 0.000, 0.000, 0.000, 14:00:18.240, 1551726018240
243, -1014.01, 0.00, 0.00, 0.00, 0.00, 0.00, 0.00, 0.00, 0.000, 0.000, 0.000, 14:00:18.247, 1551726018247
244, -996.35, 0.00, 0.00, 0.00, 0.00, 0.00, 0.00, 0.00, 0.000, 0.000, 0.000, 14:00:18.247, 1551726018247
245, -1013.67, 0.00, 0.00, 0.00, 0.00, 0.00, 0.00, 0.00, 0.000, 0.000, 0.000, 14:00:18.255, 1551726018255
246, -957.88, 0.00, 0.00, 0.00, 0.00, 0.00, 0.00, 0.00, 0.000, 0.000, 0.000, 14:00:18.255, 1551726018255
247, -971.27, 0.00, 0.00, 0.00, 0.00, 0.00, 0.00, 0.00, -0.336, 0.648, 0.698, 14:00:18.262, 1551726018262
248, -1072.62, 0.00, 0.00, 0.00, 0.00, 0.00, 0.00, 0.00, 0.000, 0.000, 0.000, 14:00:18.263, 1551726018263
249, -1097.45, 0.00, 0.00, 0.00, 0.00, 0.00, 0.00, 0.00, 0.000, 0.000, 0.000, 14:00:18.271, 1551726018271
250, -978.47, 0.00, 0.00, 0.00, 0.00, 0.00, 0.00, 0.00, 0.000, 0.000, 0.000, 14:00:18.271, 1551726018271
251, -952.61, 0.00, 0.00, 0.00, 0.00, 0.00, 0.00, 0.00, 0.000, 0.000, 0.000, 14:00:18.277, 1551726018277
252, -1045.97, 0.00, 0.00, 0.00, 0.00, 0.00, 0.00, 0.00, 0.000, 0.000, 0.000, 14:00:18.278, 1551726018278
253, -1082.07, 0.00, 0.00, 0.00, 0.00, 0.00, 0.00, 0.00, 0.000, 0.000, 0.000, 14:00:18.286, 1551726018286
254, -1027.31, 0.00, 0.00, 0.00, 0.00, 0.00, 0.00, 0.00, 0.000, 0.000, 0.000, 14:00:18.286, 1551726018286
255, -1026.75, 0.00, 0.00, 0.00, 0.00, 0.00, 0.00, 0.00, 0.000, 0.000, 0.000, 14:00:18.292, 1551726018292
0, -1190.32, 0.00, 0.00, 0.00, 0.00, 0.00, 0.00, 0.00, 0.000, 0.000, 0.000, 14:00:18.300, 1551726018300
1, -1061.42, 0.00, 0.00, 0.00, 0.00, 0.00, 0.00, 0.00, -0.336, 0.646, 0.696, 14:00:18.300, 1551726018300
2, -802.36, 0.00, 0.00, 0.00, 0.00, 0.00, 0.00, 0.00, 0.000, 0.000, 0.000, 14:00:18.307, 1551726018307
3, -936.54, 0.00, 0.00, 0.00, 0.00, 0.00, 0.00, 0.00, 0.000, 0.000, 0.000, 14:00:18.307, 1551726018307
4, -916.85, 0.00, 0.00, 0.00, 0.00, 0.00, 0.00, 0.00, 0.000, 0.000, 0.000, 14:00:18.315, 1551726018315
5, -1101.27, 0.00, 0.00, 0.00, 0.00, 0.00, 0.00, 0.00, 0.000, 0.000, 0.000, 14:00:18.315, 1551726018315
6, -1107.06, 0.00, 0.00, 0.00, 0.00, 0.00, 0.00, 0.00, 0.000, 0.000, 0.000, 14:00:18.323, 1551726018323
7, -912.62, 0.00, 0.00, 0.00, 0.00, 0.00, 0.00, 0.00, 0.000, 0.000, 0.000, 14:00:18.323, 1551726018323
8, -1016.60, 0.00, 0.00, 0.00, 0.00, 0.00, 0.00, 0.00, 0.000, 0.000, 0.000, 14:00:18.329, 1551726018329
9, -1083.68, 0.00, 0.00, 0.00, 0.00, 0.00, 0.00, 0.00, 0.000, 0.000, 0.000, 14:00:18.330, 1551726018330
10, -1062.00, 0.00, 0.00, 0.00, 0.00, 0.00, 0.00, 0.00, 0.000, 0.000, 0.000, 14:00:18.337, 1551726018337
11, -1021.12, 0.00, 0.00, 0.00, 0.00, 0.00, 0.00, 0.00, -0.332, 0.644, 0.692, 14:00:18.338, 1551726018338
12, -857.68, 0.00, 0.00, 0.00, 0.00, 0.00, 0.00, 0.00, 0.000, 0.000, 0.000, 14:00:18.345, 1551726018345
13, -1056.63, 0.00, 0.00, 0.00, 0.00, 0.00, 0.00, 0.00, 0.000, 0.000, 0.000, 14:00:18.346, 1551726018346
14, -1062.42, 0.00, 0.00, 0.00, 0.00, 0.00, 0.00, 0.00, 0.000, 0.000, 0.000, 14:00:18.353, 1551726018353
15, -1017.88, 0.00, 0.00, 0.00, 0.00, 0.00, 0.00, 0.00, 0.000, 0.000, 0.000, 14:00:18.359, 1551726018359
16, -840.18, 0.00, 0.00, 0.00, 0.00, 0.00, 0.00, 0.00, 0.000, 0.000, 0.000, 14:00:18.360, 1551726018360
17, -1006.66, 0.00, 0.00, 0.00, 0.00, 0.00, 0.00, 0.00, 0.000, 0.000, 0.000, 14:00:18.368, 1551726018368
18, -1030.77, 0.00, 0.00, 0.00, 0.00, 0.00, 0.00, 0.00, 0.000, 0.000, 0.000, 14:00:18.368, 1551726018368
19, -947.07, 0.00, 0.00, 0.00, 0.00, 0.00, 0.00, 0.00, 0.000, 0.000, 0.000, 14:00:18.375, 1551726018375
20, -1066.56, 0.00, 0.00, 0.00, 0.00, 0.00, 0.00, 0.00, 0.000, 0.000, 0.000, 14:00:18.375, 1551726018375
21, -1077.78, 0.00, 0.00, 0.00, 0.00, 0.00, 0.00, 0.00, -0.338, 0.638, 0.688, 14:00:18.382, 1551726018382
22, -1053.68, 0.00, 0.00, 0.00, 0.00, 0.00, 0.00, 0.00, 0.000, 0.000, 0.000, 14:00:18.382, 1551726018382
23, -968.75, 0.00, 0.00, 0.00, 0.00, 0.00, 0.00, 0.00, 0.000, 0.000, 0.000, 14:00:18.390, 1551726018390
24, -1038.42, 0.00, 0.00, 0.00, 0.00, 0.00, 0.00, 0.00, 0.000, 0.000, 0.000, 14:00:18.390, 1551726018390
25, -1202.12, 0.00, 0.00, 0.00, 0.00, 0.00, 0.00, 0.00, 0.000, 0.000, 0.000, 14:00:18.398, 1551726018398
26, -923.15, 0.00, 0.00, 0.00, 0.00, 0.00, 0.00, 0.00, 0.000, 0.000, 0.000, 14:00:18.398, 1551726018398
27, -931.44, 0.00, 0.00, 0.00, 0.00, 0.00, 0.00, 0.00, 0.000, 0.000, 0.000, 14:00:18.406, 1551726018406
28, -971.79, 0.00, 0.00, 0.00, 0.00, 0.00, 0.00, 0.00, 0.000, 0.000, 0.000, 14:00:18.407, 1551726018407
29, -1032.09, 0.00, 0.00, 0.00, 0.00, 0.00, 0.00, 0.00, 0.000, 0.000, 0.000, 14:00:18.412, 1551726018412
30, -1109.07, 0.00, 0.00, 0.00, 0.00, 0.00, 0.00, 0.00, -0.332, 0.650, 0.690, 14:00:18.419, 1551726018419
31, -1085.22, 0.00, 0.00, 0.00, 0.00, 0.00, 0.00, 0.00, 0.000, 0.000, 0.000, 14:00:18.420, 1551726018420
32, -988.98, 0.00, 0.00, 0.00, 0.00, 0.00, 0.00, 0.00, 0.000, 0.000, 0.000, 14:00:18.428, 1551726018428
33, -1019.22, 0.00, 0.00, 0.00, 0.00, 0.00, 0.00, 0.00, 0.000, 0.000, 0.000, 14:00:18.428, 1551726018428
34, -1084.04, 0.00, 0.00, 0.00, 0.00, 0.00, 0.00, 0.00, 0.000, 0.000, 0.000, 14:00:18.434, 1551726018434
35, -1122.17, 0.00, 0.00, 0.00, 0.00, 0.00, 0.00, 0.00, 0.000, 0.000, 0.000, 14:00:18.435, 1551726018435
36, -1058.85, 0.00, 0.00, 0.00, 0.00, 0.00, 0.00, 0.00, 0.000, 0.000, 0.000, 14:00:18.442, 1551726018442
37, -881.51, 0.00, 0.00, 0.00, 0.00, 0.00, 0.00, 0.00, 0.000, 0.000, 0.000, 14:00:18.442, 1551726018442
38, -1015.89, 0.00, 0.00, 0.00, 0.00, 0.00, 0.00, 0.00, 0.000, 0.000, 0.000, 14:00:18.450, 1551726018450
39, -1050.78, 0.00, 0.00, 0.00, 0.00, 0.00, 0.00, 0.00, 0.000, 0.000, 0.000, 14:00:18.450, 1551726018450
40, -1027.29, 0.00, 0.00, 0.00, 0.00, 0.00, 0.00, 0.00, -0.332, 0.648, 0.692, 14:00:18.458, 1551726018458
41, -1023.46, 0.00, 0.00, 0.00, 0.00, 0.00, 0.00, 0.00, 0.000, 0.000, 0.000, 14:00:18.459, 1551726018459
42, -1114.93, 0.00, 0.00, 0.00, 0.00, 0.00, 0.00, 0.00, 0.000, 0.000, 0.000, 14:00:18.465, 1551726018465
43, -1138.22, 0.00, 0.00, 0.00, 0.00, 0.00, 0.00, 0.00, 0.000, 0.000, 0.000, 14:00:18.465, 1551726018465
44, -1056.39, 0.00, 0.00, 0.00, 0.00, 0.00, 0.00, 0.00, 0.000, 0.000, 0.000, 14:00:18.472, 1551726018472
45, -1010.50, 0.00, 0.00, 0.00, 0.00, 0.00, 0.00, 0.00, 0.000, 0.000, 0.000, 14:00:18.472, 1551726018472
46, -1027.00, 0.00, 0.00, 0.00, 0.00, 0.00, 0.00, 0.00, 0.000, 0.000, 0.000, 14:00:18.480, 1551726018480
47, -1045.37, 0.00, 0.00, 0.00, 0.00, 0.00, 0.00, 0.00, 0.000, 0.000, 0.000, 14:00:18.487, 1551726018487
48, -983.90, 0.00, 0.00, 0.00, 0.00, 0.00, 0.00, 0.00, 0.000, 0.000, 0.000, 14:00:18.488, 1551726018488
49, -988.89, 0.00, 0.00, 0.00, 0.00, 0.00, 0.00, 0.00, 0.000, 0.000, 0.000, 14:00:18.495, 1551726018495
50, -999.44, 0.00, 0.00, 0.00, 0.00, 0.00, 0.00, 0.00, -0.336, 0.650, 0.692, 14:00:18.495, 1551726018495
51, -1107.55, 0.00, 0.00, 0.00, 0.00, 0.00, 0.00, 0.00, 0.000, 0.000, 0.000, 14:00:18.502, 1551726018502
52, -1093.85, 0.00, 0.00, 0.00, 0.00, 0.00, 0.00, 0.00, 0.000, 0.000, 0.000, 14:00:18.502, 1551726018502
53, -909.58, 0.00, 0.00, 0.00, 0.00, 0.00, 0.00, 0.00, 0.000, 0.000, 0.000, 14:00:18.511, 1551726018511
54, -1024.07, 0.00, 0.00, 0.00, 0.00, 0.00, 0.00, 0.00, 0.000, 0.000, 0.000, 14:00:18.511, 1551726018511
55, -1116.72, 0.00, 0.00, 0.00, 0.00, 0.00, 0.00, 0.00, 0.000, 0.000, 0.000, 14:00:18.517, 1551726018517
56, -1106.46, 0.00, 0.00, 0.00, 0.00, 0.00, 0.00, 0.00, 0.000, 0.000, 0.000, 14:00:18.518, 1551726018518
57, -1019.19, 0.00, 0.00, 0.00, 0.00, 0.00, 0.00, 0.00, 0.000, 0.000, 0.000, 14:00:18.525, 1551726018525
58, -1007.73, 0.00, 0.00, 0.00, 0.00, 0.00, 0.00, 0.00, 0.000, 0.000, 0.000, 14:00:18.525, 1551726018525
59, -1066.69, 0.00, 0.00, 0.00, 0.00, 0.00, 0.00, 0.00, 0.000, 0.000, 0.000, 14:00:18.533, 1551726018533
60, -1122.26, 0.00, 0.00, 0.00, 0.00, 0.00, 0.00, 0.00, -0.336, 0.642, 0.688, 14:00:18.534, 1551726018534
61, -1071.77, 0.00, 0.00, 0.00, 0.00, 0.00, 0.00, 0.00, 0.000, 0.000, 0.000, 14:00:18.540, 1551726018540
62, -1009.09, 0.00, 0.00, 0.00, 0.00, 0.00, 0.00, 0.00, 0.000, 0.000, 0.000, 14:00:18.547, 1551726018547
63, -1018.81, 0.00, 0.00, 0.00, 0.00, 0.00, 0.00, 0.00, 0.000, 0.000, 0.000, 14:00:18.547, 1551726018547
64, -1040.34, 0.00, 0.00, 0.00, 0.00, 0.00, 0.00, 0.00, 0.000, 0.000, 0.000, 14:00:18.555, 1551726018555
65, -976.68, 0.00, 0.00, 0.00, 0.00, 0.00, 0.00, 0.00, 0.000, 0.000, 0.000, 14:00:18.555, 1551726018555
66, -1062.89, 0.00, 0.00, 0.00, 0.00, 0.00, 0.00, 0.00, 0.000, 0.000, 0.000, 14:00:18.563, 1551726018563
67, -1083.21, 0.00, 0.00, 0.00, 0.00, 0.00, 0.00, 0.00, 0.000, 0.000, 0.000, 14:00:18.563, 1551726018563
68, -1131.40, 0.00, 0.00, 0.00, 0.00, 0.00, 0.00, 0.00, 0.000, 0.000, 0.000, 14:00:18.570, 1551726018570
69, -1003.28, 0.00, 0.00, 0.00, 0.00, 0.00, 0.00, 0.00, 0.000, 0.000, 0.000, 14:00:18.571, 1551726018571
70, -1015.98, 0.00, 0.00, 0.00, 0.00, 0.00, 0.00, 0.00, -0.344, 0.642, 0.690, 14:00:18.577, 1551726018577
71, -1132.45, 0.00, 0.00, 0.00, 0.00, 0.00, 0.00, 0.00, 0.000, 0.000, 0.000, 14:00:18.577, 1551726018577
72, -1149.97, 0.00, 0.00, 0.00, 0.00, 0.00, 0.00, 0.00, 0.000, 0.000, 0.000, 14:00:18.585, 1551726018585
73, -1066.38, 0.00, 0.00, 0.00, 0.00, 0.00, 0.00, 0.00, 0.000, 0.000, 0.000, 14:00:18.585, 1551726018585
74, -963.56, 0.00, 0.00, 0.00, 0.00, 0.00, 0.00, 0.00, 0.000, 0.000, 0.000, 14:00:18.593, 1551726018593
75, -1042.31, 0.00, 0.00, 0.00, 0.00, 0.00, 0.00, 0.00, 0.000, 0.000, 0.000, 14:00:18.593, 1551726018593
76, -1185.69, 0.00, 0.00, 0.00, 0.00, 0.00, 0.00, 0.00, 0.000, 0.000, 0.000, 14:00:18.600, 1551726018600
77, -994.03, 0.00, 0.00, 0.00, 0.00, 0.00, 0.00, 0.00, 0.000, 0.000, 0.000, 14:00:18.607, 1551726018607
78, -984.44, 0.00, 0.00, 0.00, 0.00, 0.00, 0.00, 0.00, 0.000, 0.000, 0.000, 14:00:18.607, 1551726018607
79, -1091.57, 0.00, 0.00, 0.00, 0.00, 0.00, 0.00, 0.00, 0.000, 0.000, 0.000, 14:00:18.615, 1551726018615
80, -1165.55, 0.00, 0.00, 0.00, 0.00, 0.00, 0.00, 0.00, -0.334, 0.634, 0.694, 14:00:18.615, 1551726018615
81, -1009.65, 0.00, 0.00, 0.00, 0.00, 0.00, 0.00, 0.00, 0.000, 0.000, 0.000, 14:00:18.623, 1551726018623
82, -1011.01, 0.00, 0.00, 0.00, 0.00, 0.00, 0.00, 0.00, 0.000, 0.000, 0.000, 14:00:18.623, 1551726018623
83, -989.29, 0.00, 0.00, 0.00, 0.00, 0.00, 0.00, 0.00, 0.000, 0.000, 0.000, 14:00:18.629, 1551726018629
84, -1128.63, 0.00, 0.00, 0.00, 0.00, 0.00, 0.00, 0.00, 0.000, 0.000, 0.000, 14:00:18.630, 1551726018630
85, -1173.42, 0.00, 0.00, 0.00, 0.00, 0.00, 0.00, 0.00, 0.000, 0.000, 0.000, 14:00:18.638, 1551726018638
86, -1076.50, 0.00, 0.00, 0.00, 0.00, 0.00, 0.00, 0.00, 0.000, 0.000, 0.000, 14:00:18.638, 1551726018638
87, -934.95, 0.00, 0.00, 0.00, 0.00, 0.00, 0.00, 0.00, 0.000, 0.000, 0.000, 14:00:18.645, 1551726018645
88, -1056.50, 0.00, 0.00, 0.00, 0.00, 0.00, 0.00, 0.00, 0.000, 0.000, 0.000, 14:00:18.646, 1551726018646
89, -1095.93, 0.00, 0.00, 0.00, 0.00, 0.00, 0.00, 0.00, -0.336, 0.640, 0.696, 14:00:18.653, 1551726018653
90, -1003.26, 0.00, 0.00, 0.00, 0.00, 0.00, 0.00, 0.00, 0.000, 0.000, 0.000, 14:00:18.653, 1551726018653
91, -1002.30, 0.00, 0.00, 0.00, 0.00, 0.00, 0.00, 0.00, 0.000, 0.000, 0.000, 14:00:18.659, 1551726018659
92, -1103.64, 0.00, 0.00, 0.00, 0.00, 0.00, 0.00, 0.00, 0.000, 0.000, 0.000, 14:00:18.667, 1551726018667
93, -1160.59, 0.00, 0.00, 0.00, 0.00, 0.00, 0.00, 0.00, 0.000, 0.000, 0.000, 14:00:18.667, 1551726018667
94, -1017.56, 0.00, 0.00, 0.00, 0.00, 0.00, 0.00, 0.00, 0.000, 0.000, 0.000, 14:00:18.675, 1551726018675
95, -1005.52, 0.00, 0.00, 0.00, 0.00, 0.00, 0.00, 0.00, 0.000, 0.000, 0.000, 14:00:18.676, 1551726018676
96, -1070.85, 0.00, 0.00, 0.00, 0.00, 0.00, 0.00, 0.00, 0.000, 0.000, 0.000, 14:00:18.682, 1551726018682
97, -1108.36, 0.00, 0.00, 0.00, 0.00, 0.00, 0.00, 0.00, 0.000, 0.000, 0.000, 14:00:18.682, 1551726018682
98, -1077.40, 0.00, 0.00, 0.00, 0.00, 0.00, 0.00, 0.00, 0.000, 0.000, 0.000, 14:00:18.690, 1551726018690
99, -1028.22, 0.00, 0.00, 0.00, 0.00, 0.00, 0.00, 0.00, -0.336, 0.642, 0.698, 14:00:18.690, 1551726018690
100, -1003.75, 0.00, 0.00, 0.00, 0.00, 0.00, 0.00, 0.00, 0.000, 0.000, 0.000, 14:00:18.698, 1551726018698
101, -1116.27, 0.00, 0.00, 0.00, 0.00, 0.00, 0.00, 0.00, 0.000, 0.000, 0.000, 14:00:18.698, 1551726018698
102, -1105.87, 0.00, 0.00, 0.00, 0.00, 0.00, 0.00, 0.00, 0.000, 0.000, 0.000, 14:00:18.705, 1551726018705
103, -984.50, 0.00, 0.00, 0.00, 0.00, 0.00, 0.00, 0.00, 0.000, 0.000, 0.000, 14:00:18.705, 1551726018705
104, -1042.26, 0.00, 0.00, 0.00, 0.00, 0.00, 0.00, 0.00, 0.000, 0.000, 0.000, 14:00:18.713, 1551726018713
105, -1124.70, 0.00, 0.00, 0.00, 0.00, 0.00, 0.00, 0.00, 0.000, 0.000, 0.000, 14:00:18.714, 1551726018714
106, -1073.38, 0.00, 0.00, 0.00, 0.00, 0.00, 0.00, 0.00, 0.000, 0.000, 0.000, 14:00:18.720, 1551726018720
107, -1022.10, 0.00, 0.00, 0.00, 0.00, 0.00, 0.00, 0.00, 0.000, 0.000, 0.000, 14:00:18.720, 1551726018720
108, -1072.73, 0.00, 0.00, 0.00, 0.00, 0.00, 0.00, 0.00, 0.000, 0.000, 0.000, 14:00:18.728, 1551726018728
109, -1084.04, 0.00, 0.00, 0.00, 0.00, 0.00, 0.00, 0.00, -0.336, 0.638, 0.698, 14:00:18.734, 1551726018734
110, -1099.55, 0.00, 0.00, 0.00, 0.00, 0.00, 0.00, 0.00, 0.000, 0.000, 0.000, 14:00:18.735, 1551726018735
111, -1004.98, 0.00, 0.00, 0.00, 0.00, 0.00, 0.00, 0.00, 0.000, 0.000, 0.000, 14:00:18.742, 1551726018742
112, -1019.84, 0.00, 0.00, 0.00, 0.00, 0.00, 0.00, 0.00, 0.000, 0.000, 0.000, 14:00:18.743, 1551726018743
113, -1099.59, 0.00, 0.00, 0.00, 0.00, 0.00, 0.00, 0.00, 0.000, 0.000, 0.000, 14:00:18.750, 1551726018750
114, -1139.36, 0.00, 0.00, 0.00, 0.00, 0.00, 0.00, 0.00, 0.000, 0.000, 0.000, 14:00:18.750, 1551726018750
115, -1027.24, 0.00, 0.00, 0.00, 0.00, 0.00, 0.00, 0.00, 0.000, 0.000, 0.000, 14:00:18.758, 1551726018758
116, -1050.35, 0.00, 0.00, 0.00, 0.00, 0.00, 0.00, 0.00, 0.000, 0.000, 0.000, 14:00:18.758, 1551726018758
117, -1114.21, 0.00, 0.00, 0.00, 0.00, 0.00, 0.00, 0.00, 0.000, 0.000, 0.000, 14:00:18.765, 1551726018765
118, -1094.92, 0.00, 0.00, 0.00, 0.00, 0.00, 0.00, 0.00, 0.000, 0.000, 0.000, 14:00:18.765, 1551726018765
119, -1026.35, 0.00, 0.00, 0.00, 0.00, 0.00, 0.00, 0.00, -0.338, 0.638, 0.698, 14:00:18.772, 1551726018772
120, -1005.60, 0.00, 0.00, 0.00, 0.00, 0.00, 0.00, 0.00, 0.000, 0.000, 0.000, 14:00:18.773, 1551726018773
121, -1066.20, 0.00, 0.00, 0.00, 0.00, 0.00, 0.00, 0.00, 0.000, 0.000, 0.000, 14:00:18.781, 1551726018781
122, -1133.70, 0.00, 0.00, 0.00, 0.00, 0.00, 0.00, 0.00, 0.000, 0.000, 0.000, 14:00:18.781, 1551726018781
123, -1058.71, 0.00, 0.00, 0.00, 0.00, 0.00, 0.00, 0.00, 0.000, 0.000, 0.000, 14:00:18.788, 1551726018788
124, -1029.41, 0.00, 0.00, 0.00, 0.00, 0.00, 0.00, 0.00, 0.000, 0.000, 0.000, 14:00:18.794, 1551726018794
125, -1060.55, 0.00, 0.00, 0.00, 0.00, 0.00, 0.00, 0.00, 0.000, 0.000, 0.000, 14:00:18.795, 1551726018795
126, -1121.57, 0.00, 0.00, 0.00, 0.00, 0.00, 0.00, 0.00, 0.000, 0.000, 0.000, 14:00:18.802, 1551726018802
127, -1102.03, 0.00, 0.00, 0.00, 0.00, 0.00, 0.00, 0.00, 0.000, 0.000, 0.000, 14:00:18.802, 1551726018802
128, -1035.60, 0.00, 0.00, 0.00, 0.00, 0.00, 0.00, 0.00, 0.000, 0.000, 0.000, 14:00:18.812, 1551726018812
129, -1025.81, 0.00, 0.00, 0.00, 0.00, 0.00, 0.00, 0.00, -0.340, 0.638, 0.694, 14:00:18.812, 1551726018812
130, -1107.98, 0.00, 0.00, 0.00, 0.00, 0.00, 0.00, 0.00, 0.000, 0.000, 0.000, 14:00:18.818, 1551726018818
131, -1089.33, 0.00, 0.00, 0.00, 0.00, 0.00, 0.00, 0.00, 0.000, 0.000, 0.000, 14:00:18.818, 1551726018818
132, -1022.26, 0.00, 0.00, 0.00, 0.00, 0.00, 0.00, 0.00, 0.000, 0.000, 0.000, 14:00:18.825, 1551726018825
133, -1025.05, 0.00, 0.00, 0.00, 0.00, 0.00, 0.00, 0.00, 0.000, 0.000, 0.000, 14:00:18.825, 1551726018825
134, -1087.97, 0.00, 0.00, 0.00, 0.00, 0.00, 0.00, 0.00, 0.000, 0.000, 0.000, 14:00:18.833, 1551726018833
135, -1106.21, 0.00, 0.00, 0.00, 0.00, 0.00, 0.00, 0.00, 0.000, 0.000, 0.000, 14:00:18.833, 1551726018833
136, -1020.51, 0.00, 0.00, 0.00, 0.00, 0.00, 0.00, 0.00, 0.000, 0.000, 0.000, 14:00:18.840, 1551726018840
137, -1018.43, 0.00, 0.00, 0.00, 0.00, 0.00, 0.00, 0.00, 0.000, 0.000, 0.000, 14:00:18.840, 1551726018840
138, -1101.07, 0.00, 0.00, 0.00, 0.00, 0.00, 0.00, 0.00, 0.000, 0.000, 0.000, 14:00:18.847, 1551726018847
139, -1153.86, 0.00, 0.00, 0.00, 0.00, 0.00, 0.00, 0.00, -0.336, 0.634, 0.698, 14:00:18.855, 1551726018855
140, -1035.44, 0.00, 0.00, 0.00, 0.00, 0.00, 0.00, 0.00, 0.000, 0.000, 0.000, 14:00:18.855, 1551726018855
141, -999.84, 0.00, 0.00, 0.00, 0.00, 0.00, 0.00, 0.00, 0.000, 0.000, 0.000, 14:00:18.863, 1551726018863
142, -1062.62, 0.00, 0.00, 0.00, 0.00, 0.00, 0.00, 0.00, 0.000, 0.000, 0.000, 14:00:18.863, 1551726018863
143, -1121.70, 0.00, 0.00, 0.00, 0.00, 0.00, 0.00, 0.00, 0.000, 0.000, 0.000, 14:00:18.870, 1551726018870
144, -1048.34, 0.00, 0.00, 0.00, 0.00, 0.00, 0.00, 0.00, 0.000, 0.000, 0.000, 14:00:18.870, 1551726018870
145, -1008.06, 0.00, 0.00, 0.00, 0.00, 0.00, 0.00, 0.00, 0.000, 0.000, 0.000, 14:00:18.877, 1551726018877
146, -1059.11, 0.00, 0.00, 0.00, 0.00, 0.00, 0.00, 0.00, 0.000, 0.000, 0.000, 14:00:18.878, 1551726018878
147, -1129.39, 0.00, 0.00, 0.00, 0.00, 0.00, 0.00, 0.00, 0.000, 0.000, 0.000, 14:00:18.885, 1551726018885
148, -1069.37, 0.00, 0.00, 0.00, 0.00, 0.00, 0.00, 0.00, 0.000, 0.000, 0.000, 14:00:18.885, 1551726018885
149, -1027.82, 0.00, 0.00, 0.00, 0.00, 0.00, 0.00, 0.00, -0.336, 0.652, 0.694, 14:00:18.893, 1551726018893
150, -1065.75, 0.00, 0.00, 0.00, 0.00, 0.00, 0.00, 0.00, 0.000, 0.000, 0.000, 14:00:18.893, 1551726018893
151, -1132.50, 0.00, 0.00, 0.00, 0.00, 0.00, 0.00, 0.00, 0.000, 0.000, 0.000, 14:00:18.900, 1551726018900
152, -1101.36, 0.00, 0.00, 0.00, 0.00, 0.00, 0.00, 0.00, 0.000, 0.000, 0.000, 14:00:18.900, 1551726018900
153, -1027.87, 0.00, 0.00, 0.00, 0.00, 0.00, 0.00, 0.00, 0.000, 0.000, 0.000, 14:00:18.907, 1551726018907
154, -1046.11, 0.00, 0.00, 0.00, 0.00, 0.00, 0.00, 0.00, 0.000, 0.000, 0.000, 14:00:18.915, 1551726018915
155, -1108.40, 0.00, 0.00, 0.00, 0.00, 0.00, 0.00, 0.00, 0.000, 0.000, 0.000, 14:00:18.915, 1551726018915
156, -1109.74, 0.00, 0.00, 0.00, 0.00, 0.00, 0.00, 0.00, 0.000, 0.000, 0.000, 14:00:18.923, 1551726018923
157, -1022.06, 0.00, 0.00, 0.00, 0.00, 0.00, 0.00, 0.00, 0.000, 0.000, 0.000, 14:00:18.923, 1551726018923
158, -1024.89, 0.00, 0.00, 0.00, 0.00, 0.00, 0.00, 0.00, -0.338, 0.636, 0.702, 14:00:18.929, 1551726018929
159, -1104.27, 0.00, 0.00, 0.00, 0.00, 0.00, 0.00, 0.00, 0.000, 0.000, 0.000, 14:00:18.930, 1551726018930
160, -1115.89, 0.00, 0.00, 0.00, 0.00, 0.00, 0.00, 0.00, 0.000, 0.000, 0.000, 14:00:18.938, 1551726018938
161, -1021.90, 0.00, 0.00, 0.00, 0.00, 0.00, 0.00, 0.00, 0.000, 0.000, 0.000, 14:00:18.938, 1551726018938
162, -1035.49, 0.00, 0.00, 0.00, 0.00, 0.00, 0.00, 0.00, 0.000, 0.000, 0.000, 14:00:18.945, 1551726018945
163, -1104.38, 0.00, 0.00, 0.00, 0.00, 0.00, 0.00, 0.00, 0.000, 0.000, 0.000, 14:00:18.946, 1551726018946
164, -1133.66, 0.00, 0.00, 0.00, 0.00, 0.00, 0.00, 0.00, 0.000, 0.000, 0.000, 14:00:18.952, 1551726018952
165, -1049.46, 0.00, 0.00, 0.00, 0.00, 0.00, 0.00, 0.00, 0.000, 0.000, 0.000, 14:00:18.952, 1551726018952
166, -1041.57, 0.00, 0.00, 0.00, 0.00, 0.00, 0.00, 0.00, 0.000, 0.000, 0.000, 14:00:18.960, 1551726018960
167, -1089.27, 0.00, 0.00, 0.00, 0.00, 0.00, 0.00, 0.00, 0.000, 0.000, 0.000, 14:00:18.960, 1551726018960
168, -1137.95, 0.00, 0.00, 0.00, 0.00, 0.00, 0.00, 0.00, -0.342, 0.638, 0.702, 14:00:18.967, 1551726018967
169, -1066.22, 0.00, 0.00, 0.00, 0.00, 0.00, 0.00, 0.00, 0.000, 0.000, 0.000, 14:00:18.968, 1551726018968
170, -1034.60, 0.00, 0.00, 0.00, 0.00, 0.00, 0.00, 0.00, 0.000, 0.000, 0.000, 14:00:18.975, 1551726018975
171, -1074.09, 0.00, 0.00, 0.00, 0.00, 0.00, 0.00, 0.00, 0.000, 0.000, 0.000, 14:00:18.982, 1551726018982
172, -1143.58, 0.00, 0.00, 0.00, 0.00, 0.00, 0.00, 0.00, 0.000, 0.000, 0.000, 14:00:18.982, 1551726018982
173, -1088.69, 0.00, 0.00, 0.00, 0.00, 0.00, 0.00, 0.00, 0.000, 0.000, 0.000, 14:00:18.990, 1551726018990
174, -1029.70, 0.00, 0.00, 0.00, 0.00, 0.00, 0.00, 0.00, 0.000, 0.000, 0.000, 14:00:18.990, 1551726018990
175, -1063.05, 0.00, 0.00, 0.00, 0.00, 0.00, 0.00, 0.00, 0.000, 0.000, 0.000, 14:00:18.998, 1551726018998
176, -1128.47, 0.00, 0.00, 0.00, 0.00, 0.00, 0.00, 0.00, 0.000, 0.000, 0.000, 14:00:18.998, 1551726018998
177, -1094.77, 0.00, 0.00, 0.00, 0.00, 0.00, 0.00, 0.00, 0.000, 0.000, 0.000, 14:00:19.005, 1551726019005
178, -1020.78, 0.00, 0.00, 0.00, 0.00, 0.00, 0.00, 0.00, -0.344, 0.640, 0.698, 14:00:19.005, 1551726019005
179, -1046.11, 0.00, 0.00, 0.00, 0.00, 0.00, 0.00, 0.00, 0.000, 0.000, 0.000, 14:00:19.012, 1551726019012
180, -1116.49, 0.00, 0.00, 0.00, 0.00, 0.00, 0.00, 0.00, 0.000, 0.000, 0.000, 14:00:19.013, 1551726019013
181, -1126.26, 0.00, 0.00, 0.00, 0.00, 0.00, 0.00, 0.00, 0.000, 0.000, 0.000, 14:00:19.020, 1551726019020
182, -1034.37, 0.00, 0.00, 0.00, 0.00, 0.00, 0.00, 0.00, 0.000, 0.000, 0.000, 14:00:19.021, 1551726019021
183, -1041.48, 0.00, 0.00, 0.00, 0.00, 0.00, 0.00, 0.00, 0.000, 0.000, 0.000, 14:00:19.028, 1551726019028
184, -1105.56, 0.00, 0.00, 0.00, 0.00, 0.00, 0.00, 0.00, 0.000, 0.000, 0.000, 14:00:19.029, 1551726019029
185, -1133.10, 0.00, 0.00, 0.00, 0.00, 0.00, 0.00, 0.00, 0.000, 0.000, 0.000, 14:00:19.034, 1551726019034
186, -1037.50, 0.00, 0.00, 0.00, 0.00, 0.00, 0.00, 0.00, 0.000, 0.000, 0.000, 14:00:19.042, 1551726019042
187, -1035.24, 0.00, 0.00, 0.00, 0.00, 0.00, 0.00, 0.00, 0.000, 0.000, 0.000, 14:00:19.043, 1551726019043
188, -1090.70, 0.00, 0.00, 0.00, 0.00, 0.00, 0.00, 0.00, -0.342, 0.638, 0.700, 14:00:19.050, 1551726019050
189, -1130.60, 0.00, 0.00, 0.00, 0.00, 0.00, 0.00, 0.00, 0.000, 0.000, 0.000, 14:00:19.050, 1551726019050
190, -1051.52, 0.00, 0.00, 0.00, 0.00, 0.00, 0.00, 0.00, 0.000, 0.000, 0.000, 14:00:19.058, 1551726019058
191, -1036.09, 0.00, 0.00, 0.00, 0.00, 0.00, 0.00, 0.00, 0.000, 0.000, 0.000, 14:00:19.058, 1551726019058
192, -1080.73, 0.00, 0.00, 0.00, 0.00, 0.00, 0.00, 0.00, 0.000, 0.000, 0.000, 14:00:19.065, 1551726019065
193, -1141.55, 0.00, 0.00, 0.00, 0.00, 0.00, 0.00, 0.00, 0.000, 0.000, 0.000, 14:00:19.065, 1551726019065
194, -1064.35, 0.00, 0.00, 0.00, 0.00, 0.00, 0.00, 0.00, 0.000, 0.000, 0.000, 14:00:19.073, 1551726019073
195, -1027.78, 0.00, 0.00, 0.00, 0.00, 0.00, 0.00, 0.00, 0.000, 0.000, 0.000, 14:00:19.073, 1551726019073
196, -1070.36, 0.00, 0.00, 0.00, 0.00, 0.00, 0.00, 0.00, 0.000, 0.000, 0.000, 14:00:19.081, 1551726019081
197, -1135.33, 0.00, 0.00, 0.00, 0.00, 0.00, 0.00, 0.00, 0.000, 0.000, 0.000, 14:00:19.081, 1551726019081
198, -1086.36, 0.00, 0.00, 0.00, 0.00, 0.00, 0.00, 0.00, -0.340, 0.642, 0.704, 14:00:19.087, 1551726019087
199, -1033.19, 0.00, 0.00, 0.00, 0.00, 0.00, 0.00, 0.00, 0.000, 0.000, 0.000, 14:00:19.087, 1551726019087
200, -1058.69, 0.00, 0.00, 0.00, 0.00, 0.00, 0.00, 0.00, 0.000, 0.000, 0.000, 14:00:19.095, 1551726019095
201, -1124.54, 0.00, 0.00, 0.00, 0.00, 0.00, 0.00, 0.00, 0.000, 0.000, 0.000, 14:00:19.102, 1551726019102
202, -1102.86, 0.00, 0.00, 0.00, 0.00, 0.00, 0.00, 0.00, 0.000, 0.000, 0.000, 14:00:19.102, 1551726019102
203, -1031.02, 0.00, 0.00, 0.00, 0.00, 0.00, 0.00, 0.00, 0.000, 0.000, 0.000, 14:00:19.111, 1551726019111
204, -1039.67, 0.00, 0.00, 0.00, 0.00, 0.00, 0.00, 0.00, 0.000, 0.000, 0.000, 14:00:19.111, 1551726019111
205, -1113.36, 0.00, 0.00, 0.00, 0.00, 0.00, 0.00, 0.00, 0.000, 0.000, 0.000, 14:00:19.117, 1551726019117
206, -1107.33, 0.00, 0.00, 0.00, 0.00, 0.00, 0.00, 0.00, 0.000, 0.000, 0.000, 14:00:19.117, 1551726019117
207, -1020.11, 0.00, 0.00, 0.00, 0.00, 0.00, 0.00, 0.00, 0.000, 0.000, 0.000, 14:00:19.125, 1551726019125
208, -1034.24, 0.00, 0.00, 0.00, 0.00, 0.00, 0.00, 0.00, -0.336, 0.646, 0.702, 14:00:19.126, 1551726019126
209, -1096.96, 0.00, 0.00, 0.00, 0.00, 0.00, 0.00, 0.00, 0.000, 0.000, 0.000, 14:00:19.133, 1551726019133
210, -1124.09, 0.00, 0.00, 0.00, 0.00, 0.00, 0.00, 0.00, 0.000, 0.000, 0.000, 14:00:19.133, 1551726019133
211, -1036.07, 0.00, 0.00, 0.00, 0.00, 0.00, 0.00, 0.00, 0.000, 0.000, 0.000, 14:00:19.140, 1551726019140
212, -1020.69, 0.00, 0.00, 0.00, 0.00, 0.00, 0.00, 0.00, 0.000, 0.000, 0.000, 14:00:19.140, 1551726019140
213, -1078.83, 0.00, 0.00, 0.00, 0.00, 0.00, 0.00, 0.00, 0.000, 0.000, 0.000, 14:00:19.148, 1551726019148
214, -1124.09, 0.00, 0.00, 0.00, 0.00, 0.00, 0.00, 0.00, 0.000, 0.000, 0.000, 14:00:19.148, 1551726019148
215, -1043.51, 0.00, 0.00, 0.00, 0.00, 0.00, 0.00, 0.00, 0.000, 0.000, 0.000, 14:00:19.155, 1551726019155
216, -1016.33, 0.00, 0.00, 0.00, 0.00, 0.00, 0.00, 0.00, 0.000, 0.000, 0.000, 14:00:19.163, 1551726019163
217, -1061.84, 0.00, 0.00, 0.00, 0.00, 0.00, 0.00, 0.00, -0.336, 0.638, 0.694, 14:00:19.163, 1551726019163
218, -1127.06, 0.00, 0.00, 0.00, 0.00, 0.00, 0.00, 0.00, 0.000, 0.000, 0.000, 14:00:19.169, 1551726019169
219, -1061.44, 0.00, 0.00, 0.00, 0.00, 0.00, 0.00, 0.00, 0.000, 0.000, 0.000, 14:00:19.170, 1551726019170
220, -1018.35, 0.00, 0.00, 0.00, 0.00, 0.00, 0.00, 0.00, 0.000, 0.000, 0.000, 14:00:19.177, 1551726019177
221, -1051.00, 0.00, 0.00, 0.00, 0.00, 0.00, 0.00, 0.00, 0.000, 0.000, 0.000, 14:00:19.177, 1551726019177
222, -1118.97, 0.00, 0.00, 0.00, 0.00, 0.00, 0.00, 0.00, 0.000, 0.000, 0.000, 14:00:19.187, 1551726019187
223, -1063.76, 0.00, 0.00, 0.00, 0.00, 0.00, 0.00, 0.00, 0.000, 0.000, 0.000, 14:00:19.187, 1551726019187
224, -996.44, 0.00, 0.00, 0.00, 0.00, 0.00, 0.00, 0.00, 0.000, 0.000, 0.000, 14:00:19.198, 1551726019198
225, -1023.53, 0.00, 0.00, 0.00, 0.00, 0.00, 0.00, 0.00, 0.000, 0.000, 0.000, 14:00:19.198, 1551726019198
226, -1096.06, 0.00, 0.00, 0.00, 0.00, 0.00, 0.00, 0.00, 0.000, 0.000, 0.000, 14:00:19.202, 1551726019202
227, -1073.46, 0.00, 0.00, 0.00, 0.00, 0.00, 0.00, 0.00, -0.336, 0.644, 0.698, 14:00:19.203, 1551726019203
228, -1005.63, 0.00, 0.00, 0.00, 0.00, 0.00, 0.00, 0.00, 0.000, 0.000, 0.000, 14:00:19.211, 1551726019211
229, -1028.90, 0.00, 0.00, 0.00, 0.00, 0.00, 0.00, 0.00, 0.000, 0.000, 0.000, 14:00:19.211, 1551726019211
230, -1094.94, 0.00, 0.00, 0.00, 0.00, 0.00, 0.00, 0.00, 0.000, 0.000, 0.000, 14:00:19.215, 1551726019215
231, -1091.95, 0.00, 0.00, 0.00, 0.00, 0.00, 0.00, 0.00, 0.000, 0.000, 0.000, 14:00:19.216, 1551726019216
232, -1006.36, 0.00, 0.00, 0.00, 0.00, 0.00, 0.00, 0.00, 0.000, 0.000, 0.000, 14:00:19.222, 1551726019222
233, -1016.45, 0.00, 0.00, 0.00, 0.00, 0.00, 0.00, 0.00, 0.000, 0.000, 0.000, 14:00:19.231, 1551726019231
234, -1076.93, 0.00, 0.00, 0.00, 0.00, 0.00, 0.00, 0.00, 0.000, 0.000, 0.000, 14:00:19.231, 1551726019231
235, -1105.83, 0.00, 0.00, 0.00, 0.00, 0.00, 0.00, 0.00, 0.000, 0.000, 0.000, 14:00:19.239, 1551726019239
236, -1015.80, 0.00, 0.00, 0.00, 0.00, 0.00, 0.00, 0.00, 0.000, 0.000, 0.000, 14:00:19.239, 1551726019239
237, -1006.52, 0.00, 0.00, 0.00, 0.00, 0.00, 0.00, 0.00, -0.338, 0.648, 0.700, 14:00:19.246, 1551726019246
238, -1058.51, 0.00, 0.00, 0.00, 0.00, 0.00, 0.00, 0.00, 0.000, 0.000, 0.000, 14:00:19.246, 1551726019246
239, -1105.90, 0.00, 0.00, 0.00, 0.00, 0.00, 0.00, 0.00, 0.000, 0.000, 0.000, 14:00:19.262, 1551726019262
240, -1021.77, 0.00, 0.00, 0.00, 0.00, 0.00, 0.00, 0.00, 0.000, 0.000, 0.000, 14:00:19.263, 1551726019263
241, -992.91, 0.00, 0.00, 0.00, 0.00, 0.00, 0.00, 0.00, 0.000, 0.000, 0.000, 14:00:19.264, 1551726019264
242, -1036.38, 0.00, 0.00, 0.00, 0.00, 0.00, 0.00, 0.00, 0.000, 0.000, 0.000, 14:00:19.264, 1551726019264
243, -1102.48, 0.00, 0.00, 0.00, 0.00, 0.00, 0.00, 0.00, 0.000, 0.000, 0.000, 14:00:19.277, 1551726019277
244, -1043.98, 0.00, 0.00, 0.00, 0.00, 0.00, 0.00, 0.00, 0.000, 0.000, 0.000, 14:00:19.277, 1551726019277
245, -987.63, 0.00, 0.00, 0.00, 0.00, 0.00, 0.00, 0.00, 0.000, 0.000, 0.000, 14:00:19.277, 1551726019277
246, -1022.68, 0.00, 0.00, 0.00, 0.00, 0.00, 0.00, 0.00, 0.000, 0.000, 0.000, 14:00:19.277, 1551726019277
247, -1094.88, 0.00, 0.00, 0.00, 0.00, 0.00, 0.00, 0.00, -0.334, 0.648, 0.700, 14:00:19.286, 1551726019286
248, -1053.10, 0.00, 0.00, 0.00, 0.00, 0.00, 0.00, 0.00, 0.000, 0.000, 0.000, 14:00:19.290, 1551726019290
249, -987.48, 0.00, 0.00, 0.00, 0.00, 0.00, 0.00, 0.00, 0.000, 0.000, 0.000, 14:00:19.290, 1551726019290
250, -1013.29, 0.00, 0.00, 0.00, 0.00, 0.00, 0.00, 0.00, 0.000, 0.000, 0.000, 14:00:19.298, 1551726019298
251, -1094.90, 0.00, 0.00, 0.00, 0.00, 0.00, 0.00, 0.00, 0.000, 0.000, 0.000, 14:00:19.298, 1551726019298
252, -1068.86, 0.00, 0.00, 0.00, 0.00, 0.00, 0.00, 0.00, 0.000, 0.000, 0.000, 14:00:19.305, 1551726019305
253, -981.44, 0.00, 0.00, 0.00, 0.00, 0.00, 0.00, 0.00, 0.000, 0.000, 0.000, 14:00:19.306, 1551726019306
254, -1002.99, 0.00, 0.00, 0.00, 0.00, 0.00, 0.00, 0.00, 0.000, 0.000, 0.000, 14:00:19.312, 1551726019312
255, -1074.20, 0.00, 0.00, 0.00, 0.00, 0.00, 0.00, 0.00, 0.000, 0.000, 0.000, 14:00:19.313, 1551726019313
0, -1083.77, 0.00, 0.00, 0.00, 0.00, 0.00, 0.00, 0.00, 0.000, 0.000, 0.000, 14:00:19.320, 1551726019320
1, -1004.64, 0.00, 0.00, 0.00, 0.00, 0.00, 0.00, 0.00, -0.336, 0.646, 0.698, 14:00:19.321, 1551726019321
2, -1017.43, 0.00, 0.00, 0.00, 0.00, 0.00, 0.00, 0.00, 0.000, 0.000, 0.000, 14:00:19.328, 1551726019328
3, -1061.28, 0.00, 0.00, 0.00, 0.00, 0.00, 0.00, 0.00, 0.000, 0.000, 0.000, 14:00:19.328, 1551726019328
4, -1093.36, 0.00, 0.00, 0.00, 0.00, 0.00, 0.00, 0.00, 0.000, 0.000, 0.000, 14:00:19.335, 1551726019335
5, -1007.73, 0.00, 0.00, 0.00, 0.00, 0.00, 0.00, 0.00, 0.000, 0.000, 0.000, 14:00:19.335, 1551726019335
6, -993.16, 0.00, 0.00, 0.00, 0.00, 0.00, 0.00, 0.00, 0.000, 0.000, 0.000, 14:00:19.343, 1551726019343
7, -1045.53, 0.00, 0.00, 0.00, 0.00, 0.00, 0.00, 0.00, 0.000, 0.000, 0.000, 14:00:19.350, 1551726019350
8, -1105.67, 0.00, 0.00, 0.00, 0.00, 0.00, 0.00, 0.00, 0.000, 0.000, 0.000, 14:00:19.350, 1551726019350
9, -1022.44, 0.00, 0.00, 0.00, 0.00, 0.00, 0.00, 0.00, 0.000, 0.000, 0.000, 14:00:19.357, 1551726019357
10, -992.24, 0.00, 0.00, 0.00, 0.00, 0.00, 0.00, 0.00, 0.000, 0.000, 0.000, 14:00:19.357, 1551726019357
11, -1032.52, 0.00, 0.00, 0.00, 0.00, 0.00, 0.00, 0.00, -0.338, 0.650, 0.694, 14:00:19.365, 1551726019365
12, -1100.20, 0.00, 0.00, 0.00, 0.00, 0.00, 0.00, 0.00, 0.000, 0.000, 0.000, 14:00:19.365, 1551726019365
13, -1039.04, 0.00, 0.00, 0.00, 0.00, 0.00, 0.00, 0.00, 0.000, 0.000, 0.000, 14:00:19.373, 1551726019373
14, -984.42, 0.00, 0.00, 0.00, 0.00, 0.00, 0.00, 0.00, 0.000, 0.000, 0.000, 14:00:19.373, 1551726019373
15, -1026.55, 0.00, 0.00, 0.00, 0.00, 0.00, 0.00, 0.00, 0.000, 0.000, 0.000, 14:00:19.381, 1551726019381
16, -1095.93, 0.00, 0.00, 0.00, 0.00, 0.00, 0.00, 0.00, 0.000, 0.000, 0.000, 14:00:19.381, 1551726019381
17, -1062.62, 0.00, 0.00, 0.00, 0.00, 0.00, 0.00, 0.00, 0.000, 0.000, 0.000, 14:00:19.387, 1551726019387
18, -1002.74, 0.00, 0.00, 0.00, 0.00, 0.00, 0.00, 0.00, 0.000, 0.000, 0.000, 14:00:19.388, 1551726019388
19, -1013.47, 0.00, 0.00, 0.00, 0.00, 0.00, 0.00, 0.00, 0.000, 0.000, 0.000, 14:00:19.396, 1551726019396
20, -1083.77, 0.00, 0.00, 0.00, 0.00, 0.00, 0.00, 0.00, 0.000, 0.000, 0.000, 14:00:19.396, 1551726019396
21, -1066.49, 0.00, 0.00, 0.00, 0.00, 0.00, 0.00, 0.00, -0.338, 0.650, 0.692, 14:00:19.404, 1551726019404
22, -990.54, 0.00, 0.00, 0.00, 0.00, 0.00, 0.00, 0.00, 0.000, 0.000, 0.000, 14:00:19.411, 1551726019411
23, -1006.54, 0.00, 0.00, 0.00, 0.00, 0.00, 0.00, 0.00, 0.000, 0.000, 0.000, 14:00:19.411, 1551726019411
24, -1074.47, 0.00, 0.00, 0.00, 0.00, 0.00, 0.00, 0.00, 0.000, 0.000, 0.000, 14:00:19.418, 1551726019418
25, -1096.26, 0.00, 0.00, 0.00, 0.00, 0.00, 0.00, 0.00, 0.000, 0.000, 0.000, 14:00:19.418, 1551726019418
26, -1012.00, 0.00, 0.00, 0.00, 0.00, 0.00, 0.00, 0.00, 0.000, 0.000, 0.000, 14:00:19.426, 1551726019426
27, -1012.78, 0.00, 0.00, 0.00, 0.00, 0.00, 0.00, 0.00, 0.000, 0.000, 0.000, 14:00:19.426, 1551726019426
28, -1069.15, 0.00, 0.00, 0.00, 0.00, 0.00, 0.00, 0.00, 0.000, 0.000, 0.000, 14:00:19.433, 1551726019433
29, -1104.31, 0.00, 0.00, 0.00, 0.00, 0.00, 0.00, 0.00, 0.000, 0.000, 0.000, 14:00:19.434, 1551726019434
30, -1020.67, 0.00, 0.00, 0.00, 0.00, 0.00, 0.00, 0.00, -0.338, 0.648, 0.688, 14:00:19.440, 1551726019440
31, -1007.48, 0.00, 0.00, 0.00, 0.00, 0.00, 0.00, 0.00, 0.000, 0.000, 0.000, 14:00:19.442, 1551726019442
32, -1055.25, 0.00, 0.00, 0.00, 0.00, 0.00, 0.00, 0.00, 0.000, 0.000, 0.000, 14:00:19.448, 1551726019448
33, -1115.84, 0.00, 0.00, 0.00, 0.00, 0.00, 0.00, 0.00, 0.000, 0.000, 0.000, 14:00:19.448, 1551726019448
34, -1036.47, 0.00, 0.00, 0.00, 0.00, 0.00, 0.00, 0.00, 0.000, 0.000, 0.000, 14:00:19.456, 1551726019456
35, -1001.74, 0.00, 0.00, 0.00, 0.00, 0.00, 0.00, 0.00, 0.000, 0.000, 0.000, 14:00:19.456, 1551726019456
36, -1042.08, 0.00, 0.00, 0.00, 0.00, 0.00, 0.00, 0.00, 0.000, 0.000, 0.000, 14:00:19.463, 1551726019463
37, -1103.57, 0.00, 0.00, 0.00, 0.00, 0.00, 0.00, 0.00, 0.000, 0.000, 0.000, 14:00:19.463, 1551726019463
38, -1056.95, 0.00, 0.00, 0.00, 0.00, 0.00, 0.00, 0.00, 0.000, 0.000, 0.000, 14:00:19.469, 1551726019469
39, -993.11, 0.00, 0.00, 0.00, 0.00, 0.00, 0.00, 0.00, 0.000, 0.000, 0.000, 14:00:19.477, 1551726019477
40, -1030.10, 0.00, 0.00, 0.00, 0.00, 0.00, 0.00, 0.00, -0.334, 0.646, 0.688, 14:00:19.477, 1551726019477
41, -1090.50, 0.00, 0.00, 0.00, 0.00, 0.00, 0.00, 0.00, 0.000, 0.000, 0.000, 14:00:19.486, 1551726019486
42, -1062.45, 0.00, 0.00, 0.00, 0.00, 0.00, 0.00, 0.00, 0.000, 0.000, 0.000, 14:00:19.486, 1551726019486
43, -999.30, 0.00, 0.00, 0.00, 0.00, 0.00, 0.00, 0.00, 0.000, 0.000, 0.000, 14:00:19.493, 1551726019493
44, -1015.33, 0.00, 0.00, 0.00, 0.00, 0.00, 0.00, 0.00, 0.000, 0.000, 0.000, 14:00:19.493, 1551726019493
45, -1080.13, 0.00, 0.00, 0.00, 0.00, 0.00, 0.00, 0.00, 0.000, 0.000, 0.000, 14:00:19.500, 1551726019500
46, -1073.62, 0.00, 0.00, 0.00, 0.00, 0.00, 0.00, 0.00, 0.000, 0.000, 0.000, 14:00:19.500, 1551726019500
47, -993.58, 0.00, 0.00, 0.00, 0.00, 0.00, 0.00, 0.00, 0.000, 0.000, 0.000, 14:00:19.508, 1551726019508
48, -1002.63, 0.00, 0.00, 0.00, 0.00, 0.00, 0.00, 0.00, 0.000, 0.000, 0.000, 14:00:19.508, 1551726019508
49, -1059.11, 0.00, 0.00, 0.00, 0.00, 0.00, 0.00, 0.00, 0.000, 0.000, 0.000, 14:00:19.516, 1551726019516
50, -1087.01, 0.00, 0.00, 0.00, 0.00, 0.00, 0.00, 0.00, -0.340, 0.644, 0.686, 14:00:19.516, 1551726019516
51, -991.64, 0.00, 0.00, 0.00, 0.00, 0.00, 0.00, 0.00, 0.000, 0.000, 0.000, 14:00:19.523, 1551726019523
52, -990.29, 0.00, 0.00, 0.00, 0.00, 0.00, 0.00, 0.00, 0.000, 0.000, 0.000, 14:00:19.523, 1551726019523
53, -1045.82, 0.00, 0.00, 0.00, 0.00, 0.00, 0.00, 0.00, 0.000, 0.000, 0.000, 14:00:19.530, 1551726019530
54, -1094.52, 0.00, 0.00, 0.00, 0.00, 0.00, 0.00, 0.00, 0.000, 0.000, 0.000, 14:00:19.537, 1551726019537
55, -1011.95, 0.00, 0.00, 0.00, 0.00, 0.00, 0.00, 0.00, 0.000, 0.000, 0.000, 14:00:19.538, 1551726019538
56, -981.96, 0.00, 0.00, 0.00, 0.00, 0.00, 0.00, 0.00, 0.000, 0.000, 0.000, 14:00:19.546, 1551726019546
57, -1039.85, 0.00, 0.00, 0.00, 0.00, 0.00, 0.00, 0.00, 0.000, 0.000, 0.000, 14:00:19.547, 1551726019547
58, -1080.42, 0.00, 0.00, 0.00, 0.00, 0.00, 0.00, 0.00, 0.000, 0.000, 0.000, 14:00:19.552, 1551726019552
59, -1013.14, 0.00, 0.00, 0.00, 0.00, 0.00, 0.00, 0.00, 0.000, 0.000, 0.000, 14:00:19.552, 1551726019552
60, -982.40, 0.00, 0.00, 0.00, 0.00, 0.00, 0.00, 0.00, -0.338, 0.640, 0.686, 14:00:19.560, 1551726019560
61, -1013.47, 0.00, 0.00, 0.00, 0.00, 0.00, 0.00, 0.00, 0.000, 0.000, 0.000, 14:00:19.561, 1551726019561
62, -1086.65, 0.00, 0.00, 0.00, 0.00, 0.00, 0.00, 0.00, 0.000, 0.000, 0.000, 14:00:19.568, 1551726019568
63, -1035.44, 0.00, 0.00, 0.00, 0.00, 0.00, 0.00, 0.00, 0.000, 0.000, 0.000, 14:00:19.568, 1551726019568
64, -972.99, 0.00, 0.00, 0.00, 0.00, 0.00, 0.00, 0.00, 0.000, 0.000, 0.000, 14:00:19.575, 1551726019575
65, -1004.38, 0.00, 0.00, 0.00, 0.00, 0.00, 0.00, 0.00, 0.000, 0.000, 0.000, 14:00:19.576, 1551726019576
66, -1076.06, 0.00, 0.00, 0.00, 0.00, 0.00, 0.00, 0.00, 0.000, 0.000, 0.000, 14:00:19.583, 1551726019583
67, -1049.19, 0.00, 0.00, 0.00, 0.00, 0.00, 0.00, 0.00, 0.000, 0.000, 0.000, 14:00:19.583, 1551726019583
68, -981.24, 0.00, 0.00, 0.00, 0.00, 0.00, 0.00, 0.00, 0.000, 0.000, 0.000, 14:00:19.590, 1551726019590
69, -1001.56, 0.00, 0.00, 0.00, 0.00, 0.00, 0.00, 0.00, 0.000, 0.000, 0.000, 14:00:19.599, 1551726019599
70, -1063.76, 0.00, 0.00, 0.00, 0.00, 0.00, 0.00, 0.00, -0.340, 0.642, 0.684, 14:00:19.599, 1551726019599
71, -1064.64, 0.00, 0.00, 0.00, 0.00, 0.00, 0.00, 0.00, 0.000, 0.000, 0.000, 14:00:19.605, 1551726019605
72, -978.22, 0.00, 0.00, 0.00, 0.00, 0.00, 0.00, 0.00, 0.000, 0.000, 0.000, 14:00:19.605, 1551726019605
73, -988.19, 0.00, 0.00, 0.00, 0.00, 0.00, 0.00, 0.00, 0.000, 0.000, 0.000, 14:00:19.613, 1551726019613
74, -1053.77, 0.00, 0.00, 0.00, 0.00, 0.00, 0.00, 0.00, 0.000, 0.000, 0.000, 14:00:19.613, 1551726019613
75, -1081.87, 0.00, 0.00, 0.00, 0.00, 0.00, 0.00, 0.00, 0.000, 0.000, 0.000, 14:00:19.621, 1551726019621
76, -998.97, 0.00, 0.00, 0.00, 0.00, 0.00, 0.00, 0.00, 0.000, 0.000, 0.000, 14:00:19.621, 1551726019621
77, -988.04, 0.00, 0.00, 0.00, 0.00, 0.00, 0.00, 0.00, 0.000, 0.000, 0.000, 14:00:19.628, 1551726019628
78, -1032.11, 0.00, 0.00, 0.00, 0.00, 0.00, 0.00, 0.00, 0.000, 0.000, 0.000, 14:00:19.628, 1551726019628
79, -1091.79, 0.00, 0.00, 0.00, 0.00, 0.00, 0.00, 0.00, 0.000, 0.000, 0.000, 14:00:19.635, 1551726019635
80, -1000.93, 0.00, 0.00, 0.00, 0.00, 0.00, 0.00, 0.00, -0.340, 0.642, 0.686, 14:00:19.636, 1551726019636
81, -978.65, 0.00, 0.00, 0.00, 0.00, 0.00, 0.00, 0.00, 0.000, 0.000, 0.000, 14:00:19.643, 1551726019643
82, -1022.46, 0.00, 0.00, 0.00, 0.00, 0.00, 0.00, 0.00, 0.000, 0.000, 0.000, 14:00:19.643, 1551726019643
83, -1084.62, 0.00, 0.00, 0.00, 0.00, 0.00, 0.00, 0.00, 0.000, 0.000, 0.000, 14:00:19.650, 1551726019650
84, -1017.90, 0.00, 0.00, 0.00, 0.00, 0.00, 0.00, 0.00, 0.000, 0.000, 0.000, 14:00:19.657, 1551726019657
85, -967.54, 0.00, 0.00, 0.00, 0.00, 0.00, 0.00, 0.00, 0.000, 0.000, 0.000, 14:00:19.657, 1551726019657
86, -1005.96, 0.00, 0.00, 0.00, 0.00, 0.00, 0.00, 0.00, 0.000, 0.000, 0.000, 14:00:19.665, 1551726019665
87, -1073.51, 0.00, 0.00, 0.00, 0.00, 0.00, 0.00, 0.00, 0.000, 0.000, 0.000, 14:00:19.665, 1551726019665
88, -1028.87, 0.00, 0.00, 0.00, 0.00, 0.00, 0.00, 0.00, 0.000, 0.000, 0.000, 14:00:19.673, 1551726019673
89, -967.47, 0.00, 0.00, 0.00, 0.00, 0.00, 0.00, 0.00, -0.340, 0.648, 0.690, 14:00:19.673, 1551726019673
90, -996.35, 0.00, 0.00, 0.00, 0.00, 0.00, 0.00, 0.00, 0.000, 0.000, 0.000, 14:00:19.681, 1551726019681
91, -1071.14, 0.00, 0.00, 0.00, 0.00, 0.00, 0.00, 0.00, 0.000, 0.000, 0.000, 14:00:19.682, 1551726019682
92, -1052.28, 0.00, 0.00, 0.00, 0.00, 0.00, 0.00, 0.00, 0.000, 0.000, 0.000, 14:00:19.687, 1551726019687
93, -971.99, 0.00, 0.00, 0.00, 0.00, 0.00, 0.00, 0.00, 0.000, 0.000, 0.000, 14:00:19.688, 1551726019688
94, -993.42, 0.00, 0.00, 0.00, 0.00, 0.00, 0.00, 0.00, 0.000, 0.000, 0.000, 14:00:19.695, 1551726019695
95, -1064.46, 0.00, 0.00, 0.00, 0.00, 0.00, 0.00, 0.00, 0.000, 0.000, 0.000, 14:00:19.696, 1551726019696
96, -1074.76, 0.00, 0.00, 0.00, 0.00, 0.00, 0.00, 0.00, 0.000, 0.000, 0.000, 14:00:19.704, 1551726019704
97, -979.77, 0.00, 0.00, 0.00, 0.00, 0.00, 0.00, 0.00, 0.000, 0.000, 0.000, 14:00:19.704, 1551726019704
98, -982.40, 0.00, 0.00, 0.00, 0.00, 0.00, 0.00, 0.00, 0.000, 0.000, 0.000, 14:00:19.710, 1551726019710
99, -1043.31, 0.00, 0.00, 0.00, 0.00, 0.00, 0.00, 0.00, -0.340, 0.648, 0.696, 14:00:19.711, 1551726019711
100, -1072.64, 0.00, 0.00, 0.00, 0.00, 0.00, 0.00, 0.00, 0.000, 0.000, 0.000, 14:00:19.717, 1551726019717
101, -990.88, 0.00, 0.00, 0.00, 0.00, 0.00, 0.00, 0.00, 0.000, 0.000, 0.000, 14:00:19.725, 1551726019725
102, -990.47, 0.00, 0.00, 0.00, 0.00, 0.00, 0.00, 0.00, 0.000, 0.000, 0.000, 14:00:19.725, 1551726019725
103, -1032.47, 0.00, 0.00, 0.00, 0.00, 0.00, 0.00, 0.00, 0.000, 0.000, 0.000, 14:00:19.733, 1551726019733
104, -1080.22, 0.00, 0.00, 0.00, 0.00, 0.00, 0.00, 0.00, 0.000, 0.000, 0.000, 14:00:19.733, 1551726019733
105, -1007.35, 0.00, 0.00, 0.00, 0.00, 0.00, 0.00, 0.00, 0.000, 0.000, 0.000, 14:00:19.740, 1551726019740
106, -975.83, 0.00, 0.00, 0.00, 0.00, 0.00, 0.00, 0.00, 0.000, 0.000, 0.000, 14:00:19.740, 1551726019740
107, -1020.49, 0.00, 0.00, 0.00, 0.00, 0.00, 0.00, 0.00, 0.000, 0.000, 0.000, 14:00:19.749, 1551726019749
108, -1088.78, 0.00, 0.00, 0.00, 0.00, 0.00, 0.00, 0.00, 0.000, 0.000, 0.000, 14:00:19.749, 1551726019749
109, -1027.42, 0.00, 0.00, 0.00, 0.00, 0.00, 0.00, 0.00, -0.338, 0.644, 0.694, 14:00:19.756, 1551726019756
110, -981.31, 0.00, 0.00, 0.00, 0.00, 0.00, 0.00, 0.00, 0.000, 0.000, 0.000, 14:00:19.756, 1551726019756
111, -1019.51, 0.00, 0.00, 0.00, 0.00, 0.00, 0.00, 0.00, 0.000, 0.000, 0.000, 14:00:19.763, 1551726019763
112, -1091.01, 0.00, 0.00, 0.00, 0.00, 0.00, 0.00, 0.00, 0.000, 0.000, 0.000, 14:00:19.763, 1551726019763
113, -1035.74, 0.00, 0.00, 0.00, 0.00, 0.00, 0.00, 0.00, 0.000, 0.000, 0.000, 14:00:19.770, 1551726019770
114, -973.80, 0.00, 0.00, 0.00, 0.00, 0.00, 0.00, 0.00, 0.000, 0.000, 0.000, 14:00:19.771, 1551726019771
0, -1039.53, 0.00, 0.00, 0.00, 0.00, 0.00, 0.00, 0.00, -0.336, 0.642, 0.694, 14:00:35.955, 1551726035955
1, -1056.59, 0.00, 0.00, 0.00, 0.00, 0.00, 0.00, 0.00, 0.000, 0.000, 0.000, 14:00:35.963, 1551726035963
2, -1125.97, 0.00, 0.00, 0.00, 0.00, 0.00, 0.00, 0.00, 0.000, 0.000, 0.000, 14:00:35.963, 1551726035963
3, -1113.77, 0.00, 0.00, 0.00, 0.00, 0.00, 0.00, 0.00, 0.000, 0.000, 0.000, 14:00:35.969, 1551726035969
4, -1030.93, 0.00, 0.00, 0.00, 0.00, 0.00, 0.00, 0.00, 0.000, 0.000, 0.000, 14:00:35.969, 1551726035969
5, -1042.51, 0.00, 0.00, 0.00, 0.00, 0.00, 0.00, 0.00, 0.000, 0.000, 0.000, 14:00:35.977, 1551726035977
6, -1099.46, 0.00, 0.00, 0.00, 0.00, 0.00, 0.00, 0.00, 0.000, 0.000, 0.000, 14:00:35.984, 1551726035984
7, -1119.40, 0.00, 0.00, 0.00, 0.00, 0.00, 0.00, 0.00, 0.000, 0.000, 0.000, 14:00:35.984, 1551726035984
8, -1035.49, 0.00, 0.00, 0.00, 0.00, 0.00, 0.00, 0.00, 0.000, 0.000, 0.000, 14:00:35.992, 1551726035992
9, -1032.34, 0.00, 0.00, 0.00, 0.00, 0.00, 0.00, 0.00, 0.000, 0.000, 0.000, 14:00:35.992, 1551726035992
10, -1098.79, 0.00, 0.00, 0.00, 0.00, 0.00, 0.00, 0.00, -0.338, 0.648, 0.694, 14:00:36.000, 1551726036000
11, -1138.40, 0.00, 0.00, 0.00, 0.00, 0.00, 0.00, 0.00, 0.000, 0.000, 0.000, 14:00:36.000, 1551726036000
12, -1041.01, 0.00, 0.00, 0.00, 0.00, 0.00, 0.00, 0.00, 0.000, 0.000, 0.000, 14:00:36.007, 1551726036007
13, -1032.78, 0.00, 0.00, 0.00, 0.00, 0.00, 0.00, 0.00, 0.000, 0.000, 0.000, 14:00:36.007, 1551726036007
14, -1077.58, 0.00, 0.00, 0.00, 0.00, 0.00, 0.00, 0.00, 0.000, 0.000, 0.000, 14:00:36.015, 1551726036015
15, -1129.63, 0.00, 0.00, 0.00, 0.00, 0.00, 0.00, 0.00, 0.000, 0.000, 0.000, 14:00:36.015, 1551726036015
16, -1068.30, 0.00, 0.00, 0.00, 0.00, 0.00, 0.00, 0.00, 0.000, 0.000, 0.000, 14:00:36.022, 1551726036022
17, -1033.19, 0.00, 0.00, 0.00, 0.00, 0.00, 0.00, 0.00, 0.000, 0.000, 0.000, 14:00:36.022, 1551726036022
18, -1068.10, 0.00, 0.00, 0.00, 0.00, 0.00, 0.00, 0.00, 0.000, 0.000, 0.000, 14:00:36.031, 1551726036031
19, -1127.87, 0.00, 0.00, 0.00, 0.00, 0.00, 0.00, 0.00, 0.000, 0.000, 0.000, 14:00:36.031, 1551726036031
20, -1080.73, 0.00, 0.00, 0.00, 0.00, 0.00, 0.00, 0.00, -0.336, 0.650, 0.690, 14:00:36.036, 1551726036036
21, -1028.09, 0.00, 0.00, 0.00, 0.00, 0.00, 0.00, 0.00, 0.000, 0.000, 0.000, 14:00:36.044, 1551726036044
22, -1068.53, 0.00, 0.00, 0.00, 0.00, 0.00, 0.00, 0.00, 0.000, 0.000, 0.000, 14:00:36.044, 1551726036044
23, -1130.42, 0.00, 0.00, 0.00, 0.00, 0.00, 0.00, 0.00, 0.000, 0.000, 0.000, 14:00:36.052, 1551726036052
24, -1108.85, 0.00, 0.00, 0.00, 0.00, 0.00, 0.00, 0.00, 0.000, 0.000, 0.000, 14:00:36.052, 1551726036052
25, -1023.26, 0.00, 0.00, 0.00, 0.00, 0.00, 0.00, 0.00, 0.000, 0.000, 0.000, 14:00:36.060, 1551726036060
26, -1050.53, 0.00, 0.00, 0.00, 0.00, 0.00, 0.00, 0.00, 0.000, 0.000, 0.000, 14:00:36.061, 1551726036061
27, -1123.49, 0.00, 0.00, 0.00, 0.00, 0.00, 0.00, 0.00, 0.000, 0.000, 0.000, 14:00:36.067, 1551726036067
28, -1115.75, 0.00, 0.00, 0.00, 0.00, 0.00, 0.00, 0.00, 0.000, 0.000, 0.000, 14:00:36.067, 1551726036067
29, -1032.65, 0.00, 0.00, 0.00, 0.00, 0.00, 0.00, 0.00, 0.000, 0.000, 0.000, 14:00:36.075, 1551726036075
30, -1038.57, 0.00, 0.00, 0.00, 0.00, 0.00, 0.00, 0.00, -0.340, 0.650, 0.690, 14:00:36.075, 1551726036075
31, -1095.82, 0.00, 0.00, 0.00, 0.00, 0.00, 0.00, 0.00, 0.000, 0.000, 0.000, 14:00:36.083, 1551726036083
32, -1120.22, 0.00, 0.00, 0.00, 0.00, 0.00, 0.00, 0.00, 0.000, 0.000, 0.000, 14:00:36.083, 1551726036083
33, -1036.18, 0.00, 0.00, 0.00, 0.00, 0.00, 0.00, 0.00, 0.000, 0.000, 0.000, 14:00:36.089, 1551726036089
34, -1033.59, 0.00, 0.00, 0.00, 0.00, 0.00, 0.00, 0.00, 0.000, 0.000, 0.000, 14:00:36.090, 1551726036090
35, -1089.29, 0.00, 0.00, 0.00, 0.00, 0.00, 0.00, 0.00, 0.000, 0.000, 0.000, 14:00:36.096, 1551726036096
36, -1148.28, 0.00, 0.00, 0.00, 0.00, 0.00, 0.00, 0.00, 0.000, 0.000, 0.000, 14:00:36.105, 1551726036105
37, -1043.42, 0.00, 0.00, 0.00, 0.00, 0.00, 0.00, 0.00, 0.000, 0.000, 0.000, 14:00:36.105, 1551726036105
38, -1012.06, 0.00, 0.00, 0.00, 0.00, 0.00, 0.00, 0.00, 0.000, 0.000, 0.000, 14:00:36.113, 1551726036113
39, -1067.72, 0.00, 0.00, 0.00, 0.00, 0.00, 0.00, 0.00, 0.000, 0.000, 0.000, 14:00:36.113, 1551726036113
40, -1125.39, 0.00, 0.00, 0.00, 0.00, 0.00, 0.00, 0.00, -0.344, 0.650, 0.688, 14:00:36.119, 1551726036119
41, -1059.27, 0.00, 0.00, 0.00, 0.00, 0.00, 0.00, 0.00, 0.000, 0.000, 0.000, 14:00:36.119, 1551726036119
42, -1013.92, 0.00, 0.00, 0.00, 0.00, 0.00, 0.00, 0.00, 0.000, 0.000, 0.000, 14:00:36.127, 1551726036127
43, -1056.37, 0.00, 0.00, 0.00, 0.00, 0.00, 0.00, 0.00, 0.000, 0.000, 0.000, 14:00:36.127, 1551726036127
44, -1116.47, 0.00, 0.00, 0.00, 0.00, 0.00, 0.00, 0.00, 0.000, 0.000, 0.000, 14:00:36.136, 1551726036136
45, -1072.41, 0.00, 0.00, 0.00, 0.00, 0.00, 0.00, 0.00, 0.000, 0.000, 0.000, 14:00:36.136, 1551726036136
46, -1019.06, 0.00, 0.00, 0.00, 0.00, 0.00, 0.00, 0.00, 0.000, 0.000, 0.000, 14:00:36.142, 1551726036142
47, -1049.26, 0.00, 0.00, 0.00, 0.00, 0.00, 0.00, 0.00, 0.000, 0.000, 0.000, 14:00:36.142, 1551726036142
48, -1116.72, 0.00, 0.00, 0.00, 0.00, 0.00, 0.00, 0.00, 0.000, 0.000, 0.000, 14:00:36.150, 1551726036150
49, -1095.28, 0.00, 0.00, 0.00, 0.00, 0.00, 0.00, 0.00, 0.000, 0.000, 0.000, 14:00:36.150, 1551726036150
50, -1013.63, 0.00, 0.00, 0.00, 0.00, 0.00, 0.00, 0.00, -0.344, 0.650, 0.684, 14:00:36.157, 1551726036157
51, -1032.81, 0.00, 0.00, 0.00, 0.00, 0.00, 0.00, 0.00, 0.000, 0.000, 0.000, 14:00:36.165, 1551726036165
52, -1094.99, 0.00, 0.00, 0.00, 0.00, 0.00, 0.00, 0.00, 0.000, 0.000, 0.000, 14:00:36.165, 1551726036165
53, -1107.04, 0.00, 0.00, 0.00, 0.00, 0.00, 0.00, 0.00, 0.000, 0.000, 0.000, 14:00:36.172, 1551726036172
54, -1020.71, 0.00, 0.00, 0.00, 0.00, 0.00, 0.00, 0.00, 0.000, 0.000, 0.000, 14:00:36.172, 1551726036172
55, -1026.75, 0.00, 0.00, 0.00, 0.00, 0.00, 0.00, 0.00, 0.000, 0.000, 0.000, 14:00:36.180, 1551726036180
56, -1084.26, 0.00, 0.00, 0.00, 0.00, 0.00, 0.00, 0.00, 0.000, 0.000, 0.000, 14:00:36.180, 1551726036180
57, -1115.96, 0.00, 0.00, 0.00, 0.00, 0.00, 0.00, 0.00, 0.000, 0.000, 0.000, 14:00:36.188, 1551726036188
58, -1036.88, 0.00, 0.00, 0.00, 0.00, 0.00, 0.00, 0.00, 0.000, 0.000, 0.000, 14:00:36.188, 1551726036188
59, -1018.17, 0.00, 0.00, 0.00, 0.00, 0.00, 0.00, 0.00, 0.000, 0.000, 0.000, 14:00:36.195, 1551726036195
60, -1082.36, 0.00, 0.00, 0.00, 0.00, 0.00, 0.00, 0.00, -0.346, 0.652, 0.692, 14:00:36.196, 1551726036196
61, -1139.36, 0.00, 0.00, 0.00, 0.00, 0.00, 0.00, 0.00, 0.000, 0.000, 0.000, 14:00:36.202, 1551726036202
62, -1044.36, 0.00, 0.00, 0.00, 0.00, 0.00, 0.00, 0.00, 0.000, 0.000, 0.000, 14:00:36.202, 1551726036202
63, -1016.24, 0.00, 0.00, 0.00, 0.00, 0.00, 0.00, 0.00, 0.000, 0.000, 0.000, 14:00:36.210, 1551726036210
64, -1059.11, 0.00, 0.00, 0.00, 0.00, 0.00, 0.00, 0.00, 0.000, 0.000, 0.000, 14:00:36.210, 1551726036210
65, -1119.35, 0.00, 0.00, 0.00, 0.00, 0.00, 0.00, 0.00, 0.000, 0.000, 0.000, 14:00:36.217, 1551726036217
66, -1063.09, 0.00, 0.00, 0.00, 0.00, 0.00, 0.00, 0.00, 0.000, 0.000, 0.000, 14:00:36.217, 1551726036217
67, -1019.15, 0.00, 0.00, 0.00, 0.00, 0.00, 0.00, 0.00, 0.000, 0.000, 0.000, 14:00:36.224, 1551726036224
68, -1046.20, 0.00, 0.00, 0.00, 0.00, 0.00, 0.00, 0.00, 0.000, 0.000, 0.000, 14:00:36.232, 1551726036232
69, -1113.68, 0.00, 0.00, 0.00, 0.00, 0.00, 0.00, 0.00, -0.340, 0.646, 0.692, 14:00:36.233, 1551726036233
70, -1086.88, 0.00, 0.00, 0.00, 0.00, 0.00, 0.00, 0.00, 0.000, 0.000, 0.000, 14:00:36.240, 1551726036240
71, -1024.67, 0.00, 0.00, 0.00, 0.00, 0.00, 0.00, 0.00, 0.000, 0.000, 0.000, 14:00:36.240, 1551726036240
72, -1050.35, 0.00, 0.00, 0.00, 0.00, 0.00, 0.00, 0.00, 0.000, 0.000, 0.000, 14:00:36.247, 1551726036247
73, -1126.06, 0.00, 0.00, 0.00, 0.00, 0.00, 0.00, 0.00, 0.000, 0.000, 0.000, 14:00:36.248, 1551726036248
74, -1092.13, 0.00, 0.00, 0.00, 0.00, 0.00, 0.00, 0.00, 0.000, 0.000, 0.000, 14:00:36.256, 1551726036256
75, -1016.04, 0.00, 0.00, 0.00, 0.00, 0.00, 0.00, 0.00, 0.000, 0.000, 0.000, 14:00:36.257, 1551726036257
76, -1034.80, 0.00, 0.00, 0.00, 0.00, 0.00, 0.00, 0.00, 0.000, 0.000, 0.000, 14:00:36.262, 1551726036262
77, -1100.62, 0.00, 0.00, 0.00, 0.00, 0.00, 0.00, 0.00, 0.000, 0.000, 0.000, 14:00:36.262, 1551726036262
78, -1119.91, 0.00, 0.00, 0.00, 0.00, 0.00, 0.00, 0.00, 0.000, 0.000, 0.000, 14:00:36.270, 1551726036270
79, -1031.00, 0.00, 0.00, 0.00, 0.00, 0.00, 0.00, 0.00, -0.342, 0.648, 0.690, 14:00:36.271, 1551726036271
80, -1033.50, 0.00, 0.00, 0.00, 0.00, 0.00, 0.00, 0.00, 0.000, 0.000, 0.000, 14:00:36.277, 1551726036277
81, -1086.09, 0.00, 0.00, 0.00, 0.00, 0.00, 0.00, 0.00, 0.000, 0.000, 0.000, 14:00:36.277, 1551726036277
82, -1128.38, 0.00, 0.00, 0.00, 0.00, 0.00, 0.00, 0.00, 0.000, 0.000, 0.000, 14:00:36.284, 1551726036284
83, -1052.68, 0.00, 0.00, 0.00, 0.00, 0.00, 0.00, 0.00, 0.000, 0.000, 0.000, 14:00:36.293, 1551726036293
84, -1046.46, 0.00, 0.00, 0.00, 0.00, 0.00, 0.00, 0.00, 0.000, 0.000, 0.000, 14:00:36.293, 1551726036293
85, -1080.95, 0.00, 0.00, 0.00, 0.00, 0.00, 0.00, 0.00, 0.000, 0.000, 0.000, 14:00:36.302, 1551726036302
86, -1136.72, 0.00, 0.00, 0.00, 0.00, 0.00, 0.00, 0.00, 0.000, 0.000, 0.000, 14:00:36.302, 1551726036302
87, -1067.14, 0.00, 0.00, 0.00, 0.00, 0.00, 0.00, 0.00, 0.000, 0.000, 0.000, 14:00:36.307, 1551726036307
88, -1038.42, 0.00, 0.00, 0.00, 0.00, 0.00, 0.00, 0.00, 0.000, 0.000, 0.000, 14:00:36.307, 1551726036307
89, -1067.05, 0.00, 0.00, 0.00, 0.00, 0.00, 0.00, 0.00, -0.340, 0.646, 0.694, 14:00:36.316, 1551726036316
90, -1126.17, 0.00, 0.00, 0.00, 0.00, 0.00, 0.00, 0.00, 0.000, 0.000, 0.000, 14:00:36.317, 1551726036317
91, -1078.94, 0.00, 0.00, 0.00, 0.00, 0.00, 0.00, 0.00, 0.000, 0.000, 0.000, 14:00:36.323, 1551726036323
92, -1028.90, 0.00, 0.00, 0.00, 0.00, 0.00, 0.00, 0.00, 0.000, 0.000, 0.000, 14:00:36.323, 1551726036323
93, -1066.49, 0.00, 0.00, 0.00, 0.00, 0.00, 0.00, 0.00, 0.000, 0.000, 0.000, 14:00:36.330, 1551726036330
94, -1128.67, 0.00, 0.00, 0.00, 0.00, 0.00, 0.00, 0.00, 0.000, 0.000, 0.000, 14:00:36.331, 1551726036331
95, -1098.48, 0.00, 0.00, 0.00, 0.00, 0.00, 0.00, 0.00, 0.000, 0.000, 0.000, 14:00:36.337, 1551726036337
96, -1030.68, 0.00, 0.00, 0.00, 0.00, 0.00, 0.00, 0.00, 0.000, 0.000, 0.000, 14:00:36.337, 1551726036337
97, -1050.33, 0.00, 0.00, 0.00, 0.00, 0.00, 0.00, 0.00, 0.000, 0.000, 0.000, 14:00:36.344, 1551726036344
98, -1113.23, 0.00, 0.00, 0.00, 0.00, 0.00, 0.00, 0.00, 0.000, 0.000, 0.000, 14:00:36.352, 1551726036352
99, -1113.03, 0.00, 0.00, 0.00, 0.00, 0.00, 0.00, 0.00, -0.340, 0.644, 0.692, 14:00:36.352, 1551726036352
100, -1034.42, 0.00, 0.00, 0.00, 0.00, 0.00, 0.00, 0.00, 0.000, 0.000, 0.000, 14:00:36.359, 1551726036359
101, -1050.22, 0.00, 0.00, 0.00, 0.00, 0.00, 0.00, 0.00, 0.000, 0.000, 0.000, 14:00:36.360, 1551726036360
102, -1111.46, 0.00, 0.00, 0.00, 0.00, 0.00, 0.00, 0.00, 0.000, 0.000, 0.000, 14:00:36.367, 1551726036367
103, -1143.18, 0.00, 0.00, 0.00, 0.00, 0.00, 0.00, 0.00, 0.000, 0.000, 0.000, 14:00:36.367, 1551726036367
104, -1046.26, 0.00, 0.00, 0.00, 0.00, 0.00, 0.00, 0.00, 0.000, 0.000, 0.000, 14:00:36.375, 1551726036375
105, -1030.77, 0.00, 0.00, 0.00, 0.00, 0.00, 0.00, 0.00, 0.000, 0.000, 0.000, 14:00:36.375, 1551726036375
106, -1088.82, 0.00, 0.00, 0.00, 0.00, 0.00, 0.00, 0.00, 0.000, 0.000, 0.000, 14:00:36.383, 1551726036383
107, -1134.44, 0.00, 0.00, 0.00, 0.00, 0.00, 0.00, 0.00, 0.000, 0.000, 0.000, 14:00:36.383, 1551726036383
108, -1059.94, 0.00, 0.00, 0.00, 0.00, 0.00, 0.00, 0.00, 0.000, 0.000, 0.000, 14:00:36.389, 1551726036389
109, -1031.47, 0.00, 0.00, 0.00, 0.00, 0.00, 0.00, 0.00, -0.342, 0.648, 0.692, 14:00:36.389, 1551726036389
110, -1078.61, 0.00, 0.00, 0.00, 0.00, 0.00, 0.00, 0.00, 0.000, 0.000, 0.000, 14:00:36.397, 1551726036397
111, -1136.72, 0.00, 0.00, 0.00, 0.00, 0.00, 0.00, 0.00, 0.000, 0.000, 0.000, 14:00:36.398, 1551726036398
112, -1066.29, 0.00, 0.00, 0.00, 0.00, 0.00, 0.00, 0.00, 0.000, 0.000, 0.000, 14:00:36.404, 1551726036404
113, -1035.49, 0.00, 0.00, 0.00, 0.00, 0.00, 0.00, 0.00, 0.000, 0.000, 0.000, 14:00:36.413, 1551726036413
114, -1064.01, 0.00, 0.00, 0.00, 0.00, 0.00, 0.00, 0.00, 0.000, 0.000, 0.000, 14:00:36.413, 1551726036413
115, -1131.51, 0.00, 0.00, 0.00, 0.00, 0.00, 0.00, 0.00, 0.000, 0.000, 0.000, 14:00:36.419, 1551726036419
116, -1098.23, 0.00, 0.00, 0.00, 0.00, 0.00, 0.00, 0.00, 0.000, 0.000, 0.000, 14:00:36.419, 1551726036419
117, -1025.63, 0.00, 0.00, 0.00, 0.00, 0.00, 0.00, 0.00, 0.000, 0.000, 0.000, 14:00:36.427, 1551726036427
118, -1054.26, 0.00, 0.00, 0.00, 0.00, 0.00, 0.00, 0.00, 0.000, 0.000, 0.000, 14:00:36.427, 1551726036427
119, -1130.31, 0.00, 0.00, 0.00, 0.00, 0.00, 0.00, 0.00, -0.340, 0.646, 0.696, 14:00:36.435, 1551726036435
120, -1102.84, 0.00, 0.00, 0.00, 0.00, 0.00, 0.00, 0.00, 0.000, 0.000, 0.000, 14:00:36.435, 1551726036435
121, -1025.65, 0.00, 0.00, 0.00, 0.00, 0.00, 0.00, 0.00, 0.000, 0.000, 0.000, 14:00:36.442, 1551726036442
122, -1053.30, 0.00, 0.00, 0.00, 0.00, 0.00, 0.00, 0.00, 0.000, 0.000, 0.000, 14:00:36.443, 1551726036443
123, -1108.24, 0.00, 0.00, 0.00, 0.00, 0.00, 0.00, 0.00, 0.000, 0.000, 0.000, 14:00:36.450, 1551726036450
124, -1107.62, 0.00, 0.00, 0.00, 0.00, 0.00, 0.00, 0.00, 0.000, 0.000, 0.000, 14:00:36.450, 1551726036450
125, -1033.14, 0.00, 0.00, 0.00, 0.00, 0.00, 0.00, 0.00, 0.000, 0.000, 0.000, 14:00:36.458, 1551726036458
126, -1038.80, 0.00, 0.00, 0.00, 0.00, 0.00, 0.00, 0.00, 0.000, 0.000, 0.000, 14:00:36.458, 1551726036458
127, -1093.98, 0.00, 0.00, 0.00, 0.00, 0.00, 0.00, 0.00, 0.000, 0.000, 0.000, 14:00:36.465, 1551726036465
128, -1120.07, 0.00, 0.00, 0.00, 0.00, 0.00, 0.00, 0.00, -0.336, 0.646, 0.690, 14:00:36.465, 1551726036465
129, -1045.64, 0.00, 0.00, 0.00, 0.00, 0.00, 0.00, 0.00, 0.000, 0.000, 0.000, 14:00:36.472, 1551726036472
130, -1025.48, 0.00, 0.00, 0.00, 0.00, 0.00, 0.00, 0.00, 0.000, 0.000, 0.000, 14:00:36.479, 1551726036479
131, -1077.33, 0.00, 0.00, 0.00, 0.00, 0.00, 0.00, 0.00, 0.000, 0.000, 0.000, 14:00:36.479, 1551726036479
132, -1127.33, 0.00, 0.00, 0.00, 0.00, 0.00, 0.00, 0.00, 0.000, 0.000, 0.000, 14:00:36.487, 1551726036487
133, -1052.81, 0.00, 0.00, 0.00, 0.00, 0.00, 0.00, 0.00, 0.000, 0.000, 0.000, 14:00:36.487, 1551726036487
134, -1030.66, 0.00, 0.00, 0.00, 0.00, 0.00, 0.00, 0.00, 0.000, 0.000, 0.000, 14:00:36.495, 1551726036495
135, -1074.45, 0.00, 0.00, 0.00, 0.00, 0.00, 0.00, 0.00, 0.000, 0.000, 0.000, 14:00:36.495, 1551726036495
136, -1122.53, 0.00, 0.00, 0.00, 0.00, 0.00, 0.00, 0.00, 0.000, 0.000, 0.000, 14:00:36.502, 1551726036502
137, -1067.85, 0.00, 0.00, 0.00, 0.00, 0.00, 0.00, 0.00, 0.000, 0.000, 0.000, 14:00:36.502, 1551726036502
138, -1023.20, 0.00, 0.00, 0.00, 0.00, 0.00, 0.00, 0.00, -0.340, 0.648, 0.686, 14:00:36.511, 1551726036511
139, -1058.94, 0.00, 0.00, 0.00, 0.00, 0.00, 0.00, 0.00, 0.000, 0.000, 0.000, 14:00:36.511, 1551726036511
140, -1123.64, 0.00, 0.00, 0.00, 0.00, 0.00, 0.00, 0.00, 0.000, 0.000, 0.000, 14:00:36.518, 1551726036518
141, -1089.51, 0.00, 0.00, 0.00, 0.00, 0.00, 0.00, 0.00, 0.000, 0.000, 0.000, 14:00:36.518, 1551726036518
142, -1036.03, 0.00, 0.00, 0.00, 0.00, 0.00, 0.00, 0.00, 0.000, 0.000, 0.000, 14:00:36.525, 1551726036525
143, -1066.78, 0.00, 0.00, 0.00, 0.00, 0.00, 0.00, 0.00, 0.000, 0.000, 0.000, 14:00:36.525, 1551726036525
144, -1114.97, 0.00, 0.00, 0.00, 0.00, 0.00, 0.00, 0.00, 0.000, 0.000, 0.000, 14:00:36.532, 1551726036532
145, -1109.63, 0.00, 0.00, 0.00, 0.00, 0.00, 0.00, 0.00, 0.000, 0.000, 0.000, 14:00:36.540, 1551726036540
146, -1028.22, 0.00, 0.00, 0.00, 0.00, 0.00, 0.00, 0.00, 0.000, 0.000, 0.000, 14:00:36.541, 1551726036541
147, -1043.51, 0.00, 0.00, 0.00, 0.00, 0.00, 0.00, 0.00, 0.000, 0.000, 0.000, 14:00:36.547, 1551726036547
148, -1103.15, 0.00, 0.00, 0.00, 0.00, 0.00, 0.00, 0.00, -0.344, 0.650, 0.690, 14:00:36.548, 1551726036548
149, -1117.94, 0.00, 0.00, 0.00, 0.00, 0.00, 0.00, 0.00, 0.000, 0.000, 0.000, 14:00:36.554, 1551726036554
150, -1040.94, 0.00, 0.00, 0.00, 0.00, 0.00, 0.00, 0.00, 0.000, 0.000, 0.000, 14:00:36.555, 1551726036555
151, -1035.94, 0.00, 0.00, 0.00, 0.00, 0.00, 0.00, 0.00, 0.000, 0.000, 0.000, 14:00:36.562, 1551726036562
152, -1089.98, 0.00, 0.00, 0.00, 0.00, 0.00, 0.00, 0.00, 0.000, 0.000, 0.000, 14:00:36.563, 1551726036563
153, -1128.96, 0.00, 0.00, 0.00, 0.00, 0.00, 0.00, 0.00, 0.000, 0.000, 0.000, 14:00:36.570, 1551726036570
154, -1047.34, 0.00, 0.00, 0.00, 0.00, 0.00, 0.00, 0.00, 0.000, 0.000, 0.000, 14:00:36.570, 1551726036570
155, -1037.81, 0.00, 0.00, 0.00, 0.00, 0.00, 0.00, 0.00, 0.000, 0.000, 0.000, 14:00:36.578, 1551726036578
156, -1089.11, 0.00, 0.00, 0.00, 0.00, 0.00, 0.00, 0.00, 0.000, 0.000, 0.000, 14:00:36.578, 1551726036578
157, -1138.58, 0.00, 0.00, 0.00, 0.00, 0.00, 0.00, 0.00, 0.000, 0.000, 0.000, 14:00:36.585, 1551726036585
158, -1062.67, 0.00, 0.00, 0.00, 0.00, 0.00, 0.00, 0.00, -0.342, 0.648, 0.694, 14:00:36.585, 1551726036585
159, -1028.11, 0.00, 0.00, 0.00, 0.00, 0.00, 0.00, 0.00, 0.000, 0.000, 0.000, 14:00:36.592, 1551726036592
160, -1066.96, 0.00, 0.00, 0.00, 0.00, 0.00, 0.00, 0.00, 0.000, 0.000, 0.000, 14:00:36.600, 1551726036600
161, -1138.06, 0.00, 0.00, 0.00, 0.00, 0.00, 0.00, 0.00, 0.000, 0.000, 0.000, 14:00:36.600, 1551726036600
162, -1089.89, 0.00, 0.00, 0.00, 0.00, 0.00, 0.00, 0.00, 0.000, 0.000, 0.000, 14:00:36.606, 1551726036606
163, -1038.24, 0.00, 0.00, 0.00, 0.00, 0.00, 0.00, 0.00, 0.000, 0.000, 0.000, 14:00:36.607, 1551726036607
164, -1071.88, 0.00, 0.00, 0.00, 0.00, 0.00, 0.00, 0.00, 0.000, 0.000, 0.000, 14:00:36.615, 1551726036615
165, -1135.13, 0.00, 0.00, 0.00, 0.00, 0.00, 0.00, 0.00, 0.000, 0.000, 0.000, 14:00:36.615, 1551726036615
166, -1102.88, 0.00, 0.00, 0.00, 0.00, 0.00, 0.00, 0.00, 0.000, 0.000, 0.000, 14:00:36.622, 1551726036622
167, -1033.77, 0.00, 0.00, 0.00, 0.00, 0.00, 0.00, 0.00, 0.000, 0.000, 0.000, 14:00:36.623, 1551726036623
168, -1054.35, 0.00, 0.00, 0.00, 0.00, 0.00, 0.00, 0.00, -0.346, 0.648, 0.692, 14:00:36.630, 1551726036630
169, -1119.98, 0.00, 0.00, 0.00, 0.00, 0.00, 0.00, 0.00, 0.000, 0.000, 0.000, 14:00:36.630, 1551726036630
170, -1121.90, 0.00, 0.00, 0.00, 0.00, 0.00, 0.00, 0.00, 0.000, 0.000, 0.000, 14:00:36.642, 1551726036642
171, -1026.01, 0.00, 0.00, 0.00, 0.00, 0.00, 0.00, 0.00, 0.000, 0.000, 0.000, 14:00:36.642, 1551726036642
172, -1048.94, 0.00, 0.00, 0.00, 0.00, 0.00, 0.00, 0.00, 0.000, 0.000, 0.000, 14:00:36.645, 1551726036645
173, -1100.22, 0.00, 0.00, 0.00, 0.00, 0.00, 0.00, 0.00, 0.000, 0.000, 0.000, 14:00:36.646, 1551726036646
174, -1123.00, 0.00, 0.00, 0.00, 0.00, 0.00, 0.00, 0.00, 0.000, 0.000, 0.000, 14:00:36.652, 1551726036652
175, -1042.17, 0.00, 0.00, 0.00, 0.00, 0.00, 0.00, 0.00, 0.000, 0.000, 0.000, 14:00:36.659, 1551726036659
176, -1038.95, 0.00, 0.00, 0.00, 0.00, 0.00, 0.00, 0.00, 0.000, 0.000, 0.000, 14:00:36.659, 1551726036659
177, -1093.11, 0.00, 0.00, 0.00, 0.00, 0.00, 0.00, 0.00, 0.000, 0.000, 0.000, 14:00:36.667, 1551726036667
178, -1131.91, 0.00, 0.00, 0.00, 0.00, 0.00, 0.00, 0.00, -0.342, 0.648, 0.688, 14:00:36.667, 1551726036667
179, -1047.83, 0.00, 0.00, 0.00, 0.00, 0.00, 0.00, 0.00, 0.000, 0.000, 0.000, 14:00:36.675, 1551726036675
180, -1033.12, 0.00, 0.00, 0.00, 0.00, 0.00, 0.00, 0.00, 0.000, 0.000, 0.000, 14:00:36.675, 1551726036675
181, -1082.41, 0.00, 0.00, 0.00, 0.00, 0.00, 0.00, 0.00, 0.000, 0.000, 0.000, 14:00:36.684, 1551726036684
182, -1146.24, 0.00, 0.00, 0.00, 0.00, 0.00, 0.00, 0.00, 0.000, 0.000, 0.000, 14:00:36.685, 1551726036685
183, -1067.50, 0.00, 0.00, 0.00, 0.00, 0.00, 0.00, 0.00, 0.000, 0.000, 0.000, 14:00:36.689, 1551726036689
184, -1034.17, 0.00, 0.00, 0.00, 0.00, 0.00, 0.00, 0.00, 0.000, 0.000, 0.000, 14:00:36.689, 1551726036689
185, -1074.96, 0.00, 0.00, 0.00, 0.00, 0.00, 0.00, 0.00, 0.000, 0.000, 0.000, 14:00:36.697, 1551726036697
186, -1135.00, 0.00, 0.00, 0.00, 0.00, 0.00, 0.00, 0.00, 0.000, 0.000, 0.000, 14:00:36.697, 1551726036697
187, -1095.79, 0.00, 0.00, 0.00, 0.00, 0.00, 0.00, 0.00, 0.000, 0.000, 0.000, 14:00:36.705, 1551726036705
188, -1047.72, 0.00, 0.00, 0.00, 0.00, 0.00, 0.00, 0.00, -0.340, 0.648, 0.688, 14:00:36.705, 1551726036705
189, -1069.78, 0.00, 0.00, 0.00, 0.00, 0.00, 0.00, 0.00, 0.000, 0.000, 0.000, 14:00:36.712, 1551726036712
190, -1133.66, 0.00, 0.00, 0.00, 0.00, 0.00, 0.00, 0.00, 0.000, 0.000, 0.000, 14:00:36.712, 1551726036712
191, -1109.72, 0.00, 0.00, 0.00, 0.00, 0.00, 0.00, 0.00, 0.000, 0.000, 0.000, 14:00:36.719, 1551726036719
192, -1040.63, 0.00, 0.00, 0.00, 0.00, 0.00, 0.00, 0.00, 0.000, 0.000, 0.000, 14:00:36.727, 1551726036727
193, -1067.16, 0.00, 0.00, 0.00, 0.00, 0.00, 0.00, 0.00, 0.000, 0.000, 0.000, 14:00:36.727, 1551726036727
194, -1127.27, 0.00, 0.00, 0.00, 0.00, 0.00, 0.00, 0.00, 0.000, 0.000, 0.000, 14:00:36.735, 1551726036735
195, -1120.54, 0.00, 0.00, 0.00, 0.00, 0.00, 0.00, 0.00, 0.000, 0.000, 0.000, 14:00:36.736, 1551726036736
196, -1039.09, 0.00, 0.00, 0.00, 0.00, 0.00, 0.00, 0.00, 0.000, 0.000, 0.000, 14:00:36.742, 1551726036742
197, -1053.84, 0.00, 0.00, 0.00, 0.00, 0.00, 0.00, 0.00, -0.336, 0.646, 0.688, 14:00:36.742, 1551726036742
198, -1111.98, 0.00, 0.00, 0.00, 0.00, 0.00, 0.00, 0.00, 0.000, 0.000, 0.000, 14:00:36.750, 1551726036750
199, -1138.62, 0.00, 0.00, 0.00, 0.00, 0.00, 0.00, 0.00, 0.000, 0.000, 0.000, 14:00:36.751, 1551726036751
200, -1051.85, 0.00, 0.00, 0.00, 0.00, 0.00, 0.00, 0.00, 0.000, 0.000, 0.000, 14:00:36.758, 1551726036758
201, -1048.12, 0.00, 0.00, 0.00, 0.00, 0.00, 0.00, 0.00, 0.000, 0.000, 0.000, 14:00:36.758, 1551726036758
202, -1096.96, 0.00, 0.00, 0.00, 0.00, 0.00, 0.00, 0.00, 0.000, 0.000, 0.000, 14:00:36.765, 1551726036765
203, -1143.72, 0.00, 0.00, 0.00, 0.00, 0.00, 0.00, 0.00, 0.000, 0.000, 0.000, 14:00:36.766, 1551726036766
204, -1066.54, 0.00, 0.00, 0.00, 0.00, 0.00, 0.00, 0.00, 0.000, 0.000, 0.000, 14:00:36.772, 1551726036772
205, -1029.86, 0.00, 0.00, 0.00, 0.00, 0.00, 0.00, 0.00, 0.000, 0.000, 0.000, 14:00:36.772, 1551726036772
206, -1079.97, 0.00, 0.00, 0.00, 0.00, 0.00, 0.00, 0.00, 0.000, 0.000, 0.000, 14:00:36.779, 1551726036779
207, -1157.84, 0.00, 0.00, 0.00, 0.00, 0.00, 0.00, 0.00, -0.334, 0.648, 0.690, 14:00:36.787, 1551726036787
208, -1083.63, 0.00, 0.00, 0.00, 0.00, 0.00, 0.00, 0.00, 0.000, 0.000, 0.000, 14:00:36.787, 1551726036787
209, -1039.56, 0.00, 0.00, 0.00, 0.00, 0.00, 0.00, 0.00, 0.000, 0.000, 0.000, 14:00:36.795, 1551726036795
210, -1070.83, 0.00, 0.00, 0.00, 0.00, 0.00, 0.00, 0.00, 0.000, 0.000, 0.000, 14:00:36.795, 1551726036795
211, -1140.99, 0.00, 0.00, 0.00, 0.00, 0.00, 0.00, 0.00, 0.000, 0.000, 0.000, 14:00:36.802, 1551726036802
212, -1098.54, 0.00, 0.00, 0.00, 0.00, 0.00, 0.00, 0.00, 0.000, 0.000, 0.000, 14:00:36.802, 1551726036802
213, -1037.81, 0.00, 0.00, 0.00, 0.00, 0.00, 0.00, 0.00, 0.000, 0.000, 0.000, 14:00:36.810, 1551726036810
214, -1069.29, 0.00, 0.00, 0.00, 0.00, 0.00, 0.00, 0.00, 0.000, 0.000, 0.000, 14:00:36.810, 1551726036810
215, -1131.96, 0.00, 0.00, 0.00, 0.00, 0.00, 0.00, 0.00, 0.000, 0.000, 0.000, 14:00:36.818, 1551726036818
216, -1116.11, 0.00, 0.00, 0.00, 0.00, 0.00, 0.00, 0.00, 0.000, 0.000, 0.000, 14:00:36.818, 1551726036818
217, -1045.39, 0.00, 0.00, 0.00, 0.00, 0.00, 0.00, 0.00, -0.340, 0.648, 0.690, 14:00:36.824, 1551726036824
218, -1070.11, 0.00, 0.00, 0.00, 0.00, 0.00, 0.00, 0.00, 0.000, 0.000, 0.000, 14:00:36.825, 1551726036825
219, -1129.57, 0.00, 0.00, 0.00, 0.00, 0.00, 0.00, 0.00, 0.000, 0.000, 0.000, 14:00:36.832, 1551726036832
220, -1127.44, 0.00, 0.00, 0.00, 0.00, 0.00, 0.00, 0.00, 0.000, 0.000, 0.000, 14:00:36.833, 1551726036833
221, -1056.23, 0.00, 0.00, 0.00, 0.00, 0.00, 0.00, 0.00, 0.000, 0.000, 0.000, 14:00:36.840, 1551726036840
222, -1058.71, 0.00, 0.00, 0.00, 0.00, 0.00, 0.00, 0.00, 0.000, 0.000, 0.000, 14:00:36.847, 1551726036847
223, -1111.11, 0.00, 0.00, 0.00, 0.00, 0.00, 0.00, 0.00, 0.000, 0.000, 0.000, 14:00:36.847, 1551726036847
224, -1151.29, 0.00, 0.00, 0.00, 0.00, 0.00, 0.00, 0.00, 0.000, 0.000, 0.000, 14:00:36.856, 1551726036856
225, -1068.03, 0.00, 0.00, 0.00, 0.00, 0.00, 0.00, 0.00, 0.000, 0.000, 0.000, 14:00:36.856, 1551726036856
226, -1055.99, 0.00, 0.00, 0.00, 0.00, 0.00, 0.00, 0.00, 0.000, 0.000, 0.000, 14:00:36.862, 1551726036862
227, -1105.05, 0.00, 0.00, 0.00, 0.00, 0.00, 0.00, 0.00, -0.342, 0.644, 0.694, 14:00:36.862, 1551726036862
228, -1156.37, 0.00, 0.00, 0.00, 0.00, 0.00, 0.00, 0.00, 0.000, 0.000, 0.000, 14:00:36.870, 1551726036870
229, -1088.04, 0.00, 0.00, 0.00, 0.00, 0.00, 0.00, 0.00, 0.000, 0.000, 0.000, 14:00:36.870, 1551726036870
230, -1060.03, 0.00, 0.00, 0.00, 0.00, 0.00, 0.00, 0.00, 0.000, 0.000, 0.000, 14:00:36.877, 1551726036877
231, -1111.98, 0.00, 0.00, 0.00, 0.00, 0.00, 0.00, 0.00, 0.000, 0.000, 0.000, 14:00:36.877, 1551726036877
232, -1158.04, 0.00, 0.00, 0.00, 0.00, 0.00, 0.00, 0.00, 0.000, 0.000, 0.000, 14:00:36.885, 1551726036885
233, -1101.47, 0.00, 0.00, 0.00, 0.00, 0.00, 0.00, 0.00, 0.000, 0.000, 0.000, 14:00:36.885, 1551726036885
234, -1060.81, 0.00, 0.00, 0.00, 0.00, 0.00, 0.00, 0.00, 0.000, 0.000, 0.000, 14:00:36.893, 1551726036893
235, -1083.01, 0.00, 0.00, 0.00, 0.00, 0.00, 0.00, 0.00, 0.000, 0.000, 0.000, 14:00:36.893, 1551726036893
236, -1139.74, 0.00, 0.00, 0.00, 0.00, 0.00, 0.00, 0.00, 0.000, 0.000, 0.000, 14:00:36.900, 1551726036900
237, -1102.99, 0.00, 0.00, 0.00, 0.00, 0.00, 0.00, 0.00, -0.342, 0.644, 0.694, 14:00:36.907, 1551726036907
238, -1039.18, 0.00, 0.00, 0.00, 0.00, 0.00, 0.00, 0.00, 0.000, 0.000, 0.000, 14:00:36.907, 1551726036907
239, -1069.29, 0.00, 0.00, 0.00, 0.00, 0.00, 0.00, 0.00, 0.000, 0.000, 0.000, 14:00:36.914, 1551726036914
240, -1138.11, 0.00, 0.00, 0.00, 0.00, 0.00, 0.00, 0.00, 0.000, 0.000, 0.000, 14:00:36.915, 1551726036915
241, -1124.49, 0.00, 0.00, 0.00, 0.00, 0.00, 0.00, 0.00, 0.000, 0.000, 0.000, 14:00:36.927, 1551726036927
242, -1066.83, 0.00, 0.00, 0.00, 0.00, 0.00, 0.00, 0.00, 0.000, 0.000, 0.000, 14:00:36.927, 1551726036927
243, -1074.02, 0.00, 0.00, 0.00, 0.00, 0.00, 0.00, 0.00, 0.000, 0.000, 0.000, 14:00:36.930, 1551726036930
244, -1118.28, 0.00, 0.00, 0.00, 0.00, 0.00, 0.00, 0.00, 0.000, 0.000, 0.000, 14:00:36.930, 1551726036930
245, -1144.01, 0.00, 0.00, 0.00, 0.00, 0.00, 0.00, 0.00, 0.000, 0.000, 0.000, 14:00:36.937, 1551726036937
246, -1065.06, 0.00, 0.00, 0.00, 0.00, 0.00, 0.00, 0.00, 0.000, 0.000, 0.000, 14:00:36.937, 1551726036937
247, -1066.33, 0.00, 0.00, 0.00, 0.00, 0.00, 0.00, 0.00, -0.342, 0.644, 0.690, 14:00:36.945, 1551726036945
248, -1123.26, 0.00, 0.00, 0.00, 0.00, 0.00, 0.00, 0.00, 0.000, 0.000, 0.000, 14:00:36.945, 1551726036945
249, -1153.69, 0.00, 0.00, 0.00, 0.00, 0.00, 0.00, 0.00, 0.000, 0.000, 0.000, 14:00:36.952, 1551726036952
250, -1073.89, 0.00, 0.00, 0.00, 0.00, 0.00, 0.00, 0.00, 0.000, 0.000, 0.000, 14:00:36.953, 1551726036953
251, -1056.59, 0.00, 0.00, 0.00, 0.00, 0.00, 0.00, 0.00, 0.000, 0.000, 0.000, 14:00:36.959, 1551726036959
252, -1098.81, 0.00, 0.00, 0.00, 0.00, 0.00, 0.00, 0.00, 0.000, 0.000, 0.000, 14:00:36.959, 1551726036959
253, -1156.86, 0.00, 0.00, 0.00, 0.00, 0.00, 0.00, 0.00, 0.000, 0.000, 0.000, 14:00:36.967, 1551726036967
254, -1091.39, 0.00, 0.00, 0.00, 0.00, 0.00, 0.00, 0.00, 0.000, 0.000, 0.000, 14:00:36.974, 1551726036974
