%OpenBCI Raw EEG Data
%Number of channels = 8
%Sample Rate = 250.0 Hz
%First Column = SampleIndex
%Last Column = Timestamp 
%Other Columns = EEG data in microvolts followed by Accel Data (in G) interleaved with Aux Data
0, -2503.37, 0.00, 0.00, 0.00, 0.00, 0.00, 0.00, 0.00, -0.452, 0.688, 0.536, 14:04:19.911, 1551726259911
1, -2428.11, 0.00, 0.00, 0.00, 0.00, 0.00, 0.00, 0.00, 0.000, 0.000, 0.000, 14:04:19.911, 1551726259911
2, -2406.03, 0.00, 0.00, 0.00, 0.00, 0.00, 0.00, 0.00, 0.000, 0.000, 0.000, 14:04:19.919, 1551726259919
3, -2452.48, 0.00, 0.00, 0.00, 0.00, 0.00, 0.00, 0.00, 0.000, 0.000, 0.000, 14:04:19.919, 1551726259919
4, -2509.52, 0.00, 0.00, 0.00, 0.00, 0.00, 0.00, 0.00, 0.000, 0.000, 0.000, 14:04:19.926, 1551726259926
5, -2434.24, 0.00, 0.00, 0.00, 0.00, 0.00, 0.00, 0.00, 0.000, 0.000, 0.000, 14:04:19.934, 1551726259934
6, -2408.71, 0.00, 0.00, 0.00, 0.00, 0.00, 0.00, 0.00, 0.000, 0.000, 0.000, 14:04:19.934, 1551726259934
7, -2442.93, 0.00, 0.00, 0.00, 0.00, 0.00, 0.00, 0.00, 0.000, 0.000, 0.000, 14:04:19.941, 1551726259941
8, -2505.83, 0.00, 0.00, 0.00, 0.00, 0.00, 0.00, 0.00, 0.000, 0.000, 0.000, 14:04:19.941, 1551726259941
9, -2456.43, 0.00, 0.00, 0.00, 0.00, 0.00, 0.00, 0.00, 0.000, 0.000, 0.000, 14:04:19.949, 1551726259949
10, -2411.02, 0.00, 0.00, 0.00, 0.00, 0.00, 0.00, 0.00, -0.510, 0.716, 0.466, 14:04:19.949, 1551726259949
11, -2455.50, 0.00, 0.00, 0.00, 0.00, 0.00, 0.00, 0.00, 0.000, 0.000, 0.000, 14:04:19.957, 1551726259957
12, -2514.82, 0.00, 0.00, 0.00, 0.00, 0.00, 0.00, 0.00, 0.000, 0.000, 0.000, 14:04:19.957, 1551726259957
13, -2490.86, 0.00, 0.00, 0.00, 0.00, 0.00, 0.00, 0.00, 0.000, 0.000, 0.000, 14:04:19.963, 1551726259963
14, -2423.42, 0.00, 0.00, 0.00, 0.00, 0.00, 0.00, 0.00, 0.000, 0.000, 0.000, 14:04:19.963, 1551726259963
15, -2449.39, 0.00, 0.00, 0.00, 0.00, 0.00, 0.00, 0.00, 0.000, 0.000, 0.000, 14:04:19.971, 1551726259971
16, -2497.70, 0.00, 0.00, 0.00, 0.00, 0.00, 0.00, 0.00, 0.000, 0.000, 0.000, 14:04:19.971, 1551726259971
17, -2495.19, 0.00, 0.00, 0.00, 0.00, 0.00, 0.00, 0.00, 0.000, 0.000, 0.000, 14:04:19.979, 1551726259979
18, -2410.30, 0.00, 0.00, 0.00, 0.00, 0.00, 0.00, 0.00, 0.000, 0.000, 0.000, 14:04:19.979, 1551726259979
19, -2416.94, 0.00, 0.00, 0.00, 0.00, 0.00, 0.00, 0.00, 0.000, 0.000, 0.000, 14:04:19.987, 1551726259987
20, -2487.03, 0.00, 0.00, 0.00, 0.00, 0.00, 0.00, 0.00, -0.532, 0.722, 0.426, 14:04:19.993, 1551726259993
21, -2506.30, 0.00, 0.00, 0.00, 0.00, 0.00, 0.00, 0.00, 0.000, 0.000, 0.000, 14:04:19.993, 1551726259993
22, -2419.00, 0.00, 0.00, 0.00, 0.00, 0.00, 0.00, 0.00, 0.000, 0.000, 0.000, 14:04:20.002, 1551726260002
23, -2415.98, 0.00, 0.00, 0.00, 0.00, 0.00, 0.00, 0.00, 0.000, 0.000, 0.000, 14:04:20.002, 1551726260002
24, -2471.37, 0.00, 0.00, 0.00, 0.00, 0.00, 0.00, 0.00, 0.000, 0.000, 0.000, 14:04:20.009, 1551726260009
25, -2520.85, 0.00, 0.00, 0.00, 0.00, 0.00, 0.00, 0.00, 0.000, 0.000, 0.000, 14:04:20.009, 1551726260009
26, -2443.27, 0.00, 0.00, 0.00, 0.00, 0.00, 0.00, 0.00, 0.000, 0.000, 0.000, 14:04:20.016, 1551726260016
27, -2417.94, 0.00, 0.00, 0.00, 0.00, 0.00, 0.00, 0.00, 0.000, 0.000, 0.000, 14:04:20.016, 1551726260016
28, -2471.23, 0.00, 0.00, 0.00, 0.00, 0.00, 0.00, 0.00, 0.000, 0.000, 0.000, 14:04:20.024, 1551726260024
29, -2521.61, 0.00, 0.00, 0.00, 0.00, 0.00, 0.00, 0.00, 0.000, 0.000, 0.000, 14:04:20.024, 1551726260024
30, -2461.96, 0.00, 0.00, 0.00, 0.00, 0.00, 0.00, 0.00, -0.544, 0.724, 0.404, 14:04:20.032, 1551726260032
31, -2422.12, 0.00, 0.00, 0.00, 0.00, 0.00, 0.00, 0.00, 0.000, 0.000, 0.000, 14:04:20.032, 1551726260032
32, -2465.38, 0.00, 0.00, 0.00, 0.00, 0.00, 0.00, 0.00, 0.000, 0.000, 0.000, 14:04:20.040, 1551726260040
33, -2530.82, 0.00, 0.00, 0.00, 0.00, 0.00, 0.00, 0.00, 0.000, 0.000, 0.000, 14:04:20.040, 1551726260040
34, -2475.21, 0.00, 0.00, 0.00, 0.00, 0.00, 0.00, 0.00, 0.000, 0.000, 0.000, 14:04:20.046, 1551726260046
35, -2418.70, 0.00, 0.00, 0.00, 0.00, 0.00, 0.00, 0.00, 0.000, 0.000, 0.000, 14:04:20.046, 1551726260046
36, -2449.06, 0.00, 0.00, 0.00, 0.00, 0.00, 0.00, 0.00, 0.000, 0.000, 0.000, 14:04:20.053, 1551726260053
37, -2520.52, 0.00, 0.00, 0.00, 0.00, 0.00, 0.00, 0.00, 0.000, 0.000, 0.000, 14:04:20.061, 1551726260061
38, -2491.37, 0.00, 0.00, 0.00, 0.00, 0.00, 0.00, 0.00, 0.000, 0.000, 0.000, 14:04:20.062, 1551726260062
39, -2415.26, 0.00, 0.00, 0.00, 0.00, 0.00, 0.00, 0.00, 0.000, 0.000, 0.000, 14:04:20.070, 1551726260070
40, -2432.61, 0.00, 0.00, 0.00, 0.00, 0.00, 0.00, 0.00, -0.552, 0.726, 0.396, 14:04:20.070, 1551726260070
41, -2497.85, 0.00, 0.00, 0.00, 0.00, 0.00, 0.00, 0.00, 0.000, 0.000, 0.000, 14:04:20.076, 1551726260076
42, -2505.34, 0.00, 0.00, 0.00, 0.00, 0.00, 0.00, 0.00, 0.000, 0.000, 0.000, 14:04:20.077, 1551726260077
43, -2418.06, 0.00, 0.00, 0.00, 0.00, 0.00, 0.00, 0.00, 0.000, 0.000, 0.000, 14:04:20.084, 1551726260084
44, -2422.26, 0.00, 0.00, 0.00, 0.00, 0.00, 0.00, 0.00, 0.000, 0.000, 0.000, 14:04:20.085, 1551726260085
45, -2489.27, 0.00, 0.00, 0.00, 0.00, 0.00, 0.00, 0.00, 0.000, 0.000, 0.000, 14:04:20.097, 1551726260097
46, -2516.25, 0.00, 0.00, 0.00, 0.00, 0.00, 0.00, 0.00, 0.000, 0.000, 0.000, 14:04:20.097, 1551726260097
47, -2442.96, 0.00, 0.00, 0.00, 0.00, 0.00, 0.00, 0.00, 0.000, 0.000, 0.000, 14:04:20.099, 1551726260099
48, -2420.76, 0.00, 0.00, 0.00, 0.00, 0.00, 0.00, 0.00, 0.000, 0.000, 0.000, 14:04:20.099, 1551726260099
49, -2475.95, 0.00, 0.00, 0.00, 0.00, 0.00, 0.00, 0.00, 0.000, 0.000, 0.000, 14:04:20.109, 1551726260109
50, -2524.36, 0.00, 0.00, 0.00, 0.00, 0.00, 0.00, 0.00, -0.552, 0.728, 0.394, 14:04:20.109, 1551726260109
51, -2455.20, 0.00, 0.00, 0.00, 0.00, 0.00, 0.00, 0.00, 0.000, 0.000, 0.000, 14:04:20.116, 1551726260116
52, -2429.30, 0.00, 0.00, 0.00, 0.00, 0.00, 0.00, 0.00, 0.000, 0.000, 0.000, 14:04:20.126, 1551726260126
53, -2474.09, 0.00, 0.00, 0.00, 0.00, 0.00, 0.00, 0.00, 0.000, 0.000, 0.000, 14:04:20.126, 1551726260126
54, -2526.28, 0.00, 0.00, 0.00, 0.00, 0.00, 0.00, 0.00, 0.000, 0.000, 0.000, 14:04:20.128, 1551726260128
55, -2471.68, 0.00, 0.00, 0.00, 0.00, 0.00, 0.00, 0.00, 0.000, 0.000, 0.000, 14:04:20.128, 1551726260128
56, -2426.64, 0.00, 0.00, 0.00, 0.00, 0.00, 0.00, 0.00, 0.000, 0.000, 0.000, 14:04:20.138, 1551726260138
57, -2460.19, 0.00, 0.00, 0.00, 0.00, 0.00, 0.00, 0.00, 0.000, 0.000, 0.000, 14:04:20.138, 1551726260138
58, -2532.21, 0.00, 0.00, 0.00, 0.00, 0.00, 0.00, 0.00, 0.000, 0.000, 0.000, 14:04:20.144, 1551726260144
59, -2489.11, 0.00, 0.00, 0.00, 0.00, 0.00, 0.00, 0.00, -0.554, 0.724, 0.396, 14:04:20.145, 1551726260145
60, -2425.97, 0.00, 0.00, 0.00, 0.00, 0.00, 0.00, 0.00, 0.000, 0.000, 0.000, 14:04:20.152, 1551726260152
61, -2456.95, 0.00, 0.00, 0.00, 0.00, 0.00, 0.00, 0.00, 0.000, 0.000, 0.000, 14:04:20.152, 1551726260152
62, -2511.06, 0.00, 0.00, 0.00, 0.00, 0.00, 0.00, 0.00, 0.000, 0.000, 0.000, 14:04:20.159, 1551726260159
63, -2500.98, 0.00, 0.00, 0.00, 0.00, 0.00, 0.00, 0.00, 0.000, 0.000, 0.000, 14:04:20.159, 1551726260159
64, -2430.89, 0.00, 0.00, 0.00, 0.00, 0.00, 0.00, 0.00, 0.000, 0.000, 0.000, 14:04:20.171, 1551726260171
65, -2442.80, 0.00, 0.00, 0.00, 0.00, 0.00, 0.00, 0.00, 0.000, 0.000, 0.000, 14:04:20.171, 1551726260171
66, -2495.17, 0.00, 0.00, 0.00, 0.00, 0.00, 0.00, 0.00, 0.000, 0.000, 0.000, 14:04:20.174, 1551726260174
67, -2505.12, 0.00, 0.00, 0.00, 0.00, 0.00, 0.00, 0.00, 0.000, 0.000, 0.000, 14:04:20.181, 1551726260181
68, -2435.22, 0.00, 0.00, 0.00, 0.00, 0.00, 0.00, 0.00, 0.000, 0.000, 0.000, 14:04:20.181, 1551726260181
69, -2438.49, 0.00, 0.00, 0.00, 0.00, 0.00, 0.00, 0.00, -0.556, 0.726, 0.386, 14:04:20.189, 1551726260189
70, -2485.22, 0.00, 0.00, 0.00, 0.00, 0.00, 0.00, 0.00, 0.000, 0.000, 0.000, 14:04:20.189, 1551726260189
71, -2525.88, 0.00, 0.00, 0.00, 0.00, 0.00, 0.00, 0.00, 0.000, 0.000, 0.000, 14:04:20.202, 1551726260202
72, -2443.81, 0.00, 0.00, 0.00, 0.00, 0.00, 0.00, 0.00, 0.000, 0.000, 0.000, 14:04:20.202, 1551726260202
73, -2430.44, 0.00, 0.00, 0.00, 0.00, 0.00, 0.00, 0.00, 0.000, 0.000, 0.000, 14:04:20.204, 1551726260204
74, -2481.31, 0.00, 0.00, 0.00, 0.00, 0.00, 0.00, 0.00, 0.000, 0.000, 0.000, 14:04:20.204, 1551726260204
75, -2528.14, 0.00, 0.00, 0.00, 0.00, 0.00, 0.00, 0.00, 0.000, 0.000, 0.000, 14:04:20.216, 1551726260216
76, -2462.42, 0.00, 0.00, 0.00, 0.00, 0.00, 0.00, 0.00, 0.000, 0.000, 0.000, 14:04:20.216, 1551726260216
77, -2429.30, 0.00, 0.00, 0.00, 0.00, 0.00, 0.00, 0.00, 0.000, 0.000, 0.000, 14:04:20.220, 1551726260220
78, -2464.15, 0.00, 0.00, 0.00, 0.00, 0.00, 0.00, 0.00, 0.000, 0.000, 0.000, 14:04:20.220, 1551726260220
79, -2527.22, 0.00, 0.00, 0.00, 0.00, 0.00, 0.00, 0.00, -0.556, 0.728, 0.382, 14:04:20.227, 1551726260227
80, -2481.02, 0.00, 0.00, 0.00, 0.00, 0.00, 0.00, 0.00, 0.000, 0.000, 0.000, 14:04:20.227, 1551726260227
81, -2408.47, 0.00, 0.00, 0.00, 0.00, 0.00, 0.00, 0.00, 0.000, 0.000, 0.000, 14:04:20.234, 1551726260234
82, -2438.78, 0.00, 0.00, 0.00, 0.00, 0.00, 0.00, 0.00, 0.000, 0.000, 0.000, 14:04:20.242, 1551726260242
83, -2502.81, 0.00, 0.00, 0.00, 0.00, 0.00, 0.00, 0.00, 0.000, 0.000, 0.000, 14:04:20.242, 1551726260242
84, -2476.62, 0.00, 0.00, 0.00, 0.00, 0.00, 0.00, 0.00, 0.000, 0.000, 0.000, 14:04:20.249, 1551726260249
85, -2412.11, 0.00, 0.00, 0.00, 0.00, 0.00, 0.00, 0.00, 0.000, 0.000, 0.000, 14:04:20.249, 1551726260249
86, -2432.70, 0.00, 0.00, 0.00, 0.00, 0.00, 0.00, 0.00, 0.000, 0.000, 0.000, 14:04:20.257, 1551726260257
87, -2489.36, 0.00, 0.00, 0.00, 0.00, 0.00, 0.00, 0.00, 0.000, 0.000, 0.000, 14:04:20.257, 1551726260257
88, -2477.91, 0.00, 0.00, 0.00, 0.00, 0.00, 0.00, 0.00, 0.000, 0.000, 0.000, 14:04:20.264, 1551726260264
89, -2407.08, 0.00, 0.00, 0.00, 0.00, 0.00, 0.00, 0.00, -0.554, 0.724, 0.384, 14:04:20.264, 1551726260264
90, -2429.79, 0.00, 0.00, 0.00, 0.00, 0.00, 0.00, 0.00, 0.000, 0.000, 0.000, 14:04:20.272, 1551726260272
91, -2481.96, 0.00, 0.00, 0.00, 0.00, 0.00, 0.00, 0.00, 0.000, 0.000, 0.000, 14:04:20.272, 1551726260272
92, -2509.74, 0.00, 0.00, 0.00, 0.00, 0.00, 0.00, 0.00, 0.000, 0.000, 0.000, 14:04:20.279, 1551726260279
93, -2420.90, 0.00, 0.00, 0.00, 0.00, 0.00, 0.00, 0.00, 0.000, 0.000, 0.000, 14:04:20.280, 1551726260280
94, -2417.34, 0.00, 0.00, 0.00, 0.00, 0.00, 0.00, 0.00, 0.000, 0.000, 0.000, 14:04:20.287, 1551726260287
95, -2465.51, 0.00, 0.00, 0.00, 0.00, 0.00, 0.00, 0.00, 0.000, 0.000, 0.000, 14:04:20.287, 1551726260287
96, -2505.34, 0.00, 0.00, 0.00, 0.00, 0.00, 0.00, 0.00, 0.000, 0.000, 0.000, 14:04:20.293, 1551726260293
97, -2433.30, 0.00, 0.00, 0.00, 0.00, 0.00, 0.00, 0.00, 0.000, 0.000, 0.000, 14:04:20.293, 1551726260293
98, -2420.38, 0.00, 0.00, 0.00, 0.00, 0.00, 0.00, 0.00, 0.000, 0.000, 0.000, 14:04:20.301, 1551726260301
99, -2476.06, 0.00, 0.00, 0.00, 0.00, 0.00, 0.00, 0.00, -0.554, 0.726, 0.384, 14:04:20.309, 1551726260309
100, -2516.90, 0.00, 0.00, 0.00, 0.00, 0.00, 0.00, 0.00, 0.000, 0.000, 0.000, 14:04:20.309, 1551726260309
101, -2456.66, 0.00, 0.00, 0.00, 0.00, 0.00, 0.00, 0.00, 0.000, 0.000, 0.000, 14:04:20.353, 1551726260353
102, -2411.06, 0.00, 0.00, 0.00, 0.00, 0.00, 0.00, 0.00, 0.000, 0.000, 0.000, 14:04:20.354, 1551726260354
103, -2445.39, 0.00, 0.00, 0.00, 0.00, 0.00, 0.00, 0.00, 0.000, 0.000, 0.000, 14:04:20.354, 1551726260354
104, -2516.78, 0.00, 0.00, 0.00, 0.00, 0.00, 0.00, 0.00, 0.000, 0.000, 0.000, 14:04:20.354, 1551726260354
105, -2461.02, 0.00, 0.00, 0.00, 0.00, 0.00, 0.00, 0.00, 0.000, 0.000, 0.000, 14:04:20.354, 1551726260354
106, -2405.87, 0.00, 0.00, 0.00, 0.00, 0.00, 0.00, 0.00, 0.000, 0.000, 0.000, 14:04:20.355, 1551726260355
107, -2439.85, 0.00, 0.00, 0.00, 0.00, 0.00, 0.00, 0.00, 0.000, 0.000, 0.000, 14:04:20.355, 1551726260355
108, -2503.53, 0.00, 0.00, 0.00, 0.00, 0.00, 0.00, 0.00, 0.000, 0.000, 0.000, 14:04:20.355, 1551726260355
109, -2473.40, 0.00, 0.00, 0.00, 0.00, 0.00, 0.00, 0.00, -0.558, 0.730, 0.378, 14:04:20.355, 1551726260355
110, -2403.46, 0.00, 0.00, 0.00, 0.00, 0.00, 0.00, 0.00, 0.000, 0.000, 0.000, 14:04:20.355, 1551726260355
111, -2427.15, 0.00, 0.00, 0.00, 0.00, 0.00, 0.00, 0.00, 0.000, 0.000, 0.000, 14:04:20.355, 1551726260355
112, -2493.27, 0.00, 0.00, 0.00, 0.00, 0.00, 0.00, 0.00, 0.000, 0.000, 0.000, 14:04:20.355, 1551726260355
113, -2493.29, 0.00, 0.00, 0.00, 0.00, 0.00, 0.00, 0.00, 0.000, 0.000, 0.000, 14:04:20.361, 1551726260361
114, -2411.17, 0.00, 0.00, 0.00, 0.00, 0.00, 0.00, 0.00, 0.000, 0.000, 0.000, 14:04:20.368, 1551726260368
115, -2415.17, 0.00, 0.00, 0.00, 0.00, 0.00, 0.00, 0.00, 0.000, 0.000, 0.000, 14:04:20.369, 1551726260369
116, -2473.24, 0.00, 0.00, 0.00, 0.00, 0.00, 0.00, 0.00, 0.000, 0.000, 0.000, 14:04:20.376, 1551726260376
117, -2496.71, 0.00, 0.00, 0.00, 0.00, 0.00, 0.00, 0.00, 0.000, 0.000, 0.000, 14:04:20.376, 1551726260376
118, -2418.84, 0.00, 0.00, 0.00, 0.00, 0.00, 0.00, 0.00, 0.000, 0.000, 0.000, 14:04:20.384, 1551726260384
119, -2414.57, 0.00, 0.00, 0.00, 0.00, 0.00, 0.00, 0.00, -0.560, 0.730, 0.382, 14:04:20.386, 1551726260386
120, -2460.35, 0.00, 0.00, 0.00, 0.00, 0.00, 0.00, 0.00, 0.000, 0.000, 0.000, 14:04:20.392, 1551726260392
121, -2508.00, 0.00, 0.00, 0.00, 0.00, 0.00, 0.00, 0.00, 0.000, 0.000, 0.000, 14:04:20.392, 1551726260392
122, -2433.66, 0.00, 0.00, 0.00, 0.00, 0.00, 0.00, 0.00, 0.000, 0.000, 0.000, 14:04:20.399, 1551726260399
123, -2403.86, 0.00, 0.00, 0.00, 0.00, 0.00, 0.00, 0.00, 0.000, 0.000, 0.000, 14:04:20.399, 1551726260399
124, -2455.99, 0.00, 0.00, 0.00, 0.00, 0.00, 0.00, 0.00, 0.000, 0.000, 0.000, 14:04:20.409, 1551726260409
125, -2497.92, 0.00, 0.00, 0.00, 0.00, 0.00, 0.00, 0.00, 0.000, 0.000, 0.000, 14:04:20.409, 1551726260409
126, -2449.42, 0.00, 0.00, 0.00, 0.00, 0.00, 0.00, 0.00, 0.000, 0.000, 0.000, 14:04:20.415, 1551726260415
127, -2396.46, 0.00, 0.00, 0.00, 0.00, 0.00, 0.00, 0.00, 0.000, 0.000, 0.000, 14:04:20.415, 1551726260415
128, -2432.74, 0.00, 0.00, 0.00, 0.00, 0.00, 0.00, 0.00, -0.560, 0.732, 0.384, 14:04:20.422, 1551726260422
129, -2495.15, 0.00, 0.00, 0.00, 0.00, 0.00, 0.00, 0.00, 0.000, 0.000, 0.000, 14:04:20.429, 1551726260429
130, -2457.75, 0.00, 0.00, 0.00, 0.00, 0.00, 0.00, 0.00, 0.000, 0.000, 0.000, 14:04:20.429, 1551726260429
131, -2395.57, 0.00, 0.00, 0.00, 0.00, 0.00, 0.00, 0.00, 0.000, 0.000, 0.000, 14:04:20.437, 1551726260437
132, -2422.24, 0.00, 0.00, 0.00, 0.00, 0.00, 0.00, 0.00, 0.000, 0.000, 0.000, 14:04:20.437, 1551726260437
133, -2485.09, 0.00, 0.00, 0.00, 0.00, 0.00, 0.00, 0.00, 0.000, 0.000, 0.000, 14:04:20.445, 1551726260445
134, -2469.51, 0.00, 0.00, 0.00, 0.00, 0.00, 0.00, 0.00, 0.000, 0.000, 0.000, 14:04:20.445, 1551726260445
135, -2405.85, 0.00, 0.00, 0.00, 0.00, 0.00, 0.00, 0.00, 0.000, 0.000, 0.000, 14:04:20.452, 1551726260452
136, -2403.28, 0.00, 0.00, 0.00, 0.00, 0.00, 0.00, 0.00, 0.000, 0.000, 0.000, 14:04:20.452, 1551726260452
137, -2469.29, 0.00, 0.00, 0.00, 0.00, 0.00, 0.00, 0.00, 0.000, 0.000, 0.000, 14:04:20.459, 1551726260459
138, -2480.66, 0.00, 0.00, 0.00, 0.00, 0.00, 0.00, 0.00, -0.558, 0.726, 0.380, 14:04:20.459, 1551726260459
139, -2403.82, 0.00, 0.00, 0.00, 0.00, 0.00, 0.00, 0.00, 0.000, 0.000, 0.000, 14:04:20.467, 1551726260467
140, -2405.07, 0.00, 0.00, 0.00, 0.00, 0.00, 0.00, 0.00, 0.000, 0.000, 0.000, 14:04:20.467, 1551726260467
141, -2456.86, 0.00, 0.00, 0.00, 0.00, 0.00, 0.00, 0.00, 0.000, 0.000, 0.000, 14:04:20.474, 1551726260474
142, -2490.14, 0.00, 0.00, 0.00, 0.00, 0.00, 0.00, 0.00, 0.000, 0.000, 0.000, 14:04:20.474, 1551726260474
143, -2405.43, 0.00, 0.00, 0.00, 0.00, 0.00, 0.00, 0.00, 0.000, 0.000, 0.000, 14:04:20.481, 1551726260481
144, -2403.13, 0.00, 0.00, 0.00, 0.00, 0.00, 0.00, 0.00, 0.000, 0.000, 0.000, 14:04:20.488, 1551726260488
145, -2464.44, 0.00, 0.00, 0.00, 0.00, 0.00, 0.00, 0.00, 0.000, 0.000, 0.000, 14:04:20.489, 1551726260489
146, -2498.48, 0.00, 0.00, 0.00, 0.00, 0.00, 0.00, 0.00, 0.000, 0.000, 0.000, 14:04:20.497, 1551726260497
147, -2436.85, 0.00, 0.00, 0.00, 0.00, 0.00, 0.00, 0.00, 0.000, 0.000, 0.000, 14:04:20.497, 1551726260497
148, -2393.36, 0.00, 0.00, 0.00, 0.00, 0.00, 0.00, 0.00, -0.554, 0.726, 0.376, 14:04:20.503, 1551726260503
149, -2432.03, 0.00, 0.00, 0.00, 0.00, 0.00, 0.00, 0.00, 0.000, 0.000, 0.000, 14:04:20.504, 1551726260504
150, -2494.10, 0.00, 0.00, 0.00, 0.00, 0.00, 0.00, 0.00, 0.000, 0.000, 0.000, 14:04:20.512, 1551726260512
151, -2440.41, 0.00, 0.00, 0.00, 0.00, 0.00, 0.00, 0.00, 0.000, 0.000, 0.000, 14:04:20.512, 1551726260512
152, -2394.18, 0.00, 0.00, 0.00, 0.00, 0.00, 0.00, 0.00, 0.000, 0.000, 0.000, 14:04:20.519, 1551726260519
153, -2419.40, 0.00, 0.00, 0.00, 0.00, 0.00, 0.00, 0.00, 0.000, 0.000, 0.000, 14:04:20.519, 1551726260519
154, -2480.98, 0.00, 0.00, 0.00, 0.00, 0.00, 0.00, 0.00, 0.000, 0.000, 0.000, 14:04:20.527, 1551726260527
155, -2446.11, 0.00, 0.00, 0.00, 0.00, 0.00, 0.00, 0.00, 0.000, 0.000, 0.000, 14:04:20.527, 1551726260527
156, -2406.41, 0.00, 0.00, 0.00, 0.00, 0.00, 0.00, 0.00, 0.000, 0.000, 0.000, 14:04:20.534, 1551726260534
157, -2415.69, 0.00, 0.00, 0.00, 0.00, 0.00, 0.00, 0.00, 0.000, 0.000, 0.000, 14:04:20.535, 1551726260535
158, -2469.55, 0.00, 0.00, 0.00, 0.00, 0.00, 0.00, 0.00, -0.554, 0.728, 0.376, 14:04:20.541, 1551726260541
159, -2462.78, 0.00, 0.00, 0.00, 0.00, 0.00, 0.00, 0.00, 0.000, 0.000, 0.000, 14:04:20.541, 1551726260541
160, -2400.29, 0.00, 0.00, 0.00, 0.00, 0.00, 0.00, 0.00, 0.000, 0.000, 0.000, 14:04:20.549, 1551726260549
161, -2421.61, 0.00, 0.00, 0.00, 0.00, 0.00, 0.00, 0.00, 0.000, 0.000, 0.000, 14:04:20.557, 1551726260557
162, -2488.35, 0.00, 0.00, 0.00, 0.00, 0.00, 0.00, 0.00, 0.000, 0.000, 0.000, 14:04:20.557, 1551726260557
163, -2498.84, 0.00, 0.00, 0.00, 0.00, 0.00, 0.00, 0.00, 0.000, 0.000, 0.000, 14:04:20.563, 1551726260563
164, -2410.12, 0.00, 0.00, 0.00, 0.00, 0.00, 0.00, 0.00, 0.000, 0.000, 0.000, 14:04:20.563, 1551726260563
165, -2414.59, 0.00, 0.00, 0.00, 0.00, 0.00, 0.00, 0.00, 0.000, 0.000, 0.000, 14:04:20.572, 1551726260572
166, -2461.96, 0.00, 0.00, 0.00, 0.00, 0.00, 0.00, 0.00, 0.000, 0.000, 0.000, 14:04:20.572, 1551726260572
167, -2508.98, 0.00, 0.00, 0.00, 0.00, 0.00, 0.00, 0.00, 0.000, 0.000, 0.000, 14:04:20.579, 1551726260579
168, -2415.53, 0.00, 0.00, 0.00, 0.00, 0.00, 0.00, 0.00, -0.554, 0.732, 0.382, 14:04:20.579, 1551726260579
169, -2404.06, 0.00, 0.00, 0.00, 0.00, 0.00, 0.00, 0.00, 0.000, 0.000, 0.000, 14:04:20.587, 1551726260587
170, -2452.59, 0.00, 0.00, 0.00, 0.00, 0.00, 0.00, 0.00, 0.000, 0.000, 0.000, 14:04:20.587, 1551726260587
171, -2510.03, 0.00, 0.00, 0.00, 0.00, 0.00, 0.00, 0.00, 0.000, 0.000, 0.000, 14:04:20.594, 1551726260594
172, -2451.67, 0.00, 0.00, 0.00, 0.00, 0.00, 0.00, 0.00, 0.000, 0.000, 0.000, 14:04:20.594, 1551726260594
173, -2421.14, 0.00, 0.00, 0.00, 0.00, 0.00, 0.00, 0.00, 0.000, 0.000, 0.000, 14:04:20.602, 1551726260602
174, -2458.00, 0.00, 0.00, 0.00, 0.00, 0.00, 0.00, 0.00, 0.000, 0.000, 0.000, 14:04:20.602, 1551726260602
175, -2504.89, 0.00, 0.00, 0.00, 0.00, 0.00, 0.00, 0.00, 0.000, 0.000, 0.000, 14:04:20.609, 1551726260609
176, -2455.61, 0.00, 0.00, 0.00, 0.00, 0.00, 0.00, 0.00, 0.000, 0.000, 0.000, 14:04:20.616, 1551726260616
177, -2404.29, 0.00, 0.00, 0.00, 0.00, 0.00, 0.00, 0.00, 0.000, 0.000, 0.000, 14:04:20.616, 1551726260616
178, -2439.63, 0.00, 0.00, 0.00, 0.00, 0.00, 0.00, 0.00, -0.554, 0.728, 0.382, 14:04:20.624, 1551726260624
179, -2496.04, 0.00, 0.00, 0.00, 0.00, 0.00, 0.00, 0.00, 0.000, 0.000, 0.000, 14:04:20.625, 1551726260625
180, -2467.50, 0.00, 0.00, 0.00, 0.00, 0.00, 0.00, 0.00, 0.000, 0.000, 0.000, 14:04:20.632, 1551726260632
181, -2410.72, 0.00, 0.00, 0.00, 0.00, 0.00, 0.00, 0.00, 0.000, 0.000, 0.000, 14:04:20.632, 1551726260632
182, -2430.28, 0.00, 0.00, 0.00, 0.00, 0.00, 0.00, 0.00, 0.000, 0.000, 0.000, 14:04:20.639, 1551726260639
183, -2504.00, 0.00, 0.00, 0.00, 0.00, 0.00, 0.00, 0.00, 0.000, 0.000, 0.000, 14:04:20.639, 1551726260639
184, -2495.97, 0.00, 0.00, 0.00, 0.00, 0.00, 0.00, 0.00, 0.000, 0.000, 0.000, 14:04:20.646, 1551726260646
185, -2411.80, 0.00, 0.00, 0.00, 0.00, 0.00, 0.00, 0.00, 0.000, 0.000, 0.000, 14:04:20.646, 1551726260646
186, -2428.81, 0.00, 0.00, 0.00, 0.00, 0.00, 0.00, 0.00, 0.000, 0.000, 0.000, 14:04:20.654, 1551726260654
187, -2484.08, 0.00, 0.00, 0.00, 0.00, 0.00, 0.00, 0.00, -0.554, 0.724, 0.380, 14:04:20.654, 1551726260654
188, -2500.91, 0.00, 0.00, 0.00, 0.00, 0.00, 0.00, 0.00, 0.000, 0.000, 0.000, 14:04:20.662, 1551726260662
189, -2427.38, 0.00, 0.00, 0.00, 0.00, 0.00, 0.00, 0.00, 0.000, 0.000, 0.000, 14:04:20.662, 1551726260662
190, -2410.79, 0.00, 0.00, 0.00, 0.00, 0.00, 0.00, 0.00, 0.000, 0.000, 0.000, 14:04:20.669, 1551726260669
191, -2464.88, 0.00, 0.00, 0.00, 0.00, 0.00, 0.00, 0.00, 0.000, 0.000, 0.000, 14:04:20.676, 1551726260676
192, -2510.64, 0.00, 0.00, 0.00, 0.00, 0.00, 0.00, 0.00, 0.000, 0.000, 0.000, 14:04:20.676, 1551726260676
193, -2425.75, 0.00, 0.00, 0.00, 0.00, 0.00, 0.00, 0.00, 0.000, 0.000, 0.000, 14:04:20.684, 1551726260684
194, -2410.72, 0.00, 0.00, 0.00, 0.00, 0.00, 0.00, 0.00, 0.000, 0.000, 0.000, 14:04:20.684, 1551726260684
195, -2453.22, 0.00, 0.00, 0.00, 0.00, 0.00, 0.00, 0.00, 0.000, 0.000, 0.000, 14:04:20.692, 1551726260692
196, -2504.22, 0.00, 0.00, 0.00, 0.00, 0.00, 0.00, 0.00, 0.000, 0.000, 0.000, 14:04:20.692, 1551726260692
197, -2439.34, 0.00, 0.00, 0.00, 0.00, 0.00, 0.00, 0.00, -0.558, 0.728, 0.380, 14:04:20.699, 1551726260699
198, -2393.25, 0.00, 0.00, 0.00, 0.00, 0.00, 0.00, 0.00, 0.000, 0.000, 0.000, 14:04:20.700, 1551726260700
199, -2428.45, 0.00, 0.00, 0.00, 0.00, 0.00, 0.00, 0.00, 0.000, 0.000, 0.000, 14:04:20.707, 1551726260707
200, -2486.74, 0.00, 0.00, 0.00, 0.00, 0.00, 0.00, 0.00, 0.000, 0.000, 0.000, 14:04:20.707, 1551726260707
201, -2448.57, 0.00, 0.00, 0.00, 0.00, 0.00, 0.00, 0.00, 0.000, 0.000, 0.000, 14:04:20.715, 1551726260715
202, -2386.97, 0.00, 0.00, 0.00, 0.00, 0.00, 0.00, 0.00, 0.000, 0.000, 0.000, 14:04:20.715, 1551726260715
203, -2419.13, 0.00, 0.00, 0.00, 0.00, 0.00, 0.00, 0.00, 0.000, 0.000, 0.000, 14:04:20.722, 1551726260722
204, -2479.30, 0.00, 0.00, 0.00, 0.00, 0.00, 0.00, 0.00, 0.000, 0.000, 0.000, 14:04:20.722, 1551726260722
205, -2458.85, 0.00, 0.00, 0.00, 0.00, 0.00, 0.00, 0.00, 0.000, 0.000, 0.000, 14:04:20.728, 1551726260728
206, -2396.20, 0.00, 0.00, 0.00, 0.00, 0.00, 0.00, 0.00, 0.000, 0.000, 0.000, 14:04:20.737, 1551726260737
207, -2415.31, 0.00, 0.00, 0.00, 0.00, 0.00, 0.00, 0.00, -0.564, 0.726, 0.380, 14:04:20.737, 1551726260737
208, -2475.10, 0.00, 0.00, 0.00, 0.00, 0.00, 0.00, 0.00, 0.000, 0.000, 0.000, 14:04:20.744, 1551726260744
209, -2481.65, 0.00, 0.00, 0.00, 0.00, 0.00, 0.00, 0.00, 0.000, 0.000, 0.000, 14:04:20.744, 1551726260744
210, -2411.80, 0.00, 0.00, 0.00, 0.00, 0.00, 0.00, 0.00, 0.000, 0.000, 0.000, 14:04:20.751, 1551726260751
211, -2418.41, 0.00, 0.00, 0.00, 0.00, 0.00, 0.00, 0.00, 0.000, 0.000, 0.000, 14:04:20.751, 1551726260751
212, -2469.96, 0.00, 0.00, 0.00, 0.00, 0.00, 0.00, 0.00, 0.000, 0.000, 0.000, 14:04:20.759, 1551726260759
213, -2494.12, 0.00, 0.00, 0.00, 0.00, 0.00, 0.00, 0.00, 0.000, 0.000, 0.000, 14:04:20.759, 1551726260759
214, -2423.80, 0.00, 0.00, 0.00, 0.00, 0.00, 0.00, 0.00, 0.000, 0.000, 0.000, 14:04:20.768, 1551726260768
215, -2418.28, 0.00, 0.00, 0.00, 0.00, 0.00, 0.00, 0.00, 0.000, 0.000, 0.000, 14:04:20.768, 1551726260768
216, -2458.74, 0.00, 0.00, 0.00, 0.00, 0.00, 0.00, 0.00, 0.000, 0.000, 0.000, 14:04:20.774, 1551726260774
217, -2504.38, 0.00, 0.00, 0.00, 0.00, 0.00, 0.00, 0.00, -0.558, 0.724, 0.386, 14:04:20.774, 1551726260774
218, -2430.84, 0.00, 0.00, 0.00, 0.00, 0.00, 0.00, 0.00, 0.000, 0.000, 0.000, 14:04:20.781, 1551726260781
219, -2407.55, 0.00, 0.00, 0.00, 0.00, 0.00, 0.00, 0.00, 0.000, 0.000, 0.000, 14:04:20.782, 1551726260782
220, -2448.97, 0.00, 0.00, 0.00, 0.00, 0.00, 0.00, 0.00, 0.000, 0.000, 0.000, 14:04:20.788, 1551726260788
221, -2504.00, 0.00, 0.00, 0.00, 0.00, 0.00, 0.00, 0.00, 0.000, 0.000, 0.000, 14:04:20.789, 1551726260789
222, -2453.46, 0.00, 0.00, 0.00, 0.00, 0.00, 0.00, 0.00, 0.000, 0.000, 0.000, 14:04:20.796, 1551726260796
223, -2414.86, 0.00, 0.00, 0.00, 0.00, 0.00, 0.00, 0.00, 0.000, 0.000, 0.000, 14:04:20.804, 1551726260804
224, -2435.24, 0.00, 0.00, 0.00, 0.00, 0.00, 0.00, 0.00, 0.000, 0.000, 0.000, 14:04:20.804, 1551726260804
225, -2505.90, 0.00, 0.00, 0.00, 0.00, 0.00, 0.00, 0.00, 0.000, 0.000, 0.000, 14:04:20.811, 1551726260811
226, -2477.15, 0.00, 0.00, 0.00, 0.00, 0.00, 0.00, 0.00, 0.000, 0.000, 0.000, 14:04:20.811, 1551726260811
227, -2420.20, 0.00, 0.00, 0.00, 0.00, 0.00, 0.00, 0.00, -0.564, 0.728, 0.386, 14:04:20.821, 1551726260821
228, -2437.90, 0.00, 0.00, 0.00, 0.00, 0.00, 0.00, 0.00, 0.000, 0.000, 0.000, 14:04:20.821, 1551726260821
229, -2507.53, 0.00, 0.00, 0.00, 0.00, 0.00, 0.00, 0.00, 0.000, 0.000, 0.000, 14:04:20.827, 1551726260827
230, -2484.98, 0.00, 0.00, 0.00, 0.00, 0.00, 0.00, 0.00, 0.000, 0.000, 0.000, 14:04:20.827, 1551726260827
231, -2411.51, 0.00, 0.00, 0.00, 0.00, 0.00, 0.00, 0.00, 0.000, 0.000, 0.000, 14:04:20.834, 1551726260834
232, -2429.43, 0.00, 0.00, 0.00, 0.00, 0.00, 0.00, 0.00, 0.000, 0.000, 0.000, 14:04:20.834, 1551726260834
233, -2487.30, 0.00, 0.00, 0.00, 0.00, 0.00, 0.00, 0.00, 0.000, 0.000, 0.000, 14:04:20.842, 1551726260842
234, -2499.04, 0.00, 0.00, 0.00, 0.00, 0.00, 0.00, 0.00, 0.000, 0.000, 0.000, 14:04:20.842, 1551726260842
235, -2417.21, 0.00, 0.00, 0.00, 0.00, 0.00, 0.00, 0.00, 0.000, 0.000, 0.000, 14:04:20.850, 1551726260850
236, -2434.55, 0.00, 0.00, 0.00, 0.00, 0.00, 0.00, 0.00, 0.000, 0.000, 0.000, 14:04:20.850, 1551726260850
237, -2481.87, 0.00, 0.00, 0.00, 0.00, 0.00, 0.00, 0.00, -0.564, 0.722, 0.390, 14:04:20.856, 1551726260856
238, -2504.94, 0.00, 0.00, 0.00, 0.00, 0.00, 0.00, 0.00, 0.000, 0.000, 0.000, 14:04:20.863, 1551726260863
239, -2432.03, 0.00, 0.00, 0.00, 0.00, 0.00, 0.00, 0.00, 0.000, 0.000, 0.000, 14:04:20.864, 1551726260864
240, -2420.43, 0.00, 0.00, 0.00, 0.00, 0.00, 0.00, 0.00, 0.000, 0.000, 0.000, 14:04:20.871, 1551726260871
241, -2469.35, 0.00, 0.00, 0.00, 0.00, 0.00, 0.00, 0.00, 0.000, 0.000, 0.000, 14:04:20.872, 1551726260872
242, -2514.66, 0.00, 0.00, 0.00, 0.00, 0.00, 0.00, 0.00, 0.000, 0.000, 0.000, 14:04:20.880, 1551726260880
243, -2445.17, 0.00, 0.00, 0.00, 0.00, 0.00, 0.00, 0.00, 0.000, 0.000, 0.000, 14:04:20.880, 1551726260880
244, -2409.09, 0.00, 0.00, 0.00, 0.00, 0.00, 0.00, 0.00, 0.000, 0.000, 0.000, 14:04:20.886, 1551726260886
245, -2450.96, 0.00, 0.00, 0.00, 0.00, 0.00, 0.00, 0.00, 0.000, 0.000, 0.000, 14:04:20.886, 1551726260886
246, -2505.79, 0.00, 0.00, 0.00, 0.00, 0.00, 0.00, 0.00, 0.000, 0.000, 0.000, 14:04:20.894, 1551726260894
247, -2454.02, 0.00, 0.00, 0.00, 0.00, 0.00, 0.00, 0.00, -0.558, 0.728, 0.390, 14:04:20.894, 1551726260894
248, -2415.04, 0.00, 0.00, 0.00, 0.00, 0.00, 0.00, 0.00, 0.000, 0.000, 0.000, 14:04:20.902, 1551726260902
249, -2460.01, 0.00, 0.00, 0.00, 0.00, 0.00, 0.00, 0.00, 0.000, 0.000, 0.000, 14:04:20.902, 1551726260902
250, -2514.06, 0.00, 0.00, 0.00, 0.00, 0.00, 0.00, 0.00, 0.000, 0.000, 0.000, 14:04:20.909, 1551726260909
251, -2477.82, 0.00, 0.00, 0.00, 0.00, 0.00, 0.00, 0.00, 0.000, 0.000, 0.000, 14:04:20.909, 1551726260909
252, -2414.77, 0.00, 0.00, 0.00, 0.00, 0.00, 0.00, 0.00, 0.000, 0.000, 0.000, 14:04:20.916, 1551726260916
253, -2441.35, 0.00, 0.00, 0.00, 0.00, 0.00, 0.00, 0.00, 0.000, 0.000, 0.000, 14:04:20.924, 1551726260924
254, -2508.96, 0.00, 0.00, 0.00, 0.00, 0.00, 0.00, 0.00, 0.000, 0.000, 0.000, 14:04:20.924, 1551726260924
255, -2502.37, 0.00, 0.00, 0.00, 0.00, 0.00, 0.00, 0.00, 0.000, 0.000, 0.000, 14:04:20.931, 1551726260931
0, -2430.17, 0.00, 0.00, 0.00, 0.00, 0.00, 0.00, 0.00, -0.562, 0.724, 0.388, 14:04:20.932, 1551726260932
1, -2444.25, 0.00, 0.00, 0.00, 0.00, 0.00, 0.00, 0.00, 0.000, 0.000, 0.000, 14:04:20.939, 1551726260939
2, -2502.77, 0.00, 0.00, 0.00, 0.00, 0.00, 0.00, 0.00, 0.000, 0.000, 0.000, 14:04:20.939, 1551726260939
3, -2517.19, 0.00, 0.00, 0.00, 0.00, 0.00, 0.00, 0.00, 0.000, 0.000, 0.000, 14:04:20.946, 1551726260946
4, -2449.35, 0.00, 0.00, 0.00, 0.00, 0.00, 0.00, 0.00, 0.000, 0.000, 0.000, 14:04:20.946, 1551726260946
5, -2442.04, 0.00, 0.00, 0.00, 0.00, 0.00, 0.00, 0.00, 0.000, 0.000, 0.000, 14:04:20.954, 1551726260954
6, -2482.14, 0.00, 0.00, 0.00, 0.00, 0.00, 0.00, 0.00, 0.000, 0.000, 0.000, 14:04:20.955, 1551726260955
7, -2523.02, 0.00, 0.00, 0.00, 0.00, 0.00, 0.00, 0.00, 0.000, 0.000, 0.000, 14:04:20.962, 1551726260962
8, -2458.45, 0.00, 0.00, 0.00, 0.00, 0.00, 0.00, 0.00, 0.000, 0.000, 0.000, 14:04:20.962, 1551726260962
9, -2422.66, 0.00, 0.00, 0.00, 0.00, 0.00, 0.00, 0.00, 0.000, 0.000, 0.000, 14:04:20.969, 1551726260969
10, -2460.84, 0.00, 0.00, 0.00, 0.00, 0.00, 0.00, 0.00, -0.562, 0.724, 0.384, 14:04:20.970, 1551726260970
11, -2513.72, 0.00, 0.00, 0.00, 0.00, 0.00, 0.00, 0.00, 0.000, 0.000, 0.000, 14:04:20.976, 1551726260976
12, -2446.20, 0.00, 0.00, 0.00, 0.00, 0.00, 0.00, 0.00, 0.000, 0.000, 0.000, 14:04:20.984, 1551726260984
13, -2413.23, 0.00, 0.00, 0.00, 0.00, 0.00, 0.00, 0.00, 0.000, 0.000, 0.000, 14:04:20.984, 1551726260984
14, -2463.25, 0.00, 0.00, 0.00, 0.00, 0.00, 0.00, 0.00, 0.000, 0.000, 0.000, 14:04:20.991, 1551726260991
15, -2516.83, 0.00, 0.00, 0.00, 0.00, 0.00, 0.00, 0.00, 0.000, 0.000, 0.000, 14:04:20.991, 1551726260991
16, -2474.83, 0.00, 0.00, 0.00, 0.00, 0.00, 0.00, 0.00, 0.000, 0.000, 0.000, 14:04:20.998, 1551726260998
17, -2429.57, 0.00, 0.00, 0.00, 0.00, 0.00, 0.00, 0.00, 0.000, 0.000, 0.000, 14:04:20.999, 1551726260999
18, -2459.12, 0.00, 0.00, 0.00, 0.00, 0.00, 0.00, 0.00, 0.000, 0.000, 0.000, 14:04:21.007, 1551726261007
19, -2522.89, 0.00, 0.00, 0.00, 0.00, 0.00, 0.00, 0.00, 0.000, 0.000, 0.000, 14:04:21.007, 1551726261007
20, -2510.50, 0.00, 0.00, 0.00, 0.00, 0.00, 0.00, 0.00, -0.560, 0.726, 0.384, 14:04:21.014, 1551726261014
21, -2448.39, 0.00, 0.00, 0.00, 0.00, 0.00, 0.00, 0.00, 0.000, 0.000, 0.000, 14:04:21.015, 1551726261015
22, -2458.33, 0.00, 0.00, 0.00, 0.00, 0.00, 0.00, 0.00, 0.000, 0.000, 0.000, 14:04:21.021, 1551726261021
23, -2520.85, 0.00, 0.00, 0.00, 0.00, 0.00, 0.00, 0.00, 0.000, 0.000, 0.000, 14:04:21.022, 1551726261022
24, -2518.21, 0.00, 0.00, 0.00, 0.00, 0.00, 0.00, 0.00, 0.000, 0.000, 0.000, 14:04:21.029, 1551726261029
25, -2445.64, 0.00, 0.00, 0.00, 0.00, 0.00, 0.00, 0.00, 0.000, 0.000, 0.000, 14:04:21.029, 1551726261029
26, -2457.51, 0.00, 0.00, 0.00, 0.00, 0.00, 0.00, 0.00, 0.000, 0.000, 0.000, 14:04:21.036, 1551726261036
27, -2520.14, 0.00, 0.00, 0.00, 0.00, 0.00, 0.00, 0.00, 0.000, 0.000, 0.000, 14:04:21.037, 1551726261037
28, -2520.72, 0.00, 0.00, 0.00, 0.00, 0.00, 0.00, 0.00, 0.000, 0.000, 0.000, 14:04:21.044, 1551726261044
29, -2445.64, 0.00, 0.00, 0.00, 0.00, 0.00, 0.00, 0.00, 0.000, 0.000, 0.000, 14:04:21.051, 1551726261051
30, -2443.31, 0.00, 0.00, 0.00, 0.00, 0.00, 0.00, 0.00, -0.556, 0.728, 0.382, 14:04:21.051, 1551726261051
31, -2482.09, 0.00, 0.00, 0.00, 0.00, 0.00, 0.00, 0.00, 0.000, 0.000, 0.000, 14:04:21.059, 1551726261059
32, -2518.80, 0.00, 0.00, 0.00, 0.00, 0.00, 0.00, 0.00, 0.000, 0.000, 0.000, 14:04:21.059, 1551726261059
33, -2452.79, 0.00, 0.00, 0.00, 0.00, 0.00, 0.00, 0.00, 0.000, 0.000, 0.000, 14:04:21.067, 1551726261067
34, -2424.81, 0.00, 0.00, 0.00, 0.00, 0.00, 0.00, 0.00, 0.000, 0.000, 0.000, 14:04:21.067, 1551726261067
35, -2457.95, 0.00, 0.00, 0.00, 0.00, 0.00, 0.00, 0.00, 0.000, 0.000, 0.000, 14:04:21.074, 1551726261074
36, -2516.07, 0.00, 0.00, 0.00, 0.00, 0.00, 0.00, 0.00, 0.000, 0.000, 0.000, 14:04:21.075, 1551726261075
37, -2464.15, 0.00, 0.00, 0.00, 0.00, 0.00, 0.00, 0.00, 0.000, 0.000, 0.000, 14:04:21.081, 1551726261081
38, -2420.05, 0.00, 0.00, 0.00, 0.00, 0.00, 0.00, 0.00, 0.000, 0.000, 0.000, 14:04:21.082, 1551726261082
39, -2447.38, 0.00, 0.00, 0.00, 0.00, 0.00, 0.00, 0.00, 0.000, 0.000, 0.000, 14:04:21.089, 1551726261089
40, -2508.45, 0.00, 0.00, 0.00, 0.00, 0.00, 0.00, 0.00, -0.554, 0.718, 0.386, 14:04:21.090, 1551726261090
41, -2466.16, 0.00, 0.00, 0.00, 0.00, 0.00, 0.00, 0.00, 0.000, 0.000, 0.000, 14:04:21.097, 1551726261097
42, -2409.90, 0.00, 0.00, 0.00, 0.00, 0.00, 0.00, 0.00, 0.000, 0.000, 0.000, 14:04:21.098, 1551726261098
43, -2442.60, 0.00, 0.00, 0.00, 0.00, 0.00, 0.00, 0.00, 0.000, 0.000, 0.000, 14:04:21.104, 1551726261104
44, -2505.50, 0.00, 0.00, 0.00, 0.00, 0.00, 0.00, 0.00, 0.000, 0.000, 0.000, 14:04:21.111, 1551726261111
45, -2491.01, 0.00, 0.00, 0.00, 0.00, 0.00, 0.00, 0.00, 0.000, 0.000, 0.000, 14:04:21.111, 1551726261111
46, -2423.38, 0.00, 0.00, 0.00, 0.00, 0.00, 0.00, 0.00, 0.000, 0.000, 0.000, 14:04:21.119, 1551726261119
47, -2439.63, 0.00, 0.00, 0.00, 0.00, 0.00, 0.00, 0.00, 0.000, 0.000, 0.000, 14:04:21.119, 1551726261119
48, -2501.65, 0.00, 0.00, 0.00, 0.00, 0.00, 0.00, 0.00, 0.000, 0.000, 0.000, 14:04:21.127, 1551726261127
49, -2511.13, 0.00, 0.00, 0.00, 0.00, 0.00, 0.00, 0.00, 0.000, 0.000, 0.000, 14:04:21.127, 1551726261127
50, -2426.39, 0.00, 0.00, 0.00, 0.00, 0.00, 0.00, 0.00, -0.552, 0.720, 0.380, 14:04:21.134, 1551726261134
51, -2434.98, 0.00, 0.00, 0.00, 0.00, 0.00, 0.00, 0.00, 0.000, 0.000, 0.000, 14:04:21.134, 1551726261134
52, -2492.69, 0.00, 0.00, 0.00, 0.00, 0.00, 0.00, 0.00, 0.000, 0.000, 0.000, 14:04:21.142, 1551726261142
53, -2522.66, 0.00, 0.00, 0.00, 0.00, 0.00, 0.00, 0.00, 0.000, 0.000, 0.000, 14:04:21.142, 1551726261142
54, -2446.20, 0.00, 0.00, 0.00, 0.00, 0.00, 0.00, 0.00, 0.000, 0.000, 0.000, 14:04:21.150, 1551726261150
55, -2446.51, 0.00, 0.00, 0.00, 0.00, 0.00, 0.00, 0.00, 0.000, 0.000, 0.000, 14:04:21.150, 1551726261150
56, -2474.43, 0.00, 0.00, 0.00, 0.00, 0.00, 0.00, 0.00, 0.000, 0.000, 0.000, 14:04:21.157, 1551726261157
57, -2517.19, 0.00, 0.00, 0.00, 0.00, 0.00, 0.00, 0.00, 0.000, 0.000, 0.000, 14:04:21.157, 1551726261157
58, -2443.67, 0.00, 0.00, 0.00, 0.00, 0.00, 0.00, 0.00, 0.000, 0.000, 0.000, 14:04:21.164, 1551726261164
59, -2417.43, 0.00, 0.00, 0.00, 0.00, 0.00, 0.00, 0.00, -0.554, 0.726, 0.380, 14:04:21.172, 1551726261172
60, -2457.17, 0.00, 0.00, 0.00, 0.00, 0.00, 0.00, 0.00, 0.000, 0.000, 0.000, 14:04:21.172, 1551726261172
61, -2511.13, 0.00, 0.00, 0.00, 0.00, 0.00, 0.00, 0.00, 0.000, 0.000, 0.000, 14:04:21.179, 1551726261179
62, -2456.88, 0.00, 0.00, 0.00, 0.00, 0.00, 0.00, 0.00, 0.000, 0.000, 0.000, 14:04:21.179, 1551726261179
63, -2419.73, 0.00, 0.00, 0.00, 0.00, 0.00, 0.00, 0.00, 0.000, 0.000, 0.000, 14:04:21.187, 1551726261187
64, -2449.59, 0.00, 0.00, 0.00, 0.00, 0.00, 0.00, 0.00, 0.000, 0.000, 0.000, 14:04:21.187, 1551726261187
65, -2514.03, 0.00, 0.00, 0.00, 0.00, 0.00, 0.00, 0.00, 0.000, 0.000, 0.000, 14:04:21.194, 1551726261194
66, -2482.05, 0.00, 0.00, 0.00, 0.00, 0.00, 0.00, 0.00, 0.000, 0.000, 0.000, 14:04:21.194, 1551726261194
67, -2412.09, 0.00, 0.00, 0.00, 0.00, 0.00, 0.00, 0.00, 0.000, 0.000, 0.000, 14:04:21.201, 1551726261201
68, -2449.62, 0.00, 0.00, 0.00, 0.00, 0.00, 0.00, 0.00, 0.000, 0.000, 0.000, 14:04:21.201, 1551726261201
69, -2501.47, 0.00, 0.00, 0.00, 0.00, 0.00, 0.00, 0.00, -0.552, 0.724, 0.384, 14:04:21.209, 1551726261209
70, -2497.78, 0.00, 0.00, 0.00, 0.00, 0.00, 0.00, 0.00, 0.000, 0.000, 0.000, 14:04:21.209, 1551726261209
71, -2430.80, 0.00, 0.00, 0.00, 0.00, 0.00, 0.00, 0.00, 0.000, 0.000, 0.000, 14:04:21.217, 1551726261217
72, -2441.64, 0.00, 0.00, 0.00, 0.00, 0.00, 0.00, 0.00, 0.000, 0.000, 0.000, 14:04:21.217, 1551726261217
73, -2496.73, 0.00, 0.00, 0.00, 0.00, 0.00, 0.00, 0.00, 0.000, 0.000, 0.000, 14:04:21.223, 1551726261223
74, -2506.32, 0.00, 0.00, 0.00, 0.00, 0.00, 0.00, 0.00, 0.000, 0.000, 0.000, 14:04:21.231, 1551726261231
75, -2433.64, 0.00, 0.00, 0.00, 0.00, 0.00, 0.00, 0.00, 0.000, 0.000, 0.000, 14:04:21.231, 1551726261231
76, -2439.47, 0.00, 0.00, 0.00, 0.00, 0.00, 0.00, 0.00, 0.000, 0.000, 0.000, 14:04:21.239, 1551726261239
77, -2491.12, 0.00, 0.00, 0.00, 0.00, 0.00, 0.00, 0.00, 0.000, 0.000, 0.000, 14:04:21.239, 1551726261239
78, -2521.14, 0.00, 0.00, 0.00, 0.00, 0.00, 0.00, 0.00, 0.000, 0.000, 0.000, 14:04:21.247, 1551726261247
79, -2453.24, 0.00, 0.00, 0.00, 0.00, 0.00, 0.00, 0.00, -0.556, 0.724, 0.382, 14:04:21.247, 1551726261247
80, -2438.37, 0.00, 0.00, 0.00, 0.00, 0.00, 0.00, 0.00, 0.000, 0.000, 0.000, 14:04:21.253, 1551726261253
81, -2483.14, 0.00, 0.00, 0.00, 0.00, 0.00, 0.00, 0.00, 0.000, 0.000, 0.000, 14:04:21.254, 1551726261254
82, -2531.40, 0.00, 0.00, 0.00, 0.00, 0.00, 0.00, 0.00, 0.000, 0.000, 0.000, 14:04:21.262, 1551726261262
83, -2448.12, 0.00, 0.00, 0.00, 0.00, 0.00, 0.00, 0.00, 0.000, 0.000, 0.000, 14:04:21.262, 1551726261262
84, -2428.09, 0.00, 0.00, 0.00, 0.00, 0.00, 0.00, 0.00, 0.000, 0.000, 0.000, 14:04:21.269, 1551726261269
85, -2470.31, 0.00, 0.00, 0.00, 0.00, 0.00, 0.00, 0.00, 0.000, 0.000, 0.000, 14:04:21.270, 1551726261270
86, -2526.75, 0.00, 0.00, 0.00, 0.00, 0.00, 0.00, 0.00, 0.000, 0.000, 0.000, 14:04:21.277, 1551726261277
87, -2475.63, 0.00, 0.00, 0.00, 0.00, 0.00, 0.00, 0.00, 0.000, 0.000, 0.000, 14:04:21.277, 1551726261277
88, -2431.33, 0.00, 0.00, 0.00, 0.00, 0.00, 0.00, 0.00, 0.000, 0.000, 0.000, 14:04:21.283, 1551726261283
89, -2466.74, 0.00, 0.00, 0.00, 0.00, 0.00, 0.00, 0.00, -0.560, 0.736, 0.384, 14:04:21.283, 1551726261283
90, -2521.54, 0.00, 0.00, 0.00, 0.00, 0.00, 0.00, 0.00, 0.000, 0.000, 0.000, 14:04:21.291, 1551726261291
91, -2491.75, 0.00, 0.00, 0.00, 0.00, 0.00, 0.00, 0.00, 0.000, 0.000, 0.000, 14:04:21.300, 1551726261300
92, -2432.96, 0.00, 0.00, 0.00, 0.00, 0.00, 0.00, 0.00, 0.000, 0.000, 0.000, 14:04:21.301, 1551726261301
93, -2464.06, 0.00, 0.00, 0.00, 0.00, 0.00, 0.00, 0.00, 0.000, 0.000, 0.000, 14:04:21.306, 1551726261306
94, -2518.68, 0.00, 0.00, 0.00, 0.00, 0.00, 0.00, 0.00, 0.000, 0.000, 0.000, 14:04:21.306, 1551726261306
95, -2531.31, 0.00, 0.00, 0.00, 0.00, 0.00, 0.00, 0.00, 0.000, 0.000, 0.000, 14:04:21.314, 1551726261314
96, -2447.94, 0.00, 0.00, 0.00, 0.00, 0.00, 0.00, 0.00, 0.000, 0.000, 0.000, 14:04:21.314, 1551726261314
97, -2458.67, 0.00, 0.00, 0.00, 0.00, 0.00, 0.00, 0.00, 0.000, 0.000, 0.000, 14:04:21.322, 1551726261322
98, -2513.92, 0.00, 0.00, 0.00, 0.00, 0.00, 0.00, 0.00, 0.000, 0.000, 0.000, 14:04:21.322, 1551726261322
99, -2534.49, 0.00, 0.00, 0.00, 0.00, 0.00, 0.00, 0.00, -0.558, 0.732, 0.382, 14:04:21.329, 1551726261329
100, -2458.78, 0.00, 0.00, 0.00, 0.00, 0.00, 0.00, 0.00, 0.000, 0.000, 0.000, 14:04:21.329, 1551726261329
101, -2457.28, 0.00, 0.00, 0.00, 0.00, 0.00, 0.00, 0.00, 0.000, 0.000, 0.000, 14:04:21.337, 1551726261337
102, -2505.99, 0.00, 0.00, 0.00, 0.00, 0.00, 0.00, 0.00, 0.000, 0.000, 0.000, 14:04:21.337, 1551726261337
103, -2536.90, 0.00, 0.00, 0.00, 0.00, 0.00, 0.00, 0.00, 0.000, 0.000, 0.000, 14:04:21.344, 1551726261344
104, -2460.46, 0.00, 0.00, 0.00, 0.00, 0.00, 0.00, 0.00, 0.000, 0.000, 0.000, 14:04:21.345, 1551726261345
105, -2446.49, 0.00, 0.00, 0.00, 0.00, 0.00, 0.00, 0.00, 0.000, 0.000, 0.000, 14:04:21.352, 1551726261352
106, -2489.60, 0.00, 0.00, 0.00, 0.00, 0.00, 0.00, 0.00, 0.000, 0.000, 0.000, 14:04:21.358, 1551726261358
107, -2543.70, 0.00, 0.00, 0.00, 0.00, 0.00, 0.00, 0.00, 0.000, 0.000, 0.000, 14:04:21.359, 1551726261359
108, -2496.15, 0.00, 0.00, 0.00, 0.00, 0.00, 0.00, 0.00, 0.000, 0.000, 0.000, 14:04:21.366, 1551726261366
109, -2456.19, 0.00, 0.00, 0.00, 0.00, 0.00, 0.00, 0.00, -0.560, 0.730, 0.386, 14:04:21.366, 1551726261366
110, -2498.57, 0.00, 0.00, 0.00, 0.00, 0.00, 0.00, 0.00, 0.000, 0.000, 0.000, 14:04:21.374, 1551726261374
111, -2546.31, 0.00, 0.00, 0.00, 0.00, 0.00, 0.00, 0.00, 0.000, 0.000, 0.000, 14:04:21.374, 1551726261374
112, -2491.39, 0.00, 0.00, 0.00, 0.00, 0.00, 0.00, 0.00, 0.000, 0.000, 0.000, 14:04:21.382, 1551726261382
113, -2451.58, 0.00, 0.00, 0.00, 0.00, 0.00, 0.00, 0.00, 0.000, 0.000, 0.000, 14:04:21.382, 1551726261382
114, -2478.07, 0.00, 0.00, 0.00, 0.00, 0.00, 0.00, 0.00, 0.000, 0.000, 0.000, 14:04:21.389, 1551726261389
115, -2537.30, 0.00, 0.00, 0.00, 0.00, 0.00, 0.00, 0.00, 0.000, 0.000, 0.000, 14:04:21.389, 1551726261389
116, -2521.12, 0.00, 0.00, 0.00, 0.00, 0.00, 0.00, 0.00, 0.000, 0.000, 0.000, 14:04:21.397, 1551726261397
117, -2455.58, 0.00, 0.00, 0.00, 0.00, 0.00, 0.00, 0.00, 0.000, 0.000, 0.000, 14:04:21.397, 1551726261397
118, -2472.28, 0.00, 0.00, 0.00, 0.00, 0.00, 0.00, 0.00, -0.556, 0.734, 0.382, 14:04:21.405, 1551726261405
119, -2533.95, 0.00, 0.00, 0.00, 0.00, 0.00, 0.00, 0.00, 0.000, 0.000, 0.000, 14:04:21.405, 1551726261405
120, -2532.21, 0.00, 0.00, 0.00, 0.00, 0.00, 0.00, 0.00, 0.000, 0.000, 0.000, 14:04:21.412, 1551726261412
121, -2460.95, 0.00, 0.00, 0.00, 0.00, 0.00, 0.00, 0.00, 0.000, 0.000, 0.000, 14:04:21.419, 1551726261419
122, -2467.16, 0.00, 0.00, 0.00, 0.00, 0.00, 0.00, 0.00, 0.000, 0.000, 0.000, 14:04:21.419, 1551726261419
123, -2517.95, 0.00, 0.00, 0.00, 0.00, 0.00, 0.00, 0.00, 0.000, 0.000, 0.000, 14:04:21.427, 1551726261427
124, -2533.95, 0.00, 0.00, 0.00, 0.00, 0.00, 0.00, 0.00, 0.000, 0.000, 0.000, 14:04:21.427, 1551726261427
125, -2471.01, 0.00, 0.00, 0.00, 0.00, 0.00, 0.00, 0.00, 0.000, 0.000, 0.000, 14:04:21.436, 1551726261436
126, -2461.80, 0.00, 0.00, 0.00, 0.00, 0.00, 0.00, 0.00, 0.000, 0.000, 0.000, 14:04:21.436, 1551726261436
127, -2503.66, 0.00, 0.00, 0.00, 0.00, 0.00, 0.00, 0.00, 0.000, 0.000, 0.000, 14:04:21.442, 1551726261442
128, -2547.05, 0.00, 0.00, 0.00, 0.00, 0.00, 0.00, 0.00, -0.558, 0.730, 0.380, 14:04:21.442, 1551726261442
129, -2475.95, 0.00, 0.00, 0.00, 0.00, 0.00, 0.00, 0.00, 0.000, 0.000, 0.000, 14:04:21.449, 1551726261449
130, -2452.79, 0.00, 0.00, 0.00, 0.00, 0.00, 0.00, 0.00, 0.000, 0.000, 0.000, 14:04:21.449, 1551726261449
131, -2500.85, 0.00, 0.00, 0.00, 0.00, 0.00, 0.00, 0.00, 0.000, 0.000, 0.000, 14:04:21.457, 1551726261457
132, -2554.69, 0.00, 0.00, 0.00, 0.00, 0.00, 0.00, 0.00, 0.000, 0.000, 0.000, 14:04:21.457, 1551726261457
133, -2500.47, 0.00, 0.00, 0.00, 0.00, 0.00, 0.00, 0.00, 0.000, 0.000, 0.000, 14:04:21.464, 1551726261464
134, -2457.37, 0.00, 0.00, 0.00, 0.00, 0.00, 0.00, 0.00, 0.000, 0.000, 0.000, 14:04:21.464, 1551726261464
135, -2486.52, 0.00, 0.00, 0.00, 0.00, 0.00, 0.00, 0.00, 0.000, 0.000, 0.000, 14:04:21.471, 1551726261471
136, -2547.00, 0.00, 0.00, 0.00, 0.00, 0.00, 0.00, 0.00, 0.000, 0.000, 0.000, 14:04:21.479, 1551726261479
137, -2508.58, 0.00, 0.00, 0.00, 0.00, 0.00, 0.00, 0.00, 0.000, 0.000, 0.000, 14:04:21.479, 1551726261479
138, -2449.35, 0.00, 0.00, 0.00, 0.00, 0.00, 0.00, 0.00, -0.554, 0.728, 0.382, 14:04:21.487, 1551726261487
139, -2468.35, 0.00, 0.00, 0.00, 0.00, 0.00, 0.00, 0.00, 0.000, 0.000, 0.000, 14:04:21.487, 1551726261487
140, -2532.83, 0.00, 0.00, 0.00, 0.00, 0.00, 0.00, 0.00, 0.000, 0.000, 0.000, 14:04:21.494, 1551726261494
141, -2533.77, 0.00, 0.00, 0.00, 0.00, 0.00, 0.00, 0.00, 0.000, 0.000, 0.000, 14:04:21.494, 1551726261494
142, -2472.86, 0.00, 0.00, 0.00, 0.00, 0.00, 0.00, 0.00, 0.000, 0.000, 0.000, 14:04:21.501, 1551726261501
143, -2474.70, 0.00, 0.00, 0.00, 0.00, 0.00, 0.00, 0.00, 0.000, 0.000, 0.000, 14:04:21.501, 1551726261501
144, -2532.25, 0.00, 0.00, 0.00, 0.00, 0.00, 0.00, 0.00, 0.000, 0.000, 0.000, 14:04:21.510, 1551726261510
145, -2544.79, 0.00, 0.00, 0.00, 0.00, 0.00, 0.00, 0.00, 0.000, 0.000, 0.000, 14:04:21.511, 1551726261511
146, -2468.66, 0.00, 0.00, 0.00, 0.00, 0.00, 0.00, 0.00, 0.000, 0.000, 0.000, 14:04:21.517, 1551726261517
147, -2476.37, 0.00, 0.00, 0.00, 0.00, 0.00, 0.00, 0.00, 0.000, 0.000, 0.000, 14:04:21.517, 1551726261517
148, -2539.54, 0.00, 0.00, 0.00, 0.00, 0.00, 0.00, 0.00, -0.552, 0.728, 0.382, 14:04:21.524, 1551726261524
149, -2563.99, 0.00, 0.00, 0.00, 0.00, 0.00, 0.00, 0.00, 0.000, 0.000, 0.000, 14:04:21.524, 1551726261524
150, -2496.44, 0.00, 0.00, 0.00, 0.00, 0.00, 0.00, 0.00, 0.000, 0.000, 0.000, 14:04:21.531, 1551726261531
151, -2491.01, 0.00, 0.00, 0.00, 0.00, 0.00, 0.00, 0.00, 0.000, 0.000, 0.000, 14:04:21.532, 1551726261532
152, -2537.30, 0.00, 0.00, 0.00, 0.00, 0.00, 0.00, 0.00, 0.000, 0.000, 0.000, 14:04:21.539, 1551726261539
153, -2583.46, 0.00, 0.00, 0.00, 0.00, 0.00, 0.00, 0.00, 0.000, 0.000, 0.000, 14:04:21.547, 1551726261547
154, -2520.34, 0.00, 0.00, 0.00, 0.00, 0.00, 0.00, 0.00, 0.000, 0.000, 0.000, 14:04:21.547, 1551726261547
155, -2496.82, 0.00, 0.00, 0.00, 0.00, 0.00, 0.00, 0.00, 0.000, 0.000, 0.000, 14:04:21.554, 1551726261554
156, -2536.39, 0.00, 0.00, 0.00, 0.00, 0.00, 0.00, 0.00, 0.000, 0.000, 0.000, 14:04:21.554, 1551726261554
157, -2588.29, 0.00, 0.00, 0.00, 0.00, 0.00, 0.00, 0.00, 0.000, 0.000, 0.000, 14:04:21.562, 1551726261562
158, -2537.17, 0.00, 0.00, 0.00, 0.00, 0.00, 0.00, 0.00, -0.554, 0.728, 0.378, 14:04:21.562, 1551726261562
159, -2493.45, 0.00, 0.00, 0.00, 0.00, 0.00, 0.00, 0.00, 0.000, 0.000, 0.000, 14:04:21.569, 1551726261569
160, -2525.17, 0.00, 0.00, 0.00, 0.00, 0.00, 0.00, 0.00, 0.000, 0.000, 0.000, 14:04:21.570, 1551726261570
161, -2584.15, 0.00, 0.00, 0.00, 0.00, 0.00, 0.00, 0.00, 0.000, 0.000, 0.000, 14:04:21.576, 1551726261576
162, -2547.76, 0.00, 0.00, 0.00, 0.00, 0.00, 0.00, 0.00, 0.000, 0.000, 0.000, 14:04:21.576, 1551726261576
163, -2492.09, 0.00, 0.00, 0.00, 0.00, 0.00, 0.00, 0.00, 0.000, 0.000, 0.000, 14:04:21.584, 1551726261584
164, -2511.91, 0.00, 0.00, 0.00, 0.00, 0.00, 0.00, 0.00, 0.000, 0.000, 0.000, 14:04:21.584, 1551726261584
165, -2563.57, 0.00, 0.00, 0.00, 0.00, 0.00, 0.00, 0.00, 0.000, 0.000, 0.000, 14:04:21.593, 1551726261593
166, -2562.25, 0.00, 0.00, 0.00, 0.00, 0.00, 0.00, 0.00, 0.000, 0.000, 0.000, 14:04:21.593, 1551726261593
167, -2483.97, 0.00, 0.00, 0.00, 0.00, 0.00, 0.00, 0.00, 0.000, 0.000, 0.000, 14:04:21.599, 1551726261599
168, -2498.86, 0.00, 0.00, 0.00, 0.00, 0.00, 0.00, 0.00, -0.558, 0.730, 0.376, 14:04:21.606, 1551726261606
169, -2552.90, 0.00, 0.00, 0.00, 0.00, 0.00, 0.00, 0.00, 0.000, 0.000, 0.000, 14:04:21.606, 1551726261606
170, -2556.55, 0.00, 0.00, 0.00, 0.00, 0.00, 0.00, 0.00, 0.000, 0.000, 0.000, 14:04:21.614, 1551726261614
171, -2479.34, 0.00, 0.00, 0.00, 0.00, 0.00, 0.00, 0.00, 0.000, 0.000, 0.000, 14:04:21.615, 1551726261615
172, -2489.29, 0.00, 0.00, 0.00, 0.00, 0.00, 0.00, 0.00, 0.000, 0.000, 0.000, 14:04:21.622, 1551726261622
173, -2534.20, 0.00, 0.00, 0.00, 0.00, 0.00, 0.00, 0.00, 0.000, 0.000, 0.000, 14:04:21.622, 1551726261622
174, -2561.44, 0.00, 0.00, 0.00, 0.00, 0.00, 0.00, 0.00, 0.000, 0.000, 0.000, 14:04:21.629, 1551726261629
175, -2490.01, 0.00, 0.00, 0.00, 0.00, 0.00, 0.00, 0.00, 0.000, 0.000, 0.000, 14:04:21.630, 1551726261630
176, -2475.70, 0.00, 0.00, 0.00, 0.00, 0.00, 0.00, 0.00, 0.000, 0.000, 0.000, 14:04:21.636, 1551726261636
177, -2525.61, 0.00, 0.00, 0.00, 0.00, 0.00, 0.00, 0.00, 0.000, 0.000, 0.000, 14:04:21.637, 1551726261637
178, -2574.07, 0.00, 0.00, 0.00, 0.00, 0.00, 0.00, 0.00, -0.562, 0.732, 0.376, 14:04:21.644, 1551726261644
179, -2499.51, 0.00, 0.00, 0.00, 0.00, 0.00, 0.00, 0.00, 0.000, 0.000, 0.000, 14:04:21.645, 1551726261645
180, -2478.61, 0.00, 0.00, 0.00, 0.00, 0.00, 0.00, 0.00, 0.000, 0.000, 0.000, 14:04:21.652, 1551726261652
181, -2512.58, 0.00, 0.00, 0.00, 0.00, 0.00, 0.00, 0.00, 0.000, 0.000, 0.000, 14:04:21.653, 1551726261653
182, -2561.09, 0.00, 0.00, 0.00, 0.00, 0.00, 0.00, 0.00, 0.000, 0.000, 0.000, 14:04:21.659, 1551726261659
183, -2511.91, 0.00, 0.00, 0.00, 0.00, 0.00, 0.00, 0.00, 0.000, 0.000, 0.000, 14:04:21.666, 1551726261666
184, -2460.30, 0.00, 0.00, 0.00, 0.00, 0.00, 0.00, 0.00, 0.000, 0.000, 0.000, 14:04:21.666, 1551726261666
185, -2485.09, 0.00, 0.00, 0.00, 0.00, 0.00, 0.00, 0.00, 0.000, 0.000, 0.000, 14:04:21.674, 1551726261674
186, -2549.95, 0.00, 0.00, 0.00, 0.00, 0.00, 0.00, 0.00, 0.000, 0.000, 0.000, 14:04:21.674, 1551726261674
187, -2523.80, 0.00, 0.00, 0.00, 0.00, 0.00, 0.00, 0.00, -0.554, 0.728, 0.378, 14:04:21.682, 1551726261682
188, -2461.53, 0.00, 0.00, 0.00, 0.00, 0.00, 0.00, 0.00, 0.000, 0.000, 0.000, 14:04:21.682, 1551726261682
189, -2487.17, 0.00, 0.00, 0.00, 0.00, 0.00, 0.00, 0.00, 0.000, 0.000, 0.000, 14:04:21.689, 1551726261689
190, -2541.42, 0.00, 0.00, 0.00, 0.00, 0.00, 0.00, 0.00, 0.000, 0.000, 0.000, 14:04:21.689, 1551726261689
191, -2538.42, 0.00, 0.00, 0.00, 0.00, 0.00, 0.00, 0.00, 0.000, 0.000, 0.000, 14:04:21.697, 1551726261697
192, -2457.91, 0.00, 0.00, 0.00, 0.00, 0.00, 0.00, 0.00, 0.000, 0.000, 0.000, 14:04:21.697, 1551726261697
193, -2469.06, 0.00, 0.00, 0.00, 0.00, 0.00, 0.00, 0.00, 0.000, 0.000, 0.000, 14:04:21.705, 1551726261705
194, -2528.72, 0.00, 0.00, 0.00, 0.00, 0.00, 0.00, 0.00, 0.000, 0.000, 0.000, 14:04:21.705, 1551726261705
195, -2551.54, 0.00, 0.00, 0.00, 0.00, 0.00, 0.00, 0.00, 0.000, 0.000, 0.000, 14:04:21.711, 1551726261711
196, -2474.81, 0.00, 0.00, 0.00, 0.00, 0.00, 0.00, 0.00, 0.000, 0.000, 0.000, 14:04:21.711, 1551726261711
197, -2471.52, 0.00, 0.00, 0.00, 0.00, 0.00, 0.00, 0.00, -0.556, 0.726, 0.382, 14:04:21.718, 1551726261718
198, -2522.35, 0.00, 0.00, 0.00, 0.00, 0.00, 0.00, 0.00, 0.000, 0.000, 0.000, 14:04:21.726, 1551726261726
199, -2557.04, 0.00, 0.00, 0.00, 0.00, 0.00, 0.00, 0.00, 0.000, 0.000, 0.000, 14:04:21.727, 1551726261727
200, -2489.40, 0.00, 0.00, 0.00, 0.00, 0.00, 0.00, 0.00, 0.000, 0.000, 0.000, 14:04:21.735, 1551726261735
201, -2472.08, 0.00, 0.00, 0.00, 0.00, 0.00, 0.00, 0.00, 0.000, 0.000, 0.000, 14:04:21.735, 1551726261735
202, -2513.72, 0.00, 0.00, 0.00, 0.00, 0.00, 0.00, 0.00, 0.000, 0.000, 0.000, 14:04:21.741, 1551726261741
203, -2563.79, 0.00, 0.00, 0.00, 0.00, 0.00, 0.00, 0.00, 0.000, 0.000, 0.000, 14:04:21.741, 1551726261741
204, -2507.22, 0.00, 0.00, 0.00, 0.00, 0.00, 0.00, 0.00, 0.000, 0.000, 0.000, 14:04:21.749, 1551726261749
205, -2468.46, 0.00, 0.00, 0.00, 0.00, 0.00, 0.00, 0.00, 0.000, 0.000, 0.000, 14:04:21.749, 1551726261749
206, -2500.47, 0.00, 0.00, 0.00, 0.00, 0.00, 0.00, 0.00, 0.000, 0.000, 0.000, 14:04:21.757, 1551726261757
207, -2561.91, 0.00, 0.00, 0.00, 0.00, 0.00, 0.00, 0.00, -0.560, 0.730, 0.384, 14:04:21.757, 1551726261757
208, -2520.52, 0.00, 0.00, 0.00, 0.00, 0.00, 0.00, 0.00, 0.000, 0.000, 0.000, 14:04:21.764, 1551726261764
209, -2461.66, 0.00, 0.00, 0.00, 0.00, 0.00, 0.00, 0.00, 0.000, 0.000, 0.000, 14:04:21.764, 1551726261764
210, -2498.50, 0.00, 0.00, 0.00, 0.00, 0.00, 0.00, 0.00, 0.000, 0.000, 0.000, 14:04:21.772, 1551726261772
211, -2542.15, 0.00, 0.00, 0.00, 0.00, 0.00, 0.00, 0.00, 0.000, 0.000, 0.000, 14:04:21.772, 1551726261772
212, -2520.25, 0.00, 0.00, 0.00, 0.00, 0.00, 0.00, 0.00, 0.000, 0.000, 0.000, 14:04:21.778, 1551726261778
213, -2460.55, 0.00, 0.00, 0.00, 0.00, 0.00, 0.00, 0.00, 0.000, 0.000, 0.000, 14:04:21.779, 1551726261779
214, -2475.10, 0.00, 0.00, 0.00, 0.00, 0.00, 0.00, 0.00, 0.000, 0.000, 0.000, 14:04:21.787, 1551726261787
215, -2533.82, 0.00, 0.00, 0.00, 0.00, 0.00, 0.00, 0.00, 0.000, 0.000, 0.000, 14:04:21.794, 1551726261794
216, -2539.02, 0.00, 0.00, 0.00, 0.00, 0.00, 0.00, 0.00, 0.000, 0.000, 0.000, 14:04:21.794, 1551726261794
217, -2467.12, 0.00, 0.00, 0.00, 0.00, 0.00, 0.00, 0.00, -0.554, 0.726, 0.386, 14:04:21.803, 1551726261803
218, -2473.49, 0.00, 0.00, 0.00, 0.00, 0.00, 0.00, 0.00, 0.000, 0.000, 0.000, 14:04:21.803, 1551726261803
219, -2529.52, 0.00, 0.00, 0.00, 0.00, 0.00, 0.00, 0.00, 0.000, 0.000, 0.000, 14:04:21.809, 1551726261809
220, -2562.67, 0.00, 0.00, 0.00, 0.00, 0.00, 0.00, 0.00, 0.000, 0.000, 0.000, 14:04:21.809, 1551726261809
221, -2491.33, 0.00, 0.00, 0.00, 0.00, 0.00, 0.00, 0.00, 0.000, 0.000, 0.000, 14:04:21.817, 1551726261817
222, -2489.69, 0.00, 0.00, 0.00, 0.00, 0.00, 0.00, 0.00, 0.000, 0.000, 0.000, 14:04:21.817, 1551726261817
223, -2535.47, 0.00, 0.00, 0.00, 0.00, 0.00, 0.00, 0.00, 0.000, 0.000, 0.000, 14:04:21.824, 1551726261824
224, -2558.07, 0.00, 0.00, 0.00, 0.00, 0.00, 0.00, 0.00, 0.000, 0.000, 0.000, 14:04:21.824, 1551726261824
225, -2484.69, 0.00, 0.00, 0.00, 0.00, 0.00, 0.00, 0.00, 0.000, 0.000, 0.000, 14:04:21.833, 1551726261833
226, -2468.88, 0.00, 0.00, 0.00, 0.00, 0.00, 0.00, 0.00, 0.000, 0.000, 0.000, 14:04:21.833, 1551726261833
227, -2494.10, 0.00, 0.00, 0.00, 0.00, 0.00, 0.00, 0.00, -0.548, 0.728, 0.386, 14:04:21.840, 1551726261840
228, -2547.56, 0.00, 0.00, 0.00, 0.00, 0.00, 0.00, 0.00, 0.000, 0.000, 0.000, 14:04:21.840, 1551726261840
229, -2492.87, 0.00, 0.00, 0.00, 0.00, 0.00, 0.00, 0.00, 0.000, 0.000, 0.000, 14:04:21.846, 1551726261846
230, -2441.01, 0.00, 0.00, 0.00, 0.00, 0.00, 0.00, 0.00, 0.000, 0.000, 0.000, 14:04:21.854, 1551726261854
231, -2470.74, 0.00, 0.00, 0.00, 0.00, 0.00, 0.00, 0.00, 0.000, 0.000, 0.000, 14:04:21.854, 1551726261854
232, -2530.35, 0.00, 0.00, 0.00, 0.00, 0.00, 0.00, 0.00, 0.000, 0.000, 0.000, 14:04:21.862, 1551726261862
233, -2496.89, 0.00, 0.00, 0.00, 0.00, 0.00, 0.00, 0.00, 0.000, 0.000, 0.000, 14:04:21.862, 1551726261862
234, -2432.23, 0.00, 0.00, 0.00, 0.00, 0.00, 0.00, 0.00, 0.000, 0.000, 0.000, 14:04:21.870, 1551726261870
235, -2459.50, 0.00, 0.00, 0.00, 0.00, 0.00, 0.00, 0.00, 0.000, 0.000, 0.000, 14:04:21.870, 1551726261870
236, -2521.59, 0.00, 0.00, 0.00, 0.00, 0.00, 0.00, 0.00, 0.000, 0.000, 0.000, 14:04:21.876, 1551726261876
237, -2510.73, 0.00, 0.00, 0.00, 0.00, 0.00, 0.00, 0.00, -0.554, 0.722, 0.390, 14:04:21.877, 1551726261877
238, -2444.52, 0.00, 0.00, 0.00, 0.00, 0.00, 0.00, 0.00, 0.000, 0.000, 0.000, 14:04:21.884, 1551726261884
239, -2456.59, 0.00, 0.00, 0.00, 0.00, 0.00, 0.00, 0.00, 0.000, 0.000, 0.000, 14:04:21.884, 1551726261884
240, -2515.78, 0.00, 0.00, 0.00, 0.00, 0.00, 0.00, 0.00, 0.000, 0.000, 0.000, 14:04:21.892, 1551726261892
241, -2526.89, 0.00, 0.00, 0.00, 0.00, 0.00, 0.00, 0.00, 0.000, 0.000, 0.000, 14:04:21.892, 1551726261892
242, -2456.14, 0.00, 0.00, 0.00, 0.00, 0.00, 0.00, 0.00, 0.000, 0.000, 0.000, 14:04:21.899, 1551726261899
243, -2467.65, 0.00, 0.00, 0.00, 0.00, 0.00, 0.00, 0.00, 0.000, 0.000, 0.000, 14:04:21.899, 1551726261899
244, -2512.78, 0.00, 0.00, 0.00, 0.00, 0.00, 0.00, 0.00, 0.000, 0.000, 0.000, 14:04:21.906, 1551726261906
245, -2543.87, 0.00, 0.00, 0.00, 0.00, 0.00, 0.00, 0.00, 0.000, 0.000, 0.000, 14:04:21.914, 1551726261914
246, -2466.54, 0.00, 0.00, 0.00, 0.00, 0.00, 0.00, 0.00, -0.558, 0.724, 0.390, 14:04:21.914, 1551726261914
247, -2456.39, 0.00, 0.00, 0.00, 0.00, 0.00, 0.00, 0.00, 0.000, 0.000, 0.000, 14:04:21.922, 1551726261922
248, -2502.99, 0.00, 0.00, 0.00, 0.00, 0.00, 0.00, 0.00, 0.000, 0.000, 0.000, 14:04:21.922, 1551726261922
249, -2549.26, 0.00, 0.00, 0.00, 0.00, 0.00, 0.00, 0.00, 0.000, 0.000, 0.000, 14:04:21.929, 1551726261929
250, -2484.60, 0.00, 0.00, 0.00, 0.00, 0.00, 0.00, 0.00, 0.000, 0.000, 0.000, 14:04:21.930, 1551726261930
251, -2459.09, 0.00, 0.00, 0.00, 0.00, 0.00, 0.00, 0.00, 0.000, 0.000, 0.000, 14:04:21.936, 1551726261936
252, -2498.05, 0.00, 0.00, 0.00, 0.00, 0.00, 0.00, 0.00, 0.000, 0.000, 0.000, 14:04:21.937, 1551726261937
253, -2551.83, 0.00, 0.00, 0.00, 0.00, 0.00, 0.00, 0.00, 0.000, 0.000, 0.000, 14:04:21.945, 1551726261945
254, -2496.89, 0.00, 0.00, 0.00, 0.00, 0.00, 0.00, 0.00, 0.000, 0.000, 0.000, 14:04:21.945, 1551726261945
255, -2457.13, 0.00, 0.00, 0.00, 0.00, 0.00, 0.00, 0.00, 0.000, 0.000, 0.000, 14:04:21.952, 1551726261952
0, -2487.46, 0.00, 0.00, 0.00, 0.00, 0.00, 0.00, 0.00, -0.554, 0.728, 0.384, 14:04:21.952, 1551726261952
1, -2547.14, 0.00, 0.00, 0.00, 0.00, 0.00, 0.00, 0.00, 0.000, 0.000, 0.000, 14:04:21.959, 1551726261959
2, -2518.42, 0.00, 0.00, 0.00, 0.00, 0.00, 0.00, 0.00, 0.000, 0.000, 0.000, 14:04:21.960, 1551726261960
3, -2466.65, 0.00, 0.00, 0.00, 0.00, 0.00, 0.00, 0.00, 0.000, 0.000, 0.000, 14:04:21.967, 1551726261967
4, -2489.58, 0.00, 0.00, 0.00, 0.00, 0.00, 0.00, 0.00, 0.000, 0.000, 0.000, 14:04:21.974, 1551726261974
5, -2554.60, 0.00, 0.00, 0.00, 0.00, 0.00, 0.00, 0.00, 0.000, 0.000, 0.000, 14:04:21.974, 1551726261974
6, -2549.31, 0.00, 0.00, 0.00, 0.00, 0.00, 0.00, 0.00, 0.000, 0.000, 0.000, 14:04:21.981, 1551726261981
7, -2470.90, 0.00, 0.00, 0.00, 0.00, 0.00, 0.00, 0.00, 0.000, 0.000, 0.000, 14:04:21.982, 1551726261982
8, -2482.68, 0.00, 0.00, 0.00, 0.00, 0.00, 0.00, 0.00, 0.000, 0.000, 0.000, 14:04:21.989, 1551726261989
9, -2541.80, 0.00, 0.00, 0.00, 0.00, 0.00, 0.00, 0.00, 0.000, 0.000, 0.000, 14:04:21.989, 1551726261989
10, -2556.41, 0.00, 0.00, 0.00, 0.00, 0.00, 0.00, 0.00, -0.560, 0.728, 0.386, 14:04:21.997, 1551726261997
11, -2483.08, 0.00, 0.00, 0.00, 0.00, 0.00, 0.00, 0.00, 0.000, 0.000, 0.000, 14:04:21.997, 1551726261997
12, -2485.51, 0.00, 0.00, 0.00, 0.00, 0.00, 0.00, 0.00, 0.000, 0.000, 0.000, 14:04:22.005, 1551726262005
13, -2535.51, 0.00, 0.00, 0.00, 0.00, 0.00, 0.00, 0.00, 0.000, 0.000, 0.000, 14:04:22.005, 1551726262005
14, -2573.20, 0.00, 0.00, 0.00, 0.00, 0.00, 0.00, 0.00, 0.000, 0.000, 0.000, 14:04:22.011, 1551726262011
15, -2499.28, 0.00, 0.00, 0.00, 0.00, 0.00, 0.00, 0.00, 0.000, 0.000, 0.000, 14:04:22.011, 1551726262011
16, -2476.48, 0.00, 0.00, 0.00, 0.00, 0.00, 0.00, 0.00, 0.000, 0.000, 0.000, 14:04:22.019, 1551726262019
17, -2519.65, 0.00, 0.00, 0.00, 0.00, 0.00, 0.00, 0.00, 0.000, 0.000, 0.000, 14:04:22.019, 1551726262019
18, -2565.40, 0.00, 0.00, 0.00, 0.00, 0.00, 0.00, 0.00, 0.000, 0.000, 0.000, 14:04:22.027, 1551726262027
19, -2504.54, 0.00, 0.00, 0.00, 0.00, 0.00, 0.00, 0.00, 0.000, 0.000, 0.000, 14:04:22.027, 1551726262027
20, -2472.53, 0.00, 0.00, 0.00, 0.00, 0.00, 0.00, 0.00, -0.558, 0.730, 0.382, 14:04:22.034, 1551726262034
21, -2505.61, 0.00, 0.00, 0.00, 0.00, 0.00, 0.00, 0.00, 0.000, 0.000, 0.000, 14:04:22.041, 1551726262041
22, -2562.99, 0.00, 0.00, 0.00, 0.00, 0.00, 0.00, 0.00, 0.000, 0.000, 0.000, 14:04:22.041, 1551726262041
23, -2513.03, 0.00, 0.00, 0.00, 0.00, 0.00, 0.00, 0.00, 0.000, 0.000, 0.000, 14:04:22.049, 1551726262049
24, -2460.86, 0.00, 0.00, 0.00, 0.00, 0.00, 0.00, 0.00, 0.000, 0.000, 0.000, 14:04:22.049, 1551726262049
25, -2486.65, 0.00, 0.00, 0.00, 0.00, 0.00, 0.00, 0.00, 0.000, 0.000, 0.000, 14:04:22.057, 1551726262057
26, -2545.51, 0.00, 0.00, 0.00, 0.00, 0.00, 0.00, 0.00, 0.000, 0.000, 0.000, 14:04:22.057, 1551726262057
27, -2528.30, 0.00, 0.00, 0.00, 0.00, 0.00, 0.00, 0.00, 0.000, 0.000, 0.000, 14:04:22.064, 1551726262064
28, -2479.08, 0.00, 0.00, 0.00, 0.00, 0.00, 0.00, 0.00, 0.000, 0.000, 0.000, 14:04:22.064, 1551726262064
29, -2485.36, 0.00, 0.00, 0.00, 0.00, 0.00, 0.00, 0.00, 0.000, 0.000, 0.000, 14:04:22.072, 1551726262072
30, -2536.19, 0.00, 0.00, 0.00, 0.00, 0.00, 0.00, 0.00, -0.552, 0.732, 0.376, 14:04:22.072, 1551726262072
31, -2541.71, 0.00, 0.00, 0.00, 0.00, 0.00, 0.00, 0.00, 0.000, 0.000, 0.000, 14:04:22.080, 1551726262080
32, -2467.92, 0.00, 0.00, 0.00, 0.00, 0.00, 0.00, 0.00, 0.000, 0.000, 0.000, 14:04:22.080, 1551726262080
33, -2466.94, 0.00, 0.00, 0.00, 0.00, 0.00, 0.00, 0.00, 0.000, 0.000, 0.000, 14:04:22.086, 1551726262086
34, -2520.92, 0.00, 0.00, 0.00, 0.00, 0.00, 0.00, 0.00, 0.000, 0.000, 0.000, 14:04:22.087, 1551726262087
35, -2544.34, 0.00, 0.00, 0.00, 0.00, 0.00, 0.00, 0.00, 0.000, 0.000, 0.000, 14:04:22.093, 1551726262093
36, -2470.14, 0.00, 0.00, 0.00, 0.00, 0.00, 0.00, 0.00, 0.000, 0.000, 0.000, 14:04:22.102, 1551726262102
37, -2467.99, 0.00, 0.00, 0.00, 0.00, 0.00, 0.00, 0.00, 0.000, 0.000, 0.000, 14:04:22.102, 1551726262102
38, -2514.06, 0.00, 0.00, 0.00, 0.00, 0.00, 0.00, 0.00, 0.000, 0.000, 0.000, 14:04:22.109, 1551726262109
39, -2549.26, 0.00, 0.00, 0.00, 0.00, 0.00, 0.00, 0.00, 0.000, 0.000, 0.000, 14:04:22.109, 1551726262109
40, -2483.17, 0.00, 0.00, 0.00, 0.00, 0.00, 0.00, 0.00, -0.554, 0.728, 0.378, 14:04:22.116, 1551726262116
41, -2462.02, 0.00, 0.00, 0.00, 0.00, 0.00, 0.00, 0.00, 0.000, 0.000, 0.000, 14:04:22.117, 1551726262117
42, -2495.89, 0.00, 0.00, 0.00, 0.00, 0.00, 0.00, 0.00, 0.000, 0.000, 0.000, 14:04:22.124, 1551726262124
43, -2552.23, 0.00, 0.00, 0.00, 0.00, 0.00, 0.00, 0.00, 0.000, 0.000, 0.000, 14:04:22.124, 1551726262124
44, -2487.91, 0.00, 0.00, 0.00, 0.00, 0.00, 0.00, 0.00, 0.000, 0.000, 0.000, 14:04:22.132, 1551726262132
45, -2449.28, 0.00, 0.00, 0.00, 0.00, 0.00, 0.00, 0.00, 0.000, 0.000, 0.000, 14:04:22.133, 1551726262133
46, -2483.79, 0.00, 0.00, 0.00, 0.00, 0.00, 0.00, 0.00, 0.000, 0.000, 0.000, 14:04:22.140, 1551726262140
47, -2544.72, 0.00, 0.00, 0.00, 0.00, 0.00, 0.00, 0.00, 0.000, 0.000, 0.000, 14:04:22.140, 1551726262140
48, -2504.67, 0.00, 0.00, 0.00, 0.00, 0.00, 0.00, 0.00, 0.000, 0.000, 0.000, 14:04:22.146, 1551726262146
49, -2450.80, 0.00, 0.00, 0.00, 0.00, 0.00, 0.00, 0.00, -0.550, 0.724, 0.380, 14:04:22.147, 1551726262147
50, -2476.86, 0.00, 0.00, 0.00, 0.00, 0.00, 0.00, 0.00, 0.000, 0.000, 0.000, 14:04:22.153, 1551726262153
51, -2539.85, 0.00, 0.00, 0.00, 0.00, 0.00, 0.00, 0.00, 0.000, 0.000, 0.000, 14:04:22.162, 1551726262162
52, -2518.73, 0.00, 0.00, 0.00, 0.00, 0.00, 0.00, 0.00, 0.000, 0.000, 0.000, 14:04:22.162, 1551726262162
53, -2458.92, 0.00, 0.00, 0.00, 0.00, 0.00, 0.00, 0.00, 0.000, 0.000, 0.000, 14:04:22.170, 1551726262170
54, -2488.53, 0.00, 0.00, 0.00, 0.00, 0.00, 0.00, 0.00, 0.000, 0.000, 0.000, 14:04:22.171, 1551726262171
55, -2533.88, 0.00, 0.00, 0.00, 0.00, 0.00, 0.00, 0.00, 0.000, 0.000, 0.000, 14:04:22.176, 1551726262176
56, -2530.82, 0.00, 0.00, 0.00, 0.00, 0.00, 0.00, 0.00, 0.000, 0.000, 0.000, 14:04:22.176, 1551726262176
57, -2462.80, 0.00, 0.00, 0.00, 0.00, 0.00, 0.00, 0.00, 0.000, 0.000, 0.000, 14:04:22.184, 1551726262184
58, -2468.35, 0.00, 0.00, 0.00, 0.00, 0.00, 0.00, 0.00, 0.000, 0.000, 0.000, 14:04:22.185, 1551726262185
59, -2520.07, 0.00, 0.00, 0.00, 0.00, 0.00, 0.00, 0.00, -0.548, 0.726, 0.380, 14:04:22.192, 1551726262192
60, -2543.90, 0.00, 0.00, 0.00, 0.00, 0.00, 0.00, 0.00, 0.000, 0.000, 0.000, 14:04:22.192, 1551726262192
61, -2471.43, 0.00, 0.00, 0.00, 0.00, 0.00, 0.00, 0.00, 0.000, 0.000, 0.000, 14:04:22.200, 1551726262200
62, -2464.97, 0.00, 0.00, 0.00, 0.00, 0.00, 0.00, 0.00, 0.000, 0.000, 0.000, 14:04:22.200, 1551726262200
63, -2505.92, 0.00, 0.00, 0.00, 0.00, 0.00, 0.00, 0.00, 0.000, 0.000, 0.000, 14:04:22.207, 1551726262207
64, -2545.13, 0.00, 0.00, 0.00, 0.00, 0.00, 0.00, 0.00, 0.000, 0.000, 0.000, 14:04:22.207, 1551726262207
65, -2469.69, 0.00, 0.00, 0.00, 0.00, 0.00, 0.00, 0.00, 0.000, 0.000, 0.000, 14:04:22.214, 1551726262214
66, -2448.86, 0.00, 0.00, 0.00, 0.00, 0.00, 0.00, 0.00, 0.000, 0.000, 0.000, 14:04:22.222, 1551726262222
67, -2492.91, 0.00, 0.00, 0.00, 0.00, 0.00, 0.00, 0.00, 0.000, 0.000, 0.000, 14:04:22.222, 1551726262222
68, -2541.33, 0.00, 0.00, 0.00, 0.00, 0.00, 0.00, 0.00, 0.000, 0.000, 0.000, 14:04:22.229, 1551726262229
69, -2485.58, 0.00, 0.00, 0.00, 0.00, 0.00, 0.00, 0.00, -0.550, 0.726, 0.384, 14:04:22.229, 1551726262229
70, -2441.12, 0.00, 0.00, 0.00, 0.00, 0.00, 0.00, 0.00, 0.000, 0.000, 0.000, 14:04:22.237, 1551726262237
71, -2476.82, 0.00, 0.00, 0.00, 0.00, 0.00, 0.00, 0.00, 0.000, 0.000, 0.000, 14:04:22.237, 1551726262237
72, -2540.57, 0.00, 0.00, 0.00, 0.00, 0.00, 0.00, 0.00, 0.000, 0.000, 0.000, 14:04:22.244, 1551726262244
73, -2503.48, 0.00, 0.00, 0.00, 0.00, 0.00, 0.00, 0.00, 0.000, 0.000, 0.000, 14:04:22.245, 1551726262245
74, -2449.95, 0.00, 0.00, 0.00, 0.00, 0.00, 0.00, 0.00, 0.000, 0.000, 0.000, 14:04:22.252, 1551726262252
75, -2481.02, 0.00, 0.00, 0.00, 0.00, 0.00, 0.00, 0.00, 0.000, 0.000, 0.000, 14:04:22.252, 1551726262252
76, -2532.07, 0.00, 0.00, 0.00, 0.00, 0.00, 0.00, 0.00, 0.000, 0.000, 0.000, 14:04:22.259, 1551726262259
77, -2521.54, 0.00, 0.00, 0.00, 0.00, 0.00, 0.00, 0.00, 0.000, 0.000, 0.000, 14:04:22.259, 1551726262259
78, -2458.58, 0.00, 0.00, 0.00, 0.00, 0.00, 0.00, 0.00, 0.000, 0.000, 0.000, 14:04:22.267, 1551726262267
79, -2475.34, 0.00, 0.00, 0.00, 0.00, 0.00, 0.00, 0.00, -0.554, 0.732, 0.378, 14:04:22.267, 1551726262267
80, -2522.28, 0.00, 0.00, 0.00, 0.00, 0.00, 0.00, 0.00, 0.000, 0.000, 0.000, 14:04:22.274, 1551726262274
81, -2533.21, 0.00, 0.00, 0.00, 0.00, 0.00, 0.00, 0.00, 0.000, 0.000, 0.000, 14:04:22.275, 1551726262275
82, -2455.70, 0.00, 0.00, 0.00, 0.00, 0.00, 0.00, 0.00, 0.000, 0.000, 0.000, 14:04:22.281, 1551726262281
83, -2459.23, 0.00, 0.00, 0.00, 0.00, 0.00, 0.00, 0.00, 0.000, 0.000, 0.000, 14:04:22.289, 1551726262289
84, -2518.62, 0.00, 0.00, 0.00, 0.00, 0.00, 0.00, 0.00, 0.000, 0.000, 0.000, 14:04:22.290, 1551726262290
85, -2542.42, 0.00, 0.00, 0.00, 0.00, 0.00, 0.00, 0.00, 0.000, 0.000, 0.000, 14:04:22.297, 1551726262297
86, -2465.11, 0.00, 0.00, 0.00, 0.00, 0.00, 0.00, 0.00, 0.000, 0.000, 0.000, 14:04:22.297, 1551726262297
87, -2448.01, 0.00, 0.00, 0.00, 0.00, 0.00, 0.00, 0.00, 0.000, 0.000, 0.000, 14:04:22.305, 1551726262305
88, -2487.10, 0.00, 0.00, 0.00, 0.00, 0.00, 0.00, 0.00, 0.000, 0.000, 0.000, 14:04:22.305, 1551726262305
89, -2528.85, 0.00, 0.00, 0.00, 0.00, 0.00, 0.00, 0.00, -0.560, 0.740, 0.380, 14:04:22.311, 1551726262311
90, -2477.27, 0.00, 0.00, 0.00, 0.00, 0.00, 0.00, 0.00, 0.000, 0.000, 0.000, 14:04:22.311, 1551726262311
91, -2441.84, 0.00, 0.00, 0.00, 0.00, 0.00, 0.00, 0.00, 0.000, 0.000, 0.000, 14:04:22.320, 1551726262320
92, -2478.74, 0.00, 0.00, 0.00, 0.00, 0.00, 0.00, 0.00, 0.000, 0.000, 0.000, 14:04:22.320, 1551726262320
93, -2537.82, 0.00, 0.00, 0.00, 0.00, 0.00, 0.00, 0.00, 0.000, 0.000, 0.000, 14:04:22.327, 1551726262327
94, -2491.03, 0.00, 0.00, 0.00, 0.00, 0.00, 0.00, 0.00, 0.000, 0.000, 0.000, 14:04:22.327, 1551726262327
95, -2440.52, 0.00, 0.00, 0.00, 0.00, 0.00, 0.00, 0.00, 0.000, 0.000, 0.000, 14:04:22.334, 1551726262334
96, -2468.15, 0.00, 0.00, 0.00, 0.00, 0.00, 0.00, 0.00, 0.000, 0.000, 0.000, 14:04:22.334, 1551726262334
97, -2531.96, 0.00, 0.00, 0.00, 0.00, 0.00, 0.00, 0.00, 0.000, 0.000, 0.000, 14:04:22.341, 1551726262341
98, -2506.17, 0.00, 0.00, 0.00, 0.00, 0.00, 0.00, 0.00, 0.000, 0.000, 0.000, 14:04:22.349, 1551726262349
99, -2447.61, 0.00, 0.00, 0.00, 0.00, 0.00, 0.00, 0.00, -0.556, 0.732, 0.388, 14:04:22.349, 1551726262349
100, -2468.59, 0.00, 0.00, 0.00, 0.00, 0.00, 0.00, 0.00, 0.000, 0.000, 0.000, 14:04:22.357, 1551726262357
101, -2528.70, 0.00, 0.00, 0.00, 0.00, 0.00, 0.00, 0.00, 0.000, 0.000, 0.000, 14:04:22.358, 1551726262358
102, -2519.91, 0.00, 0.00, 0.00, 0.00, 0.00, 0.00, 0.00, 0.000, 0.000, 0.000, 14:04:22.364, 1551726262364
103, -2447.20, 0.00, 0.00, 0.00, 0.00, 0.00, 0.00, 0.00, 0.000, 0.000, 0.000, 14:04:22.364, 1551726262364
104, -2452.25, 0.00, 0.00, 0.00, 0.00, 0.00, 0.00, 0.00, 0.000, 0.000, 0.000, 14:04:22.372, 1551726262372
105, -2510.61, 0.00, 0.00, 0.00, 0.00, 0.00, 0.00, 0.00, 0.000, 0.000, 0.000, 14:04:22.373, 1551726262373
106, -2536.23, 0.00, 0.00, 0.00, 0.00, 0.00, 0.00, 0.00, 0.000, 0.000, 0.000, 14:04:22.380, 1551726262380
107, -2466.60, 0.00, 0.00, 0.00, 0.00, 0.00, 0.00, 0.00, 0.000, 0.000, 0.000, 14:04:22.380, 1551726262380
108, -2441.84, 0.00, 0.00, 0.00, 0.00, 0.00, 0.00, 0.00, 0.000, 0.000, 0.000, 14:04:22.387, 1551726262387
109, -2497.05, 0.00, 0.00, 0.00, 0.00, 0.00, 0.00, 0.00, -0.556, 0.730, 0.388, 14:04:22.387, 1551726262387
110, -2533.48, 0.00, 0.00, 0.00, 0.00, 0.00, 0.00, 0.00, 0.000, 0.000, 0.000, 14:04:22.394, 1551726262394
111, -2462.42, 0.00, 0.00, 0.00, 0.00, 0.00, 0.00, 0.00, 0.000, 0.000, 0.000, 14:04:22.394, 1551726262394
112, -2442.42, 0.00, 0.00, 0.00, 0.00, 0.00, 0.00, 0.00, 0.000, 0.000, 0.000, 14:04:22.401, 1551726262401
113, -2480.93, 0.00, 0.00, 0.00, 0.00, 0.00, 0.00, 0.00, 0.000, 0.000, 0.000, 14:04:22.410, 1551726262410
114, -2535.60, 0.00, 0.00, 0.00, 0.00, 0.00, 0.00, 0.00, 0.000, 0.000, 0.000, 14:04:22.410, 1551726262410
115, -2488.24, 0.00, 0.00, 0.00, 0.00, 0.00, 0.00, 0.00, 0.000, 0.000, 0.000, 14:04:22.417, 1551726262417
116, -2449.28, 0.00, 0.00, 0.00, 0.00, 0.00, 0.00, 0.00, 0.000, 0.000, 0.000, 14:04:22.417, 1551726262417
117, -2477.51, 0.00, 0.00, 0.00, 0.00, 0.00, 0.00, 0.00, 0.000, 0.000, 0.000, 14:04:22.424, 1551726262424
118, -2537.64, 0.00, 0.00, 0.00, 0.00, 0.00, 0.00, 0.00, -0.554, 0.732, 0.388, 14:04:22.425, 1551726262425
119, -2497.07, 0.00, 0.00, 0.00, 0.00, 0.00, 0.00, 0.00, 0.000, 0.000, 0.000, 14:04:22.432, 1551726262432
120, -2451.65, 0.00, 0.00, 0.00, 0.00, 0.00, 0.00, 0.00, 0.000, 0.000, 0.000, 14:04:22.432, 1551726262432
121, -2477.69, 0.00, 0.00, 0.00, 0.00, 0.00, 0.00, 0.00, 0.000, 0.000, 0.000, 14:04:22.440, 1551726262440
122, -2536.65, 0.00, 0.00, 0.00, 0.00, 0.00, 0.00, 0.00, 0.000, 0.000, 0.000, 14:04:22.440, 1551726262440
123, -2526.37, 0.00, 0.00, 0.00, 0.00, 0.00, 0.00, 0.00, 0.000, 0.000, 0.000, 14:04:22.447, 1551726262447
124, -2474.87, 0.00, 0.00, 0.00, 0.00, 0.00, 0.00, 0.00, 0.000, 0.000, 0.000, 14:04:22.447, 1551726262447
125, -2473.60, 0.00, 0.00, 0.00, 0.00, 0.00, 0.00, 0.00, 0.000, 0.000, 0.000, 14:04:22.455, 1551726262455
126, -2529.59, 0.00, 0.00, 0.00, 0.00, 0.00, 0.00, 0.00, 0.000, 0.000, 0.000, 14:04:22.456, 1551726262456
127, -2532.70, 0.00, 0.00, 0.00, 0.00, 0.00, 0.00, 0.00, 0.000, 0.000, 0.000, 14:04:22.462, 1551726262462
128, -2456.55, 0.00, 0.00, 0.00, 0.00, 0.00, 0.00, 0.00, -0.556, 0.724, 0.390, 14:04:22.469, 1551726262469
129, -2466.31, 0.00, 0.00, 0.00, 0.00, 0.00, 0.00, 0.00, 0.000, 0.000, 0.000, 14:04:22.469, 1551726262469
130, -2520.18, 0.00, 0.00, 0.00, 0.00, 0.00, 0.00, 0.00, 0.000, 0.000, 0.000, 14:04:22.476, 1551726262476
131, -2540.21, 0.00, 0.00, 0.00, 0.00, 0.00, 0.00, 0.00, 0.000, 0.000, 0.000, 14:04:22.477, 1551726262477
132, -2473.38, 0.00, 0.00, 0.00, 0.00, 0.00, 0.00, 0.00, 0.000, 0.000, 0.000, 14:04:22.484, 1551726262484
133, -2460.46, 0.00, 0.00, 0.00, 0.00, 0.00, 0.00, 0.00, 0.000, 0.000, 0.000, 14:04:22.484, 1551726262484
134, -2504.07, 0.00, 0.00, 0.00, 0.00, 0.00, 0.00, 0.00, 0.000, 0.000, 0.000, 14:04:22.492, 1551726262492
135, -2542.13, 0.00, 0.00, 0.00, 0.00, 0.00, 0.00, 0.00, 0.000, 0.000, 0.000, 14:04:22.493, 1551726262493
136, -2475.19, 0.00, 0.00, 0.00, 0.00, 0.00, 0.00, 0.00, 0.000, 0.000, 0.000, 14:04:22.499, 1551726262499
137, -2451.54, 0.00, 0.00, 0.00, 0.00, 0.00, 0.00, 0.00, 0.000, 0.000, 0.000, 14:04:22.499, 1551726262499
138, -2491.57, 0.00, 0.00, 0.00, 0.00, 0.00, 0.00, 0.00, -0.552, 0.716, 0.398, 14:04:22.507, 1551726262507
139, -2546.33, 0.00, 0.00, 0.00, 0.00, 0.00, 0.00, 0.00, 0.000, 0.000, 0.000, 14:04:22.507, 1551726262507
140, -2493.02, 0.00, 0.00, 0.00, 0.00, 0.00, 0.00, 0.00, 0.000, 0.000, 0.000, 14:04:22.515, 1551726262515
141, -2446.44, 0.00, 0.00, 0.00, 0.00, 0.00, 0.00, 0.00, 0.000, 0.000, 0.000, 14:04:22.515, 1551726262515
142, -2484.91, 0.00, 0.00, 0.00, 0.00, 0.00, 0.00, 0.00, 0.000, 0.000, 0.000, 14:04:22.522, 1551726262522
143, -2550.04, 0.00, 0.00, 0.00, 0.00, 0.00, 0.00, 0.00, 0.000, 0.000, 0.000, 14:04:22.522, 1551726262522
144, -2516.25, 0.00, 0.00, 0.00, 0.00, 0.00, 0.00, 0.00, 0.000, 0.000, 0.000, 14:04:22.528, 1551726262528
145, -2462.72, 0.00, 0.00, 0.00, 0.00, 0.00, 0.00, 0.00, 0.000, 0.000, 0.000, 14:04:22.537, 1551726262537
146, -2490.97, 0.00, 0.00, 0.00, 0.00, 0.00, 0.00, 0.00, 0.000, 0.000, 0.000, 14:04:22.537, 1551726262537
147, -2551.34, 0.00, 0.00, 0.00, 0.00, 0.00, 0.00, 0.00, 0.000, 0.000, 0.000, 14:04:22.544, 1551726262544
148, -2532.77, 0.00, 0.00, 0.00, 0.00, 0.00, 0.00, 0.00, -0.554, 0.720, 0.390, 14:04:22.545, 1551726262545
149, -2469.82, 0.00, 0.00, 0.00, 0.00, 0.00, 0.00, 0.00, 0.000, 0.000, 0.000, 14:04:22.552, 1551726262552
150, -2489.07, 0.00, 0.00, 0.00, 0.00, 0.00, 0.00, 0.00, 0.000, 0.000, 0.000, 14:04:22.552, 1551726262552
151, -2542.15, 0.00, 0.00, 0.00, 0.00, 0.00, 0.00, 0.00, 0.000, 0.000, 0.000, 14:04:22.559, 1551726262559
152, -2551.54, 0.00, 0.00, 0.00, 0.00, 0.00, 0.00, 0.00, 0.000, 0.000, 0.000, 14:04:22.559, 1551726262559
153, -2484.15, 0.00, 0.00, 0.00, 0.00, 0.00, 0.00, 0.00, 0.000, 0.000, 0.000, 14:04:22.567, 1551726262567
154, -2477.53, 0.00, 0.00, 0.00, 0.00, 0.00, 0.00, 0.00, 0.000, 0.000, 0.000, 14:04:22.567, 1551726262567
155, -2530.08, 0.00, 0.00, 0.00, 0.00, 0.00, 0.00, 0.00, 0.000, 0.000, 0.000, 14:04:22.576, 1551726262576
156, -2552.28, 0.00, 0.00, 0.00, 0.00, 0.00, 0.00, 0.00, 0.000, 0.000, 0.000, 14:04:22.576, 1551726262576
157, -2479.17, 0.00, 0.00, 0.00, 0.00, 0.00, 0.00, 0.00, 0.000, 0.000, 0.000, 14:04:22.582, 1551726262582
158, -2467.12, 0.00, 0.00, 0.00, 0.00, 0.00, 0.00, 0.00, -0.560, 0.736, 0.382, 14:04:22.583, 1551726262583
159, -2509.25, 0.00, 0.00, 0.00, 0.00, 0.00, 0.00, 0.00, 0.000, 0.000, 0.000, 14:04:22.589, 1551726262589
160, -2557.24, 0.00, 0.00, 0.00, 0.00, 0.00, 0.00, 0.00, 0.000, 0.000, 0.000, 14:04:22.597, 1551726262597
161, -2492.24, 0.00, 0.00, 0.00, 0.00, 0.00, 0.00, 0.00, 0.000, 0.000, 0.000, 14:04:22.597, 1551726262597
162, -2469.40, 0.00, 0.00, 0.00, 0.00, 0.00, 0.00, 0.00, 0.000, 0.000, 0.000, 14:04:22.604, 1551726262604
163, -2510.28, 0.00, 0.00, 0.00, 0.00, 0.00, 0.00, 0.00, 0.000, 0.000, 0.000, 14:04:22.604, 1551726262604
164, -2558.85, 0.00, 0.00, 0.00, 0.00, 0.00, 0.00, 0.00, 0.000, 0.000, 0.000, 14:04:22.611, 1551726262611
165, -2508.76, 0.00, 0.00, 0.00, 0.00, 0.00, 0.00, 0.00, 0.000, 0.000, 0.000, 14:04:22.612, 1551726262612
166, -2466.27, 0.00, 0.00, 0.00, 0.00, 0.00, 0.00, 0.00, 0.000, 0.000, 0.000, 14:04:22.619, 1551726262619
167, -2497.83, 0.00, 0.00, 0.00, 0.00, 0.00, 0.00, 0.00, 0.000, 0.000, 0.000, 14:04:22.620, 1551726262620
168, -2562.60, 0.00, 0.00, 0.00, 0.00, 0.00, 0.00, 0.00, -0.554, 0.710, 0.392, 14:04:22.627, 1551726262627
169, -2529.01, 0.00, 0.00, 0.00, 0.00, 0.00, 0.00, 0.00, 0.000, 0.000, 0.000, 14:04:22.628, 1551726262628
170, -2484.80, 0.00, 0.00, 0.00, 0.00, 0.00, 0.00, 0.00, 0.000, 0.000, 0.000, 14:04:22.634, 1551726262634
171, -2510.08, 0.00, 0.00, 0.00, 0.00, 0.00, 0.00, 0.00, 0.000, 0.000, 0.000, 14:04:22.634, 1551726262634
172, -2553.73, 0.00, 0.00, 0.00, 0.00, 0.00, 0.00, 0.00, 0.000, 0.000, 0.000, 14:04:22.642, 1551726262642
173, -2544.90, 0.00, 0.00, 0.00, 0.00, 0.00, 0.00, 0.00, 0.000, 0.000, 0.000, 14:04:22.642, 1551726262642
174, -2480.02, 0.00, 0.00, 0.00, 0.00, 0.00, 0.00, 0.00, 0.000, 0.000, 0.000, 14:04:22.649, 1551726262649
175, -2489.43, 0.00, 0.00, 0.00, 0.00, 0.00, 0.00, 0.00, 0.000, 0.000, 0.000, 14:04:22.657, 1551726262657
176, -2542.53, 0.00, 0.00, 0.00, 0.00, 0.00, 0.00, 0.00, 0.000, 0.000, 0.000, 14:04:22.657, 1551726262657
177, -2558.65, 0.00, 0.00, 0.00, 0.00, 0.00, 0.00, 0.00, -0.558, 0.726, 0.390, 14:04:22.664, 1551726262664
178, -2480.04, 0.00, 0.00, 0.00, 0.00, 0.00, 0.00, 0.00, 0.000, 0.000, 0.000, 14:04:22.664, 1551726262664
179, -2482.43, 0.00, 0.00, 0.00, 0.00, 0.00, 0.00, 0.00, 0.000, 0.000, 0.000, 14:04:22.672, 1551726262672
180, -2529.28, 0.00, 0.00, 0.00, 0.00, 0.00, 0.00, 0.00, 0.000, 0.000, 0.000, 14:04:22.672, 1551726262672
181, -2554.54, 0.00, 0.00, 0.00, 0.00, 0.00, 0.00, 0.00, 0.000, 0.000, 0.000, 14:04:22.680, 1551726262680
182, -2481.13, 0.00, 0.00, 0.00, 0.00, 0.00, 0.00, 0.00, 0.000, 0.000, 0.000, 14:04:22.680, 1551726262680
183, -2462.25, 0.00, 0.00, 0.00, 0.00, 0.00, 0.00, 0.00, 0.000, 0.000, 0.000, 14:04:22.687, 1551726262687
184, -2505.21, 0.00, 0.00, 0.00, 0.00, 0.00, 0.00, 0.00, 0.000, 0.000, 0.000, 14:04:22.687, 1551726262687
185, -2561.73, 0.00, 0.00, 0.00, 0.00, 0.00, 0.00, 0.00, 0.000, 0.000, 0.000, 14:04:22.694, 1551726262694
186, -2489.56, 0.00, 0.00, 0.00, 0.00, 0.00, 0.00, 0.00, 0.000, 0.000, 0.000, 14:04:22.694, 1551726262694
187, -2457.13, 0.00, 0.00, 0.00, 0.00, 0.00, 0.00, 0.00, -0.558, 0.722, 0.388, 14:04:22.702, 1551726262702
188, -2493.81, 0.00, 0.00, 0.00, 0.00, 0.00, 0.00, 0.00, 0.000, 0.000, 0.000, 14:04:22.702, 1551726262702
189, -2554.18, 0.00, 0.00, 0.00, 0.00, 0.00, 0.00, 0.00, 0.000, 0.000, 0.000, 14:04:22.709, 1551726262709
190, -2507.96, 0.00, 0.00, 0.00, 0.00, 0.00, 0.00, 0.00, 0.000, 0.000, 0.000, 14:04:22.716, 1551726262716
191, -2462.89, 0.00, 0.00, 0.00, 0.00, 0.00, 0.00, 0.00, 0.000, 0.000, 0.000, 14:04:22.716, 1551726262716
192, -2495.82, 0.00, 0.00, 0.00, 0.00, 0.00, 0.00, 0.00, 0.000, 0.000, 0.000, 14:04:22.724, 1551726262724
193, -2559.41, 0.00, 0.00, 0.00, 0.00, 0.00, 0.00, 0.00, 0.000, 0.000, 0.000, 14:04:22.724, 1551726262724
194, -2526.33, 0.00, 0.00, 0.00, 0.00, 0.00, 0.00, 0.00, 0.000, 0.000, 0.000, 14:04:22.732, 1551726262732
195, -2464.15, 0.00, 0.00, 0.00, 0.00, 0.00, 0.00, 0.00, 0.000, 0.000, 0.000, 14:04:22.732, 1551726262732
196, -2484.11, 0.00, 0.00, 0.00, 0.00, 0.00, 0.00, 0.00, 0.000, 0.000, 0.000, 14:04:22.739, 1551726262739
197, -2543.38, 0.00, 0.00, 0.00, 0.00, 0.00, 0.00, 0.00, -0.560, 0.720, 0.386, 14:04:22.739, 1551726262739
198, -2541.89, 0.00, 0.00, 0.00, 0.00, 0.00, 0.00, 0.00, 0.000, 0.000, 0.000, 14:04:22.746, 1551726262746
199, -2465.02, 0.00, 0.00, 0.00, 0.00, 0.00, 0.00, 0.00, 0.000, 0.000, 0.000, 14:04:22.747, 1551726262747
200, -2475.54, 0.00, 0.00, 0.00, 0.00, 0.00, 0.00, 0.00, 0.000, 0.000, 0.000, 14:04:22.754, 1551726262754
201, -2527.40, 0.00, 0.00, 0.00, 0.00, 0.00, 0.00, 0.00, 0.000, 0.000, 0.000, 14:04:22.755, 1551726262755
202, -2560.08, 0.00, 0.00, 0.00, 0.00, 0.00, 0.00, 0.00, 0.000, 0.000, 0.000, 14:04:22.763, 1551726262763
203, -2470.63, 0.00, 0.00, 0.00, 0.00, 0.00, 0.00, 0.00, 0.000, 0.000, 0.000, 14:04:22.763, 1551726262763
204, -2463.85, 0.00, 0.00, 0.00, 0.00, 0.00, 0.00, 0.00, 0.000, 0.000, 0.000, 14:04:22.769, 1551726262769
205, -2519.73, 0.00, 0.00, 0.00, 0.00, 0.00, 0.00, 0.00, 0.000, 0.000, 0.000, 14:04:22.770, 1551726262770
206, -2551.03, 0.00, 0.00, 0.00, 0.00, 0.00, 0.00, 0.00, 0.000, 0.000, 0.000, 14:04:22.776, 1551726262776
207, -2480.86, 0.00, 0.00, 0.00, 0.00, 0.00, 0.00, 0.00, -0.560, 0.724, 0.380, 14:04:22.784, 1551726262784
208, -2455.67, 0.00, 0.00, 0.00, 0.00, 0.00, 0.00, 0.00, 0.000, 0.000, 0.000, 14:04:22.785, 1551726262785
209, -2494.83, 0.00, 0.00, 0.00, 0.00, 0.00, 0.00, 0.00, 0.000, 0.000, 0.000, 14:04:22.792, 1551726262792
210, -2549.86, 0.00, 0.00, 0.00, 0.00, 0.00, 0.00, 0.00, 0.000, 0.000, 0.000, 14:04:22.792, 1551726262792
211, -2490.90, 0.00, 0.00, 0.00, 0.00, 0.00, 0.00, 0.00, 0.000, 0.000, 0.000, 14:04:22.799, 1551726262799
212, -2461.96, 0.00, 0.00, 0.00, 0.00, 0.00, 0.00, 0.00, 0.000, 0.000, 0.000, 14:04:22.799, 1551726262799
213, -2492.09, 0.00, 0.00, 0.00, 0.00, 0.00, 0.00, 0.00, 0.000, 0.000, 0.000, 14:04:22.807, 1551726262807
214, -2553.11, 0.00, 0.00, 0.00, 0.00, 0.00, 0.00, 0.00, 0.000, 0.000, 0.000, 14:04:22.808, 1551726262808
215, -2513.70, 0.00, 0.00, 0.00, 0.00, 0.00, 0.00, 0.00, 0.000, 0.000, 0.000, 14:04:22.815, 1551726262815
216, -2474.11, 0.00, 0.00, 0.00, 0.00, 0.00, 0.00, 0.00, 0.000, 0.000, 0.000, 14:04:22.815, 1551726262815
217, -2503.10, 0.00, 0.00, 0.00, 0.00, 0.00, 0.00, 0.00, -0.556, 0.720, 0.380, 14:04:22.823, 1551726262823
218, -2546.38, 0.00, 0.00, 0.00, 0.00, 0.00, 0.00, 0.00, 0.000, 0.000, 0.000, 14:04:22.823, 1551726262823
219, -2521.99, 0.00, 0.00, 0.00, 0.00, 0.00, 0.00, 0.00, 0.000, 0.000, 0.000, 14:04:22.829, 1551726262829
220, -2462.87, 0.00, 0.00, 0.00, 0.00, 0.00, 0.00, 0.00, 0.000, 0.000, 0.000, 14:04:22.830, 1551726262830
221, -2486.07, 0.00, 0.00, 0.00, 0.00, 0.00, 0.00, 0.00, 0.000, 0.000, 0.000, 14:04:22.836, 1551726262836
222, -2544.43, 0.00, 0.00, 0.00, 0.00, 0.00, 0.00, 0.00, 0.000, 0.000, 0.000, 14:04:22.844, 1551726262844
223, -2538.42, 0.00, 0.00, 0.00, 0.00, 0.00, 0.00, 0.00, 0.000, 0.000, 0.000, 14:04:22.845, 1551726262845
224, -2469.64, 0.00, 0.00, 0.00, 0.00, 0.00, 0.00, 0.00, 0.000, 0.000, 0.000, 14:04:22.852, 1551726262852
225, -2469.62, 0.00, 0.00, 0.00, 0.00, 0.00, 0.00, 0.00, 0.000, 0.000, 0.000, 14:04:22.852, 1551726262852
226, -2515.73, 0.00, 0.00, 0.00, 0.00, 0.00, 0.00, 0.00, 0.000, 0.000, 0.000, 14:04:22.860, 1551726262860
227, -2533.79, 0.00, 0.00, 0.00, 0.00, 0.00, 0.00, 0.00, -0.558, 0.716, 0.382, 14:04:22.860, 1551726262860
228, -2458.38, 0.00, 0.00, 0.00, 0.00, 0.00, 0.00, 0.00, 0.000, 0.000, 0.000, 14:04:22.867, 1551726262867
229, -2457.95, 0.00, 0.00, 0.00, 0.00, 0.00, 0.00, 0.00, 0.000, 0.000, 0.000, 14:04:22.867, 1551726262867
230, -2511.17, 0.00, 0.00, 0.00, 0.00, 0.00, 0.00, 0.00, 0.000, 0.000, 0.000, 14:04:22.874, 1551726262874
231, -2547.90, 0.00, 0.00, 0.00, 0.00, 0.00, 0.00, 0.00, 0.000, 0.000, 0.000, 14:04:22.875, 1551726262875
232, -2471.57, 0.00, 0.00, 0.00, 0.00, 0.00, 0.00, 0.00, 0.000, 0.000, 0.000, 14:04:22.882, 1551726262882
233, -2457.98, 0.00, 0.00, 0.00, 0.00, 0.00, 0.00, 0.00, 0.000, 0.000, 0.000, 14:04:22.882, 1551726262882
234, -2513.59, 0.00, 0.00, 0.00, 0.00, 0.00, 0.00, 0.00, 0.000, 0.000, 0.000, 14:04:22.890, 1551726262890
235, -2561.73, 0.00, 0.00, 0.00, 0.00, 0.00, 0.00, 0.00, 0.000, 0.000, 0.000, 14:04:22.890, 1551726262890
236, -2497.00, 0.00, 0.00, 0.00, 0.00, 0.00, 0.00, 0.00, 0.000, 0.000, 0.000, 14:04:22.897, 1551726262897
237, -2465.31, 0.00, 0.00, 0.00, 0.00, 0.00, 0.00, 0.00, -0.556, 0.720, 0.378, 14:04:22.904, 1551726262904
238, -2497.41, 0.00, 0.00, 0.00, 0.00, 0.00, 0.00, 0.00, 0.000, 0.000, 0.000, 14:04:22.905, 1551726262905
239, -2556.68, 0.00, 0.00, 0.00, 0.00, 0.00, 0.00, 0.00, 0.000, 0.000, 0.000, 14:04:22.911, 1551726262911
240, -2518.91, 0.00, 0.00, 0.00, 0.00, 0.00, 0.00, 0.00, 0.000, 0.000, 0.000, 14:04:22.912, 1551726262912
241, -2459.07, 0.00, 0.00, 0.00, 0.00, 0.00, 0.00, 0.00, 0.000, 0.000, 0.000, 14:04:22.919, 1551726262919
242, -2483.48, 0.00, 0.00, 0.00, 0.00, 0.00, 0.00, 0.00, 0.000, 0.000, 0.000, 14:04:22.920, 1551726262920
243, -2542.69, 0.00, 0.00, 0.00, 0.00, 0.00, 0.00, 0.00, 0.000, 0.000, 0.000, 14:04:22.927, 1551726262927
244, -2529.86, 0.00, 0.00, 0.00, 0.00, 0.00, 0.00, 0.00, 0.000, 0.000, 0.000, 14:04:22.928, 1551726262928
245, -2464.35, 0.00, 0.00, 0.00, 0.00, 0.00, 0.00, 0.00, 0.000, 0.000, 0.000, 14:04:22.934, 1551726262934
246, -2480.66, 0.00, 0.00, 0.00, 0.00, 0.00, 0.00, 0.00, -0.560, 0.730, 0.384, 14:04:22.934, 1551726262934
247, -2543.36, 0.00, 0.00, 0.00, 0.00, 0.00, 0.00, 0.00, 0.000, 0.000, 0.000, 14:04:22.942, 1551726262942
248, -2547.27, 0.00, 0.00, 0.00, 0.00, 0.00, 0.00, 0.00, 0.000, 0.000, 0.000, 14:04:22.942, 1551726262942
249, -2472.10, 0.00, 0.00, 0.00, 0.00, 0.00, 0.00, 0.00, 0.000, 0.000, 0.000, 14:04:22.950, 1551726262950
250, -2474.05, 0.00, 0.00, 0.00, 0.00, 0.00, 0.00, 0.00, 0.000, 0.000, 0.000, 14:04:22.950, 1551726262950
251, -2513.10, 0.00, 0.00, 0.00, 0.00, 0.00, 0.00, 0.00, 0.000, 0.000, 0.000, 14:04:22.957, 1551726262957
252, -2541.75, 0.00, 0.00, 0.00, 0.00, 0.00, 0.00, 0.00, 0.000, 0.000, 0.000, 14:04:22.964, 1551726262964
253, -2473.80, 0.00, 0.00, 0.00, 0.00, 0.00, 0.00, 0.00, 0.000, 0.000, 0.000, 14:04:22.964, 1551726262964
254, -2469.58, 0.00, 0.00, 0.00, 0.00, 0.00, 0.00, 0.00, 0.000, 0.000, 0.000, 14:04:22.972, 1551726262972
255, -2522.01, 0.00, 0.00, 0.00, 0.00, 0.00, 0.00, 0.00, 0.000, 0.000, 0.000, 14:04:22.972, 1551726262972
0, -2565.00, 0.00, 0.00, 0.00, 0.00, 0.00, 0.00, 0.00, -0.556, 0.726, 0.386, 14:04:22.980, 1551726262980
1, -2497.94, 0.00, 0.00, 0.00, 0.00, 0.00, 0.00, 0.00, 0.000, 0.000, 0.000, 14:04:22.980, 1551726262980
2, -2477.29, 0.00, 0.00, 0.00, 0.00, 0.00, 0.00, 0.00, 0.000, 0.000, 0.000, 14:04:22.986, 1551726262986
3, -2520.07, 0.00, 0.00, 0.00, 0.00, 0.00, 0.00, 0.00, 0.000, 0.000, 0.000, 14:04:22.986, 1551726262986
4, -2579.77, 0.00, 0.00, 0.00, 0.00, 0.00, 0.00, 0.00, 0.000, 0.000, 0.000, 14:04:22.994, 1551726262994
5, -2523.42, 0.00, 0.00, 0.00, 0.00, 0.00, 0.00, 0.00, 0.000, 0.000, 0.000, 14:04:22.994, 1551726262994
6, -2485.16, 0.00, 0.00, 0.00, 0.00, 0.00, 0.00, 0.00, 0.000, 0.000, 0.000, 14:04:23.002, 1551726263002
7, -2518.39, 0.00, 0.00, 0.00, 0.00, 0.00, 0.00, 0.00, 0.000, 0.000, 0.000, 14:04:23.003, 1551726263003
8, -2578.30, 0.00, 0.00, 0.00, 0.00, 0.00, 0.00, 0.00, 0.000, 0.000, 0.000, 14:04:23.010, 1551726263010
9, -2541.39, 0.00, 0.00, 0.00, 0.00, 0.00, 0.00, 0.00, 0.000, 0.000, 0.000, 14:04:23.010, 1551726263010
10, -2486.16, 0.00, 0.00, 0.00, 0.00, 0.00, 0.00, 0.00, -0.558, 0.726, 0.384, 14:04:23.016, 1551726263016
11, -2505.99, 0.00, 0.00, 0.00, 0.00, 0.00, 0.00, 0.00, 0.000, 0.000, 0.000, 14:04:23.016, 1551726263016
12, -2575.57, 0.00, 0.00, 0.00, 0.00, 0.00, 0.00, 0.00, 0.000, 0.000, 0.000, 14:04:23.024, 1551726263024
13, -2546.22, 0.00, 0.00, 0.00, 0.00, 0.00, 0.00, 0.00, 0.000, 0.000, 0.000, 14:04:23.032, 1551726263032
14, -2473.18, 0.00, 0.00, 0.00, 0.00, 0.00, 0.00, 0.00, 0.000, 0.000, 0.000, 14:04:23.032, 1551726263032
15, -2495.33, 0.00, 0.00, 0.00, 0.00, 0.00, 0.00, 0.00, 0.000, 0.000, 0.000, 14:04:23.039, 1551726263039
16, -2554.16, 0.00, 0.00, 0.00, 0.00, 0.00, 0.00, 0.00, 0.000, 0.000, 0.000, 14:04:23.039, 1551726263039
17, -2560.26, 0.00, 0.00, 0.00, 0.00, 0.00, 0.00, 0.00, 0.000, 0.000, 0.000, 14:04:23.047, 1551726263047
18, -2476.64, 0.00, 0.00, 0.00, 0.00, 0.00, 0.00, 0.00, 0.000, 0.000, 0.000, 14:04:23.047, 1551726263047
19, -2484.53, 0.00, 0.00, 0.00, 0.00, 0.00, 0.00, 0.00, 0.000, 0.000, 0.000, 14:04:23.055, 1551726263055
20, -2532.74, 0.00, 0.00, 0.00, 0.00, 0.00, 0.00, 0.00, -0.554, 0.726, 0.384, 14:04:23.055, 1551726263055
21, -2557.89, 0.00, 0.00, 0.00, 0.00, 0.00, 0.00, 0.00, 0.000, 0.000, 0.000, 14:04:23.063, 1551726263063
22, -2488.40, 0.00, 0.00, 0.00, 0.00, 0.00, 0.00, 0.00, 0.000, 0.000, 0.000, 14:04:23.063, 1551726263063
23, -2480.22, 0.00, 0.00, 0.00, 0.00, 0.00, 0.00, 0.00, 0.000, 0.000, 0.000, 14:04:23.069, 1551726263069
24, -2521.61, 0.00, 0.00, 0.00, 0.00, 0.00, 0.00, 0.00, 0.000, 0.000, 0.000, 14:04:23.069, 1551726263069
25, -2564.24, 0.00, 0.00, 0.00, 0.00, 0.00, 0.00, 0.00, 0.000, 0.000, 0.000, 14:04:23.077, 1551726263077
26, -2503.89, 0.00, 0.00, 0.00, 0.00, 0.00, 0.00, 0.00, 0.000, 0.000, 0.000, 14:04:23.078, 1551726263078
27, -2485.83, 0.00, 0.00, 0.00, 0.00, 0.00, 0.00, 0.00, 0.000, 0.000, 0.000, 14:04:23.084, 1551726263084
28, -2532.63, 0.00, 0.00, 0.00, 0.00, 0.00, 0.00, 0.00, 0.000, 0.000, 0.000, 14:04:23.093, 1551726263093
29, -2575.32, 0.00, 0.00, 0.00, 0.00, 0.00, 0.00, 0.00, 0.000, 0.000, 0.000, 14:04:23.093, 1551726263093
30, -2528.36, 0.00, 0.00, 0.00, 0.00, 0.00, 0.00, 0.00, -0.550, 0.726, 0.378, 14:04:23.099, 1551726263099
31, -2482.88, 0.00, 0.00, 0.00, 0.00, 0.00, 0.00, 0.00, 0.000, 0.000, 0.000, 14:04:23.100, 1551726263100
32, -2517.01, 0.00, 0.00, 0.00, 0.00, 0.00, 0.00, 0.00, 0.000, 0.000, 0.000, 14:04:23.107, 1551726263107
33, -2582.12, 0.00, 0.00, 0.00, 0.00, 0.00, 0.00, 0.00, 0.000, 0.000, 0.000, 14:04:23.107, 1551726263107
34, -2546.49, 0.00, 0.00, 0.00, 0.00, 0.00, 0.00, 0.00, 0.000, 0.000, 0.000, 14:04:23.114, 1551726263114
35, -2484.89, 0.00, 0.00, 0.00, 0.00, 0.00, 0.00, 0.00, 0.000, 0.000, 0.000, 14:04:23.115, 1551726263115
36, -2503.19, 0.00, 0.00, 0.00, 0.00, 0.00, 0.00, 0.00, 0.000, 0.000, 0.000, 14:04:23.122, 1551726263122
37, -2558.25, 0.00, 0.00, 0.00, 0.00, 0.00, 0.00, 0.00, 0.000, 0.000, 0.000, 14:04:23.122, 1551726263122
38, -2556.70, 0.00, 0.00, 0.00, 0.00, 0.00, 0.00, 0.00, 0.000, 0.000, 0.000, 14:04:23.130, 1551726263130
39, -2478.38, 0.00, 0.00, 0.00, 0.00, 0.00, 0.00, 0.00, 0.000, 0.000, 0.000, 14:04:23.131, 1551726263131
40, -2492.13, 0.00, 0.00, 0.00, 0.00, 0.00, 0.00, 0.00, -0.554, 0.730, 0.376, 14:04:23.137, 1551726263137
41, -2544.32, 0.00, 0.00, 0.00, 0.00, 0.00, 0.00, 0.00, 0.000, 0.000, 0.000, 14:04:23.137, 1551726263137
42, -2564.66, 0.00, 0.00, 0.00, 0.00, 0.00, 0.00, 0.00, 0.000, 0.000, 0.000, 14:04:23.144, 1551726263144
43, -2483.64, 0.00, 0.00, 0.00, 0.00, 0.00, 0.00, 0.00, 0.000, 0.000, 0.000, 14:04:23.152, 1551726263152
44, -2488.78, 0.00, 0.00, 0.00, 0.00, 0.00, 0.00, 0.00, 0.000, 0.000, 0.000, 14:04:23.152, 1551726263152
45, -2548.26, 0.00, 0.00, 0.00, 0.00, 0.00, 0.00, 0.00, 0.000, 0.000, 0.000, 14:04:23.160, 1551726263160
46, -2574.03, 0.00, 0.00, 0.00, 0.00, 0.00, 0.00, 0.00, 0.000, 0.000, 0.000, 14:04:23.160, 1551726263160
47, -2498.52, 0.00, 0.00, 0.00, 0.00, 0.00, 0.00, 0.00, 0.000, 0.000, 0.000, 14:04:23.166, 1551726263166
48, -2485.42, 0.00, 0.00, 0.00, 0.00, 0.00, 0.00, 0.00, 0.000, 0.000, 0.000, 14:04:23.167, 1551726263167
49, -2538.58, 0.00, 0.00, 0.00, 0.00, 0.00, 0.00, 0.00, -0.554, 0.728, 0.384, 14:04:23.174, 1551726263174
50, -2582.57, 0.00, 0.00, 0.00, 0.00, 0.00, 0.00, 0.00, 0.000, 0.000, 0.000, 14:04:23.174, 1551726263174
51, -2512.78, 0.00, 0.00, 0.00, 0.00, 0.00, 0.00, 0.00, 0.000, 0.000, 0.000, 14:04:23.182, 1551726263182
52, -2486.61, 0.00, 0.00, 0.00, 0.00, 0.00, 0.00, 0.00, 0.000, 0.000, 0.000, 14:04:23.183, 1551726263183
53, -2524.99, 0.00, 0.00, 0.00, 0.00, 0.00, 0.00, 0.00, 0.000, 0.000, 0.000, 14:04:23.189, 1551726263189
54, -2578.83, 0.00, 0.00, 0.00, 0.00, 0.00, 0.00, 0.00, 0.000, 0.000, 0.000, 14:04:23.189, 1551726263189
55, -2531.22, 0.00, 0.00, 0.00, 0.00, 0.00, 0.00, 0.00, 0.000, 0.000, 0.000, 14:04:23.197, 1551726263197
56, -2479.66, 0.00, 0.00, 0.00, 0.00, 0.00, 0.00, 0.00, 0.000, 0.000, 0.000, 14:04:23.197, 1551726263197
57, -2509.14, 0.00, 0.00, 0.00, 0.00, 0.00, 0.00, 0.00, 0.000, 0.000, 0.000, 14:04:23.204, 1551726263204
58, -2574.56, 0.00, 0.00, 0.00, 0.00, 0.00, 0.00, 0.00, 0.000, 0.000, 0.000, 14:04:23.212, 1551726263212
59, -2546.65, 0.00, 0.00, 0.00, 0.00, 0.00, 0.00, 0.00, -0.552, 0.728, 0.380, 14:04:23.212, 1551726263212
60, -2478.74, 0.00, 0.00, 0.00, 0.00, 0.00, 0.00, 0.00, 0.000, 0.000, 0.000, 14:04:23.219, 1551726263219
61, -2507.78, 0.00, 0.00, 0.00, 0.00, 0.00, 0.00, 0.00, 0.000, 0.000, 0.000, 14:04:23.219, 1551726263219
62, -2557.29, 0.00, 0.00, 0.00, 0.00, 0.00, 0.00, 0.00, 0.000, 0.000, 0.000, 14:04:23.227, 1551726263227
63, -2539.90, 0.00, 0.00, 0.00, 0.00, 0.00, 0.00, 0.00, 0.000, 0.000, 0.000, 14:04:23.227, 1551726263227
64, -2472.01, 0.00, 0.00, 0.00, 0.00, 0.00, 0.00, 0.00, 0.000, 0.000, 0.000, 14:04:23.235, 1551726263235
65, -2478.90, 0.00, 0.00, 0.00, 0.00, 0.00, 0.00, 0.00, 0.000, 0.000, 0.000, 14:04:23.235, 1551726263235
66, -2537.50, 0.00, 0.00, 0.00, 0.00, 0.00, 0.00, 0.00, 0.000, 0.000, 0.000, 14:04:23.242, 1551726263242
67, -2563.34, 0.00, 0.00, 0.00, 0.00, 0.00, 0.00, 0.00, 0.000, 0.000, 0.000, 14:04:23.243, 1551726263243
68, -2485.31, 0.00, 0.00, 0.00, 0.00, 0.00, 0.00, 0.00, 0.000, 0.000, 0.000, 14:04:23.249, 1551726263249
69, -2477.82, 0.00, 0.00, 0.00, 0.00, 0.00, 0.00, 0.00, -0.554, 0.728, 0.384, 14:04:23.250, 1551726263250
70, -2519.44, 0.00, 0.00, 0.00, 0.00, 0.00, 0.00, 0.00, 0.000, 0.000, 0.000, 14:04:23.259, 1551726263259
71, -2567.25, 0.00, 0.00, 0.00, 0.00, 0.00, 0.00, 0.00, 0.000, 0.000, 0.000, 14:04:23.259, 1551726263259
72, -2493.07, 0.00, 0.00, 0.00, 0.00, 0.00, 0.00, 0.00, 0.000, 0.000, 0.000, 14:04:23.265, 1551726263265
73, -2477.85, 0.00, 0.00, 0.00, 0.00, 0.00, 0.00, 0.00, 0.000, 0.000, 0.000, 14:04:23.265, 1551726263265
74, -2523.74, 0.00, 0.00, 0.00, 0.00, 0.00, 0.00, 0.00, 0.000, 0.000, 0.000, 14:04:23.272, 1551726263272
75, -2576.49, 0.00, 0.00, 0.00, 0.00, 0.00, 0.00, 0.00, 0.000, 0.000, 0.000, 14:04:23.279, 1551726263279
76, -2510.73, 0.00, 0.00, 0.00, 0.00, 0.00, 0.00, 0.00, 0.000, 0.000, 0.000, 14:04:23.279, 1551726263279
77, -2470.18, 0.00, 0.00, 0.00, 0.00, 0.00, 0.00, 0.00, 0.000, 0.000, 0.000, 14:04:23.288, 1551726263288
78, -2511.02, 0.00, 0.00, 0.00, 0.00, 0.00, 0.00, 0.00, 0.000, 0.000, 0.000, 14:04:23.288, 1551726263288
79, -2567.30, 0.00, 0.00, 0.00, 0.00, 0.00, 0.00, 0.00, -0.554, 0.722, 0.388, 14:04:23.295, 1551726263295
80, -2534.73, 0.00, 0.00, 0.00, 0.00, 0.00, 0.00, 0.00, 0.000, 0.000, 0.000, 14:04:23.295, 1551726263295
81, -2478.52, 0.00, 0.00, 0.00, 0.00, 0.00, 0.00, 0.00, 0.000, 0.000, 0.000, 14:04:23.302, 1551726263302
82, -2488.26, 0.00, 0.00, 0.00, 0.00, 0.00, 0.00, 0.00, 0.000, 0.000, 0.000, 14:04:23.302, 1551726263302
83, -2548.95, 0.00, 0.00, 0.00, 0.00, 0.00, 0.00, 0.00, 0.000, 0.000, 0.000, 14:04:23.310, 1551726263310
84, -2529.75, 0.00, 0.00, 0.00, 0.00, 0.00, 0.00, 0.00, 0.000, 0.000, 0.000, 14:04:23.310, 1551726263310
85, -2461.55, 0.00, 0.00, 0.00, 0.00, 0.00, 0.00, 0.00, 0.000, 0.000, 0.000, 14:04:23.318, 1551726263318
86, -2471.86, 0.00, 0.00, 0.00, 0.00, 0.00, 0.00, 0.00, 0.000, 0.000, 0.000, 14:04:23.318, 1551726263318
87, -2527.87, 0.00, 0.00, 0.00, 0.00, 0.00, 0.00, 0.00, 0.000, 0.000, 0.000, 14:04:23.325, 1551726263325
88, -2533.70, 0.00, 0.00, 0.00, 0.00, 0.00, 0.00, 0.00, 0.000, 0.000, 0.000, 14:04:23.325, 1551726263325
89, -2460.01, 0.00, 0.00, 0.00, 0.00, 0.00, 0.00, 0.00, -0.556, 0.724, 0.392, 14:04:23.331, 1551726263331
90, -2469.73, 0.00, 0.00, 0.00, 0.00, 0.00, 0.00, 0.00, 0.000, 0.000, 0.000, 14:04:23.339, 1551726263339
91, -2518.01, 0.00, 0.00, 0.00, 0.00, 0.00, 0.00, 0.00, 0.000, 0.000, 0.000, 14:04:23.339, 1551726263339
92, -2546.58, 0.00, 0.00, 0.00, 0.00, 0.00, 0.00, 0.00, 0.000, 0.000, 0.000, 14:04:23.347, 1551726263347
93, -2468.53, 0.00, 0.00, 0.00, 0.00, 0.00, 0.00, 0.00, 0.000, 0.000, 0.000, 14:04:23.348, 1551726263348
94, -2462.07, 0.00, 0.00, 0.00, 0.00, 0.00, 0.00, 0.00, 0.000, 0.000, 0.000, 14:04:23.354, 1551726263354
95, -2518.37, 0.00, 0.00, 0.00, 0.00, 0.00, 0.00, 0.00, 0.000, 0.000, 0.000, 14:04:23.354, 1551726263354
96, -2563.28, 0.00, 0.00, 0.00, 0.00, 0.00, 0.00, 0.00, 0.000, 0.000, 0.000, 14:04:23.362, 1551726263362
97, -2482.00, 0.00, 0.00, 0.00, 0.00, 0.00, 0.00, 0.00, 0.000, 0.000, 0.000, 14:04:23.362, 1551726263362
98, -2470.36, 0.00, 0.00, 0.00, 0.00, 0.00, 0.00, 0.00, 0.000, 0.000, 0.000, 14:04:23.370, 1551726263370
99, -2512.27, 0.00, 0.00, 0.00, 0.00, 0.00, 0.00, 0.00, -0.558, 0.714, 0.390, 14:04:23.370, 1551726263370
100, -2554.25, 0.00, 0.00, 0.00, 0.00, 0.00, 0.00, 0.00, 0.000, 0.000, 0.000, 14:04:23.378, 1551726263378
101, -2488.67, 0.00, 0.00, 0.00, 0.00, 0.00, 0.00, 0.00, 0.000, 0.000, 0.000, 14:04:23.378, 1551726263378
102, -2448.16, 0.00, 0.00, 0.00, 0.00, 0.00, 0.00, 0.00, 0.000, 0.000, 0.000, 14:04:23.386, 1551726263386
103, -2492.24, 0.00, 0.00, 0.00, 0.00, 0.00, 0.00, 0.00, 0.000, 0.000, 0.000, 14:04:23.386, 1551726263386
104, -2546.13, 0.00, 0.00, 0.00, 0.00, 0.00, 0.00, 0.00, 0.000, 0.000, 0.000, 14:04:23.392, 1551726263392
105, -2501.32, 0.00, 0.00, 0.00, 0.00, 0.00, 0.00, 0.00, 0.000, 0.000, 0.000, 14:04:23.399, 1551726263399
106, -2454.80, 0.00, 0.00, 0.00, 0.00, 0.00, 0.00, 0.00, 0.000, 0.000, 0.000, 14:04:23.400, 1551726263400
107, -2475.39, 0.00, 0.00, 0.00, 0.00, 0.00, 0.00, 0.00, 0.000, 0.000, 0.000, 14:04:23.407, 1551726263407
108, -2536.74, 0.00, 0.00, 0.00, 0.00, 0.00, 0.00, 0.00, -0.546, 0.692, 0.392, 14:04:23.407, 1551726263407
109, -2527.78, 0.00, 0.00, 0.00, 0.00, 0.00, 0.00, 0.00, 0.000, 0.000, 0.000, 14:04:23.414, 1551726263414
110, -2455.41, 0.00, 0.00, 0.00, 0.00, 0.00, 0.00, 0.00, 0.000, 0.000, 0.000, 14:04:23.414, 1551726263414
111, -2476.24, 0.00, 0.00, 0.00, 0.00, 0.00, 0.00, 0.00, 0.000, 0.000, 0.000, 14:04:23.422, 1551726263422
112, -2528.83, 0.00, 0.00, 0.00, 0.00, 0.00, 0.00, 0.00, 0.000, 0.000, 0.000, 14:04:23.422, 1551726263422
113, -2538.31, 0.00, 0.00, 0.00, 0.00, 0.00, 0.00, 0.00, 0.000, 0.000, 0.000, 14:04:23.430, 1551726263430
114, -2462.47, 0.00, 0.00, 0.00, 0.00, 0.00, 0.00, 0.00, 0.000, 0.000, 0.000, 14:04:23.430, 1551726263430
115, -2462.58, 0.00, 0.00, 0.00, 0.00, 0.00, 0.00, 0.00, 0.000, 0.000, 0.000, 14:04:23.437, 1551726263437
116, -2522.30, 0.00, 0.00, 0.00, 0.00, 0.00, 0.00, 0.00, 0.000, 0.000, 0.000, 14:04:23.437, 1551726263437
5, -2573.74, 0.00, 0.00, 0.00, 0.00, 0.00, 0.00, 0.00, 0.000, 0.000, 0.000, 14:04:52.099, 1551726292099
6, -2585.92, 0.00, 0.00, 0.00, 0.00, 0.00, 0.00, 0.00, 0.000, 0.000, 0.000, 14:04:52.106, 1551726292106
7, -2538.91, 0.00, 0.00, 0.00, 0.00, 0.00, 0.00, 0.00, 0.000, 0.000, 0.000, 14:04:52.106, 1551726292106
8, -2538.35, 0.00, 0.00, 0.00, 0.00, 0.00, 0.00, 0.00, 0.000, 0.000, 0.000, 14:04:52.113, 1551726292113
9, -2568.98, 0.00, 0.00, 0.00, 0.00, 0.00, 0.00, 0.00, 0.000, 0.000, 0.000, 14:04:52.114, 1551726292114
10, -2583.79, 0.00, 0.00, 0.00, 0.00, 0.00, 0.00, 0.00, 0.000, 0.000, 0.000, 14:04:52.122, 1551726292122
11, -2539.52, 0.00, 0.00, 0.00, 0.00, 0.00, 0.00, 0.00, -0.630, 0.716, 0.234, 14:04:52.122, 1551726292122
12, -2527.47, 0.00, 0.00, 0.00, 0.00, 0.00, 0.00, 0.00, 0.000, 0.000, 0.000, 14:04:52.128, 1551726292128
13, -2553.73, 0.00, 0.00, 0.00, 0.00, 0.00, 0.00, 0.00, 0.000, 0.000, 0.000, 14:04:52.129, 1551726292129
14, -2586.77, 0.00, 0.00, 0.00, 0.00, 0.00, 0.00, 0.00, 0.000, 0.000, 0.000, 14:04:52.137, 1551726292137
15, -2550.24, 0.00, 0.00, 0.00, 0.00, 0.00, 0.00, 0.00, 0.000, 0.000, 0.000, 14:04:52.137, 1551726292137
16, -2525.43, 0.00, 0.00, 0.00, 0.00, 0.00, 0.00, 0.00, 0.000, 0.000, 0.000, 14:04:52.144, 1551726292144
17, -2543.32, 0.00, 0.00, 0.00, 0.00, 0.00, 0.00, 0.00, 0.000, 0.000, 0.000, 14:04:52.144, 1551726292144
18, -2577.45, 0.00, 0.00, 0.00, 0.00, 0.00, 0.00, 0.00, 0.000, 0.000, 0.000, 14:04:52.152, 1551726292152
19, -2556.68, 0.00, 0.00, 0.00, 0.00, 0.00, 0.00, 0.00, 0.000, 0.000, 0.000, 14:04:52.153, 1551726292153
20, -2525.30, 0.00, 0.00, 0.00, 0.00, 0.00, 0.00, 0.00, 0.000, 0.000, 0.000, 14:04:52.158, 1551726292158
21, -2539.78, 0.00, 0.00, 0.00, 0.00, 0.00, 0.00, 0.00, -0.634, 0.712, 0.208, 14:04:52.166, 1551726292166
22, -2580.58, 0.00, 0.00, 0.00, 0.00, 0.00, 0.00, 0.00, 0.000, 0.000, 0.000, 14:04:52.166, 1551726292166
23, -2575.37, 0.00, 0.00, 0.00, 0.00, 0.00, 0.00, 0.00, 0.000, 0.000, 0.000, 14:04:52.174, 1551726292174
24, -2531.45, 0.00, 0.00, 0.00, 0.00, 0.00, 0.00, 0.00, 0.000, 0.000, 0.000, 14:04:52.174, 1551726292174
25, -2533.17, 0.00, 0.00, 0.00, 0.00, 0.00, 0.00, 0.00, 0.000, 0.000, 0.000, 14:04:52.182, 1551726292182
26, -2574.85, 0.00, 0.00, 0.00, 0.00, 0.00, 0.00, 0.00, 0.000, 0.000, 0.000, 14:04:52.182, 1551726292182
27, -2574.70, 0.00, 0.00, 0.00, 0.00, 0.00, 0.00, 0.00, 0.000, 0.000, 0.000, 14:04:52.189, 1551726292189
28, -2524.36, 0.00, 0.00, 0.00, 0.00, 0.00, 0.00, 0.00, 0.000, 0.000, 0.000, 14:04:52.189, 1551726292189
29, -2531.47, 0.00, 0.00, 0.00, 0.00, 0.00, 0.00, 0.00, 0.000, 0.000, 0.000, 14:04:52.196, 1551726292196
30, -2567.28, 0.00, 0.00, 0.00, 0.00, 0.00, 0.00, 0.00, 0.000, 0.000, 0.000, 14:04:52.197, 1551726292197
31, -2585.90, 0.00, 0.00, 0.00, 0.00, 0.00, 0.00, 0.00, -0.644, 0.716, 0.192, 14:04:52.208, 1551726292208
32, -2535.45, 0.00, 0.00, 0.00, 0.00, 0.00, 0.00, 0.00, 0.000, 0.000, 0.000, 14:04:52.208, 1551726292208
33, -2525.79, 0.00, 0.00, 0.00, 0.00, 0.00, 0.00, 0.00, 0.000, 0.000, 0.000, 14:04:52.211, 1551726292211
34, -2558.69, 0.00, 0.00, 0.00, 0.00, 0.00, 0.00, 0.00, 0.000, 0.000, 0.000, 14:04:52.211, 1551726292211
35, -2580.31, 0.00, 0.00, 0.00, 0.00, 0.00, 0.00, 0.00, 0.000, 0.000, 0.000, 14:04:52.218, 1551726292218
36, -2540.34, 0.00, 0.00, 0.00, 0.00, 0.00, 0.00, 0.00, 0.000, 0.000, 0.000, 14:04:52.226, 1551726292226
37, -2527.07, 0.00, 0.00, 0.00, 0.00, 0.00, 0.00, 0.00, 0.000, 0.000, 0.000, 14:04:52.226, 1551726292226
38, -2548.46, 0.00, 0.00, 0.00, 0.00, 0.00, 0.00, 0.00, 0.000, 0.000, 0.000, 14:04:52.234, 1551726292234
39, -2579.86, 0.00, 0.00, 0.00, 0.00, 0.00, 0.00, 0.00, 0.000, 0.000, 0.000, 14:04:52.234, 1551726292234
40, -2556.06, 0.00, 0.00, 0.00, 0.00, 0.00, 0.00, 0.00, 0.000, 0.000, 0.000, 14:04:52.241, 1551726292241
41, -2523.13, 0.00, 0.00, 0.00, 0.00, 0.00, 0.00, 0.00, -0.644, 0.712, 0.178, 14:04:52.241, 1551726292241
42, -2529.86, 0.00, 0.00, 0.00, 0.00, 0.00, 0.00, 0.00, 0.000, 0.000, 0.000, 14:04:52.249, 1551726292249
43, -2575.79, 0.00, 0.00, 0.00, 0.00, 0.00, 0.00, 0.00, 0.000, 0.000, 0.000, 14:04:52.249, 1551726292249
44, -2549.82, 0.00, 0.00, 0.00, 0.00, 0.00, 0.00, 0.00, 0.000, 0.000, 0.000, 14:04:52.257, 1551726292257
45, -2514.12, 0.00, 0.00, 0.00, 0.00, 0.00, 0.00, 0.00, 0.000, 0.000, 0.000, 14:04:52.257, 1551726292257
46, -2529.48, 0.00, 0.00, 0.00, 0.00, 0.00, 0.00, 0.00, 0.000, 0.000, 0.000, 14:04:52.264, 1551726292264
47, -2568.62, 0.00, 0.00, 0.00, 0.00, 0.00, 0.00, 0.00, 0.000, 0.000, 0.000, 14:04:52.264, 1551726292264
48, -2564.66, 0.00, 0.00, 0.00, 0.00, 0.00, 0.00, 0.00, 0.000, 0.000, 0.000, 14:04:52.271, 1551726292271
49, -2522.53, 0.00, 0.00, 0.00, 0.00, 0.00, 0.00, 0.00, 0.000, 0.000, 0.000, 14:04:52.272, 1551726292272
50, -2530.06, 0.00, 0.00, 0.00, 0.00, 0.00, 0.00, 0.00, 0.000, 0.000, 0.000, 14:04:52.278, 1551726292278
51, -2565.91, 0.00, 0.00, 0.00, 0.00, 0.00, 0.00, 0.00, -0.646, 0.712, 0.176, 14:04:52.287, 1551726292287
52, -2570.29, 0.00, 0.00, 0.00, 0.00, 0.00, 0.00, 0.00, 0.000, 0.000, 0.000, 14:04:52.287, 1551726292287
53, -2526.91, 0.00, 0.00, 0.00, 0.00, 0.00, 0.00, 0.00, 0.000, 0.000, 0.000, 14:04:52.293, 1551726292293
54, -2527.71, 0.00, 0.00, 0.00, 0.00, 0.00, 0.00, 0.00, 0.000, 0.000, 0.000, 14:04:52.294, 1551726292294
55, -2552.03, 0.00, 0.00, 0.00, 0.00, 0.00, 0.00, 0.00, 0.000, 0.000, 0.000, 14:04:52.301, 1551726292301
56, -2574.05, 0.00, 0.00, 0.00, 0.00, 0.00, 0.00, 0.00, 0.000, 0.000, 0.000, 14:04:52.301, 1551726292301
57, -2539.20, 0.00, 0.00, 0.00, 0.00, 0.00, 0.00, 0.00, 0.000, 0.000, 0.000, 14:04:52.309, 1551726292309
58, -2514.03, 0.00, 0.00, 0.00, 0.00, 0.00, 0.00, 0.00, 0.000, 0.000, 0.000, 14:04:52.309, 1551726292309
59, -2546.06, 0.00, 0.00, 0.00, 0.00, 0.00, 0.00, 0.00, 0.000, 0.000, 0.000, 14:04:52.317, 1551726292317
60, -2580.84, 0.00, 0.00, 0.00, 0.00, 0.00, 0.00, 0.00, 0.000, 0.000, 0.000, 14:04:52.317, 1551726292317
61, -2538.33, 0.00, 0.00, 0.00, 0.00, 0.00, 0.00, 0.00, -0.656, 0.718, 0.174, 14:04:52.324, 1551726292324
62, -2515.91, 0.00, 0.00, 0.00, 0.00, 0.00, 0.00, 0.00, 0.000, 0.000, 0.000, 14:04:52.324, 1551726292324
63, -2545.35, 0.00, 0.00, 0.00, 0.00, 0.00, 0.00, 0.00, 0.000, 0.000, 0.000, 14:04:52.331, 1551726292331
64, -2582.99, 0.00, 0.00, 0.00, 0.00, 0.00, 0.00, 0.00, 0.000, 0.000, 0.000, 14:04:52.332, 1551726292332
65, -2540.59, 0.00, 0.00, 0.00, 0.00, 0.00, 0.00, 0.00, 0.000, 0.000, 0.000, 14:04:52.339, 1551726292339
66, -2515.33, 0.00, 0.00, 0.00, 0.00, 0.00, 0.00, 0.00, 0.000, 0.000, 0.000, 14:04:52.339, 1551726292339
67, -2535.83, 0.00, 0.00, 0.00, 0.00, 0.00, 0.00, 0.00, 0.000, 0.000, 0.000, 14:04:52.346, 1551726292346
68, -2575.97, 0.00, 0.00, 0.00, 0.00, 0.00, 0.00, 0.00, 0.000, 0.000, 0.000, 14:04:52.353, 1551726292353
69, -2560.55, 0.00, 0.00, 0.00, 0.00, 0.00, 0.00, 0.00, 0.000, 0.000, 0.000, 14:04:52.353, 1551726292353
70, -2525.05, 0.00, 0.00, 0.00, 0.00, 0.00, 0.00, 0.00, -0.656, 0.714, 0.176, 14:04:52.362, 1551726292362
71, -2536.21, 0.00, 0.00, 0.00, 0.00, 0.00, 0.00, 0.00, 0.000, 0.000, 0.000, 14:04:52.362, 1551726292362
72, -2578.43, 0.00, 0.00, 0.00, 0.00, 0.00, 0.00, 0.00, 0.000, 0.000, 0.000, 14:04:52.369, 1551726292369
73, -2569.44, 0.00, 0.00, 0.00, 0.00, 0.00, 0.00, 0.00, 0.000, 0.000, 0.000, 14:04:52.369, 1551726292369
74, -2520.54, 0.00, 0.00, 0.00, 0.00, 0.00, 0.00, 0.00, 0.000, 0.000, 0.000, 14:04:52.376, 1551726292376
75, -2527.40, 0.00, 0.00, 0.00, 0.00, 0.00, 0.00, 0.00, 0.000, 0.000, 0.000, 14:04:52.376, 1551726292376
76, -2567.92, 0.00, 0.00, 0.00, 0.00, 0.00, 0.00, 0.00, 0.000, 0.000, 0.000, 14:04:52.384, 1551726292384
77, -2569.38, 0.00, 0.00, 0.00, 0.00, 0.00, 0.00, 0.00, 0.000, 0.000, 0.000, 14:04:52.384, 1551726292384
78, -2526.82, 0.00, 0.00, 0.00, 0.00, 0.00, 0.00, 0.00, 0.000, 0.000, 0.000, 14:04:52.392, 1551726292392
79, -2532.03, 0.00, 0.00, 0.00, 0.00, 0.00, 0.00, 0.00, 0.000, 0.000, 0.000, 14:04:52.392, 1551726292392
80, -2570.58, 0.00, 0.00, 0.00, 0.00, 0.00, 0.00, 0.00, -0.660, 0.714, 0.174, 14:04:52.399, 1551726292399
81, -2577.60, 0.00, 0.00, 0.00, 0.00, 0.00, 0.00, 0.00, 0.000, 0.000, 0.000, 14:04:52.399, 1551726292399
82, -2526.73, 0.00, 0.00, 0.00, 0.00, 0.00, 0.00, 0.00, 0.000, 0.000, 0.000, 14:04:52.405, 1551726292405
83, -2514.95, 0.00, 0.00, 0.00, 0.00, 0.00, 0.00, 0.00, 0.000, 0.000, 0.000, 14:04:52.414, 1551726292414
84, -2544.61, 0.00, 0.00, 0.00, 0.00, 0.00, 0.00, 0.00, 0.000, 0.000, 0.000, 14:04:52.414, 1551726292414
85, -2581.56, 0.00, 0.00, 0.00, 0.00, 0.00, 0.00, 0.00, 0.000, 0.000, 0.000, 14:04:52.421, 1551726292421
86, -2537.73, 0.00, 0.00, 0.00, 0.00, 0.00, 0.00, 0.00, 0.000, 0.000, 0.000, 14:04:52.422, 1551726292422
87, -2514.59, 0.00, 0.00, 0.00, 0.00, 0.00, 0.00, 0.00, 0.000, 0.000, 0.000, 14:04:52.429, 1551726292429
88, -2538.91, 0.00, 0.00, 0.00, 0.00, 0.00, 0.00, 0.00, 0.000, 0.000, 0.000, 14:04:52.429, 1551726292429
89, -2585.36, 0.00, 0.00, 0.00, 0.00, 0.00, 0.00, 0.00, 0.000, 0.000, 0.000, 14:04:52.436, 1551726292436
90, -2552.73, 0.00, 0.00, 0.00, 0.00, 0.00, 0.00, 0.00, -0.660, 0.716, 0.172, 14:04:52.436, 1551726292436
91, -2519.67, 0.00, 0.00, 0.00, 0.00, 0.00, 0.00, 0.00, 0.000, 0.000, 0.000, 14:04:52.444, 1551726292444
92, -2538.15, 0.00, 0.00, 0.00, 0.00, 0.00, 0.00, 0.00, 0.000, 0.000, 0.000, 14:04:52.444, 1551726292444
93, -2587.80, 0.00, 0.00, 0.00, 0.00, 0.00, 0.00, 0.00, 0.000, 0.000, 0.000, 14:04:52.452, 1551726292452
94, -2566.29, 0.00, 0.00, 0.00, 0.00, 0.00, 0.00, 0.00, 0.000, 0.000, 0.000, 14:04:52.452, 1551726292452
95, -2525.90, 0.00, 0.00, 0.00, 0.00, 0.00, 0.00, 0.00, 0.000, 0.000, 0.000, 14:04:52.459, 1551726292459
96, -2539.14, 0.00, 0.00, 0.00, 0.00, 0.00, 0.00, 0.00, 0.000, 0.000, 0.000, 14:04:52.459, 1551726292459
97, -2577.42, 0.00, 0.00, 0.00, 0.00, 0.00, 0.00, 0.00, 0.000, 0.000, 0.000, 14:04:52.466, 1551726292466
98, -2570.61, 0.00, 0.00, 0.00, 0.00, 0.00, 0.00, 0.00, 0.000, 0.000, 0.000, 14:04:52.474, 1551726292474
99, -2530.22, 0.00, 0.00, 0.00, 0.00, 0.00, 0.00, 0.00, 0.000, 0.000, 0.000, 14:04:52.474, 1551726292474
100, -2533.41, 0.00, 0.00, 0.00, 0.00, 0.00, 0.00, 0.00, -0.654, 0.718, 0.176, 14:04:52.482, 1551726292482
101, -2574.61, 0.00, 0.00, 0.00, 0.00, 0.00, 0.00, 0.00, 0.000, 0.000, 0.000, 14:04:52.482, 1551726292482
102, -2584.33, 0.00, 0.00, 0.00, 0.00, 0.00, 0.00, 0.00, 0.000, 0.000, 0.000, 14:04:52.488, 1551726292488
103, -2539.54, 0.00, 0.00, 0.00, 0.00, 0.00, 0.00, 0.00, 0.000, 0.000, 0.000, 14:04:52.489, 1551726292489
104, -2531.38, 0.00, 0.00, 0.00, 0.00, 0.00, 0.00, 0.00, 0.000, 0.000, 0.000, 14:04:52.497, 1551726292497
105, -2559.70, 0.00, 0.00, 0.00, 0.00, 0.00, 0.00, 0.00, 0.000, 0.000, 0.000, 14:04:52.497, 1551726292497
106, -2580.04, 0.00, 0.00, 0.00, 0.00, 0.00, 0.00, 0.00, 0.000, 0.000, 0.000, 14:04:52.505, 1551726292505
107, -2534.58, 0.00, 0.00, 0.00, 0.00, 0.00, 0.00, 0.00, 0.000, 0.000, 0.000, 14:04:52.505, 1551726292505
108, -2523.42, 0.00, 0.00, 0.00, 0.00, 0.00, 0.00, 0.00, 0.000, 0.000, 0.000, 14:04:52.511, 1551726292511
109, -2548.48, 0.00, 0.00, 0.00, 0.00, 0.00, 0.00, 0.00, 0.000, 0.000, 0.000, 14:04:52.511, 1551726292511
110, -2581.83, 0.00, 0.00, 0.00, 0.00, 0.00, 0.00, 0.00, -0.652, 0.718, 0.174, 14:04:52.519, 1551726292519
111, -2547.03, 0.00, 0.00, 0.00, 0.00, 0.00, 0.00, 0.00, 0.000, 0.000, 0.000, 14:04:52.519, 1551726292519
112, -2526.02, 0.00, 0.00, 0.00, 0.00, 0.00, 0.00, 0.00, 0.000, 0.000, 0.000, 14:04:52.526, 1551726292526
113, -2547.09, 0.00, 0.00, 0.00, 0.00, 0.00, 0.00, 0.00, 0.000, 0.000, 0.000, 14:04:52.534, 1551726292534
114, -2584.42, 0.00, 0.00, 0.00, 0.00, 0.00, 0.00, 0.00, 0.000, 0.000, 0.000, 14:04:52.534, 1551726292534
115, -2563.34, 0.00, 0.00, 0.00, 0.00, 0.00, 0.00, 0.00, 0.000, 0.000, 0.000, 14:04:52.540, 1551726292540
116, -2533.06, 0.00, 0.00, 0.00, 0.00, 0.00, 0.00, 0.00, 0.000, 0.000, 0.000, 14:04:52.541, 1551726292541
117, -2533.77, 0.00, 0.00, 0.00, 0.00, 0.00, 0.00, 0.00, 0.000, 0.000, 0.000, 14:04:52.549, 1551726292549
118, -2576.17, 0.00, 0.00, 0.00, 0.00, 0.00, 0.00, 0.00, 0.000, 0.000, 0.000, 14:04:52.549, 1551726292549
119, -2554.00, 0.00, 0.00, 0.00, 0.00, 0.00, 0.00, 0.00, 0.000, 0.000, 0.000, 14:04:52.557, 1551726292557
120, -2515.06, 0.00, 0.00, 0.00, 0.00, 0.00, 0.00, 0.00, -0.660, 0.720, 0.176, 14:04:52.557, 1551726292557
121, -2532.65, 0.00, 0.00, 0.00, 0.00, 0.00, 0.00, 0.00, 0.000, 0.000, 0.000, 14:04:52.564, 1551726292564
122, -2574.56, 0.00, 0.00, 0.00, 0.00, 0.00, 0.00, 0.00, 0.000, 0.000, 0.000, 14:04:52.564, 1551726292564
123, -2571.17, 0.00, 0.00, 0.00, 0.00, 0.00, 0.00, 0.00, 0.000, 0.000, 0.000, 14:04:52.572, 1551726292572
124, -2524.34, 0.00, 0.00, 0.00, 0.00, 0.00, 0.00, 0.00, 0.000, 0.000, 0.000, 14:04:52.572, 1551726292572
125, -2525.68, 0.00, 0.00, 0.00, 0.00, 0.00, 0.00, 0.00, 0.000, 0.000, 0.000, 14:04:52.579, 1551726292579
126, -2557.53, 0.00, 0.00, 0.00, 0.00, 0.00, 0.00, 0.00, 0.000, 0.000, 0.000, 14:04:52.579, 1551726292579
127, -2569.20, 0.00, 0.00, 0.00, 0.00, 0.00, 0.00, 0.00, 0.000, 0.000, 0.000, 14:04:52.586, 1551726292586
128, -2527.58, 0.00, 0.00, 0.00, 0.00, 0.00, 0.00, 0.00, 0.000, 0.000, 0.000, 14:04:52.587, 1551726292587
129, -2523.22, 0.00, 0.00, 0.00, 0.00, 0.00, 0.00, 0.00, 0.000, 0.000, 0.000, 14:04:52.593, 1551726292593
130, -2555.27, 0.00, 0.00, 0.00, 0.00, 0.00, 0.00, 0.00, -0.658, 0.716, 0.174, 14:04:52.602, 1551726292602
131, -2580.22, 0.00, 0.00, 0.00, 0.00, 0.00, 0.00, 0.00, 0.000, 0.000, 0.000, 14:04:52.602, 1551726292602
132, -2529.93, 0.00, 0.00, 0.00, 0.00, 0.00, 0.00, 0.00, 0.000, 0.000, 0.000, 14:04:52.609, 1551726292609
133, -2519.67, 0.00, 0.00, 0.00, 0.00, 0.00, 0.00, 0.00, 0.000, 0.000, 0.000, 14:04:52.609, 1551726292609
134, -2549.71, 0.00, 0.00, 0.00, 0.00, 0.00, 0.00, 0.00, 0.000, 0.000, 0.000, 14:04:52.617, 1551726292617
135, -2586.45, 0.00, 0.00, 0.00, 0.00, 0.00, 0.00, 0.00, 0.000, 0.000, 0.000, 14:04:52.618, 1551726292618
136, -2550.94, 0.00, 0.00, 0.00, 0.00, 0.00, 0.00, 0.00, 0.000, 0.000, 0.000, 14:04:52.624, 1551726292624
137, -2530.73, 0.00, 0.00, 0.00, 0.00, 0.00, 0.00, 0.00, 0.000, 0.000, 0.000, 14:04:52.624, 1551726292624
138, -2540.45, 0.00, 0.00, 0.00, 0.00, 0.00, 0.00, 0.00, 0.000, 0.000, 0.000, 14:04:52.632, 1551726292632
139, -2579.97, 0.00, 0.00, 0.00, 0.00, 0.00, 0.00, 0.00, -0.654, 0.714, 0.178, 14:04:52.633, 1551726292633
140, -2555.97, 0.00, 0.00, 0.00, 0.00, 0.00, 0.00, 0.00, 0.000, 0.000, 0.000, 14:04:52.639, 1551726292639
141, -2519.60, 0.00, 0.00, 0.00, 0.00, 0.00, 0.00, 0.00, 0.000, 0.000, 0.000, 14:04:52.640, 1551726292640
142, -2539.76, 0.00, 0.00, 0.00, 0.00, 0.00, 0.00, 0.00, 0.000, 0.000, 0.000, 14:04:52.646, 1551726292646
143, -2584.13, 0.00, 0.00, 0.00, 0.00, 0.00, 0.00, 0.00, 0.000, 0.000, 0.000, 14:04:52.646, 1551726292646
144, -2566.36, 0.00, 0.00, 0.00, 0.00, 0.00, 0.00, 0.00, 0.000, 0.000, 0.000, 14:04:52.654, 1551726292654
145, -2524.96, 0.00, 0.00, 0.00, 0.00, 0.00, 0.00, 0.00, 0.000, 0.000, 0.000, 14:04:52.661, 1551726292661
146, -2535.58, 0.00, 0.00, 0.00, 0.00, 0.00, 0.00, 0.00, 0.000, 0.000, 0.000, 14:04:52.661, 1551726292661
147, -2572.51, 0.00, 0.00, 0.00, 0.00, 0.00, 0.00, 0.00, 0.000, 0.000, 0.000, 14:04:52.669, 1551726292669
148, -2573.56, 0.00, 0.00, 0.00, 0.00, 0.00, 0.00, 0.00, 0.000, 0.000, 0.000, 14:04:52.669, 1551726292669
149, -2527.94, 0.00, 0.00, 0.00, 0.00, 0.00, 0.00, 0.00, -0.658, 0.718, 0.178, 14:04:52.676, 1551726292676
150, -2526.73, 0.00, 0.00, 0.00, 0.00, 0.00, 0.00, 0.00, 0.000, 0.000, 0.000, 14:04:52.676, 1551726292676
151, -2558.54, 0.00, 0.00, 0.00, 0.00, 0.00, 0.00, 0.00, 0.000, 0.000, 0.000, 14:04:52.684, 1551726292684
152, -2579.41, 0.00, 0.00, 0.00, 0.00, 0.00, 0.00, 0.00, 0.000, 0.000, 0.000, 14:04:52.684, 1551726292684
153, -2529.17, 0.00, 0.00, 0.00, 0.00, 0.00, 0.00, 0.00, 0.000, 0.000, 0.000, 14:04:52.692, 1551726292692
154, -2519.87, 0.00, 0.00, 0.00, 0.00, 0.00, 0.00, 0.00, 0.000, 0.000, 0.000, 14:04:52.692, 1551726292692
155, -2548.88, 0.00, 0.00, 0.00, 0.00, 0.00, 0.00, 0.00, 0.000, 0.000, 0.000, 14:04:52.699, 1551726292699
156, -2580.11, 0.00, 0.00, 0.00, 0.00, 0.00, 0.00, 0.00, 0.000, 0.000, 0.000, 14:04:52.699, 1551726292699
157, -2538.17, 0.00, 0.00, 0.00, 0.00, 0.00, 0.00, 0.00, 0.000, 0.000, 0.000, 14:04:52.707, 1551726292707
158, -2520.09, 0.00, 0.00, 0.00, 0.00, 0.00, 0.00, 0.00, 0.000, 0.000, 0.000, 14:04:52.707, 1551726292707
159, -2539.36, 0.00, 0.00, 0.00, 0.00, 0.00, 0.00, 0.00, -0.654, 0.714, 0.178, 14:04:52.714, 1551726292714
160, -2576.40, 0.00, 0.00, 0.00, 0.00, 0.00, 0.00, 0.00, 0.000, 0.000, 0.000, 14:04:52.722, 1551726292722
161, -2541.48, 0.00, 0.00, 0.00, 0.00, 0.00, 0.00, 0.00, 0.000, 0.000, 0.000, 14:04:52.722, 1551726292722
162, -2516.72, 0.00, 0.00, 0.00, 0.00, 0.00, 0.00, 0.00, 0.000, 0.000, 0.000, 14:04:52.728, 1551726292728
163, -2542.38, 0.00, 0.00, 0.00, 0.00, 0.00, 0.00, 0.00, 0.000, 0.000, 0.000, 14:04:52.728, 1551726292728
164, -2582.01, 0.00, 0.00, 0.00, 0.00, 0.00, 0.00, 0.00, 0.000, 0.000, 0.000, 14:04:52.736, 1551726292736
165, -2560.77, 0.00, 0.00, 0.00, 0.00, 0.00, 0.00, 0.00, 0.000, 0.000, 0.000, 14:04:52.736, 1551726292736
166, -2525.28, 0.00, 0.00, 0.00, 0.00, 0.00, 0.00, 0.00, 0.000, 0.000, 0.000, 14:04:52.744, 1551726292744
167, -2539.76, 0.00, 0.00, 0.00, 0.00, 0.00, 0.00, 0.00, 0.000, 0.000, 0.000, 14:04:52.745, 1551726292745
168, -2572.98, 0.00, 0.00, 0.00, 0.00, 0.00, 0.00, 0.00, 0.000, 0.000, 0.000, 14:04:52.751, 1551726292751
169, -2571.86, 0.00, 0.00, 0.00, 0.00, 0.00, 0.00, 0.00, -0.652, 0.712, 0.178, 14:04:52.751, 1551726292751
170, -2522.53, 0.00, 0.00, 0.00, 0.00, 0.00, 0.00, 0.00, 0.000, 0.000, 0.000, 14:04:52.759, 1551726292759
171, -2531.94, 0.00, 0.00, 0.00, 0.00, 0.00, 0.00, 0.00, 0.000, 0.000, 0.000, 14:04:52.759, 1551726292759
172, -2570.25, 0.00, 0.00, 0.00, 0.00, 0.00, 0.00, 0.00, 0.000, 0.000, 0.000, 14:04:52.767, 1551726292767
173, -2571.48, 0.00, 0.00, 0.00, 0.00, 0.00, 0.00, 0.00, 0.000, 0.000, 0.000, 14:04:52.767, 1551726292767
174, -2527.29, 0.00, 0.00, 0.00, 0.00, 0.00, 0.00, 0.00, 0.000, 0.000, 0.000, 14:04:52.774, 1551726292774
175, -2531.33, 0.00, 0.00, 0.00, 0.00, 0.00, 0.00, 0.00, 0.000, 0.000, 0.000, 14:04:52.781, 1551726292781
176, -2570.32, 0.00, 0.00, 0.00, 0.00, 0.00, 0.00, 0.00, 0.000, 0.000, 0.000, 14:04:52.781, 1551726292781
177, -2592.96, 0.00, 0.00, 0.00, 0.00, 0.00, 0.00, 0.00, 0.000, 0.000, 0.000, 14:04:52.789, 1551726292789
178, -2544.54, 0.00, 0.00, 0.00, 0.00, 0.00, 0.00, 0.00, 0.000, 0.000, 0.000, 14:04:52.789, 1551726292789
179, -2536.34, 0.00, 0.00, 0.00, 0.00, 0.00, 0.00, 0.00, -0.652, 0.720, 0.180, 14:04:52.796, 1551726292796
180, -2568.91, 0.00, 0.00, 0.00, 0.00, 0.00, 0.00, 0.00, 0.000, 0.000, 0.000, 14:04:52.797, 1551726292797
181, -2586.97, 0.00, 0.00, 0.00, 0.00, 0.00, 0.00, 0.00, 0.000, 0.000, 0.000, 14:04:52.805, 1551726292805
182, -2536.34, 0.00, 0.00, 0.00, 0.00, 0.00, 0.00, 0.00, 0.000, 0.000, 0.000, 14:04:52.805, 1551726292805
183, -2521.90, 0.00, 0.00, 0.00, 0.00, 0.00, 0.00, 0.00, 0.000, 0.000, 0.000, 14:04:52.811, 1551726292811
184, -2544.50, 0.00, 0.00, 0.00, 0.00, 0.00, 0.00, 0.00, 0.000, 0.000, 0.000, 14:04:52.811, 1551726292811
185, -2586.28, 0.00, 0.00, 0.00, 0.00, 0.00, 0.00, 0.00, 0.000, 0.000, 0.000, 14:04:52.819, 1551726292819
186, -2553.17, 0.00, 0.00, 0.00, 0.00, 0.00, 0.00, 0.00, 0.000, 0.000, 0.000, 14:04:52.819, 1551726292819
187, -2522.08, 0.00, 0.00, 0.00, 0.00, 0.00, 0.00, 0.00, 0.000, 0.000, 0.000, 14:04:52.827, 1551726292827
188, -2540.52, 0.00, 0.00, 0.00, 0.00, 0.00, 0.00, 0.00, 0.000, 0.000, 0.000, 14:04:52.827, 1551726292827
189, -2583.91, 0.00, 0.00, 0.00, 0.00, 0.00, 0.00, 0.00, -0.650, 0.718, 0.178, 14:04:52.833, 1551726292833
190, -2559.99, 0.00, 0.00, 0.00, 0.00, 0.00, 0.00, 0.00, 0.000, 0.000, 0.000, 14:04:52.834, 1551726292834
191, -2533.46, 0.00, 0.00, 0.00, 0.00, 0.00, 0.00, 0.00, 0.000, 0.000, 0.000, 14:04:52.841, 1551726292841
192, -2537.84, 0.00, 0.00, 0.00, 0.00, 0.00, 0.00, 0.00, 0.000, 0.000, 0.000, 14:04:52.849, 1551726292849
193, -2575.57, 0.00, 0.00, 0.00, 0.00, 0.00, 0.00, 0.00, 0.000, 0.000, 0.000, 14:04:52.849, 1551726292849
194, -2568.68, 0.00, 0.00, 0.00, 0.00, 0.00, 0.00, 0.00, 0.000, 0.000, 0.000, 14:04:52.857, 1551726292857
195, -2525.05, 0.00, 0.00, 0.00, 0.00, 0.00, 0.00, 0.00, 0.000, 0.000, 0.000, 14:04:52.857, 1551726292857
196, -2530.60, 0.00, 0.00, 0.00, 0.00, 0.00, 0.00, 0.00, 0.000, 0.000, 0.000, 14:04:52.863, 1551726292863
197, -2567.81, 0.00, 0.00, 0.00, 0.00, 0.00, 0.00, 0.00, 0.000, 0.000, 0.000, 14:04:52.864, 1551726292864
198, -2581.05, 0.00, 0.00, 0.00, 0.00, 0.00, 0.00, 0.00, -0.646, 0.720, 0.186, 14:04:52.871, 1551726292871
199, -2534.91, 0.00, 0.00, 0.00, 0.00, 0.00, 0.00, 0.00, 0.000, 0.000, 0.000, 14:04:52.871, 1551726292871
200, -2535.51, 0.00, 0.00, 0.00, 0.00, 0.00, 0.00, 0.00, 0.000, 0.000, 0.000, 14:04:52.880, 1551726292880
201, -2568.22, 0.00, 0.00, 0.00, 0.00, 0.00, 0.00, 0.00, 0.000, 0.000, 0.000, 14:04:52.880, 1551726292880
202, -2583.12, 0.00, 0.00, 0.00, 0.00, 0.00, 0.00, 0.00, 0.000, 0.000, 0.000, 14:04:52.887, 1551726292887
203, -2540.92, 0.00, 0.00, 0.00, 0.00, 0.00, 0.00, 0.00, 0.000, 0.000, 0.000, 14:04:52.887, 1551726292887
204, -2531.42, 0.00, 0.00, 0.00, 0.00, 0.00, 0.00, 0.00, 0.000, 0.000, 0.000, 14:04:52.894, 1551726292894
205, -2557.06, 0.00, 0.00, 0.00, 0.00, 0.00, 0.00, 0.00, 0.000, 0.000, 0.000, 14:04:52.894, 1551726292894
206, -2590.77, 0.00, 0.00, 0.00, 0.00, 0.00, 0.00, 0.00, 0.000, 0.000, 0.000, 14:04:52.901, 1551726292901
207, -2560.77, 0.00, 0.00, 0.00, 0.00, 0.00, 0.00, 0.00, 0.000, 0.000, 0.000, 14:04:52.909, 1551726292909
208, -2540.16, 0.00, 0.00, 0.00, 0.00, 0.00, 0.00, 0.00, -0.646, 0.720, 0.180, 14:04:52.910, 1551726292910
209, -2553.17, 0.00, 0.00, 0.00, 0.00, 0.00, 0.00, 0.00, 0.000, 0.000, 0.000, 14:04:52.916, 1551726292916
210, -2592.96, 0.00, 0.00, 0.00, 0.00, 0.00, 0.00, 0.00, 0.000, 0.000, 0.000, 14:04:52.917, 1551726292917
211, -2564.06, 0.00, 0.00, 0.00, 0.00, 0.00, 0.00, 0.00, 0.000, 0.000, 0.000, 14:04:52.925, 1551726292925
212, -2539.29, 0.00, 0.00, 0.00, 0.00, 0.00, 0.00, 0.00, 0.000, 0.000, 0.000, 14:04:52.925, 1551726292925
213, -2546.78, 0.00, 0.00, 0.00, 0.00, 0.00, 0.00, 0.00, 0.000, 0.000, 0.000, 14:04:52.932, 1551726292932
214, -2583.55, 0.00, 0.00, 0.00, 0.00, 0.00, 0.00, 0.00, 0.000, 0.000, 0.000, 14:04:52.932, 1551726292932
215, -2568.71, 0.00, 0.00, 0.00, 0.00, 0.00, 0.00, 0.00, 0.000, 0.000, 0.000, 14:04:52.940, 1551726292940
216, -2533.01, 0.00, 0.00, 0.00, 0.00, 0.00, 0.00, 0.00, 0.000, 0.000, 0.000, 14:04:52.940, 1551726292940
217, -2541.51, 0.00, 0.00, 0.00, 0.00, 0.00, 0.00, 0.00, 0.000, 0.000, 0.000, 14:04:52.946, 1551726292946
218, -2577.65, 0.00, 0.00, 0.00, 0.00, 0.00, 0.00, 0.00, -0.650, 0.710, 0.174, 14:04:52.947, 1551726292947
219, -2577.60, 0.00, 0.00, 0.00, 0.00, 0.00, 0.00, 0.00, 0.000, 0.000, 0.000, 14:04:52.955, 1551726292955
220, -2530.53, 0.00, 0.00, 0.00, 0.00, 0.00, 0.00, 0.00, 0.000, 0.000, 0.000, 14:04:52.955, 1551726292955
221, -2536.79, 0.00, 0.00, 0.00, 0.00, 0.00, 0.00, 0.00, 0.000, 0.000, 0.000, 14:04:52.962, 1551726292962
222, -2574.68, 0.00, 0.00, 0.00, 0.00, 0.00, 0.00, 0.00, 0.000, 0.000, 0.000, 14:04:52.969, 1551726292969
223, -2587.37, 0.00, 0.00, 0.00, 0.00, 0.00, 0.00, 0.00, 0.000, 0.000, 0.000, 14:04:52.970, 1551726292970
224, -2543.23, 0.00, 0.00, 0.00, 0.00, 0.00, 0.00, 0.00, 0.000, 0.000, 0.000, 14:04:52.976, 1551726292976
225, -2536.25, 0.00, 0.00, 0.00, 0.00, 0.00, 0.00, 0.00, 0.000, 0.000, 0.000, 14:04:52.976, 1551726292976
226, -2562.87, 0.00, 0.00, 0.00, 0.00, 0.00, 0.00, 0.00, 0.000, 0.000, 0.000, 14:04:52.984, 1551726292984
227, -2605.48, 0.00, 0.00, 0.00, 0.00, 0.00, 0.00, 0.00, 0.000, 0.000, 0.000, 14:04:52.985, 1551726292985
228, -2554.42, 0.00, 0.00, 0.00, 0.00, 0.00, 0.00, 0.00, -0.656, 0.712, 0.172, 14:04:52.992, 1551726292992
229, -2527.83, 0.00, 0.00, 0.00, 0.00, 0.00, 0.00, 0.00, 0.000, 0.000, 0.000, 14:04:52.992, 1551726292992
230, -2554.47, 0.00, 0.00, 0.00, 0.00, 0.00, 0.00, 0.00, 0.000, 0.000, 0.000, 14:04:52.999, 1551726292999
231, -2590.43, 0.00, 0.00, 0.00, 0.00, 0.00, 0.00, 0.00, 0.000, 0.000, 0.000, 14:04:52.999, 1551726292999
232, -2547.79, 0.00, 0.00, 0.00, 0.00, 0.00, 0.00, 0.00, 0.000, 0.000, 0.000, 14:04:53.006, 1551726293006
233, -2531.13, 0.00, 0.00, 0.00, 0.00, 0.00, 0.00, 0.00, 0.000, 0.000, 0.000, 14:04:53.007, 1551726293007
234, -2552.05, 0.00, 0.00, 0.00, 0.00, 0.00, 0.00, 0.00, 0.000, 0.000, 0.000, 14:04:53.015, 1551726293015
235, -2587.82, 0.00, 0.00, 0.00, 0.00, 0.00, 0.00, 0.00, 0.000, 0.000, 0.000, 14:04:53.015, 1551726293015
236, -2558.29, 0.00, 0.00, 0.00, 0.00, 0.00, 0.00, 0.00, 0.000, 0.000, 0.000, 14:04:53.022, 1551726293022
237, -2525.32, 0.00, 0.00, 0.00, 0.00, 0.00, 0.00, 0.00, 0.000, 0.000, 0.000, 14:04:53.029, 1551726293029
238, -2538.35, 0.00, 0.00, 0.00, 0.00, 0.00, 0.00, 0.00, -0.656, 0.714, 0.176, 14:04:53.029, 1551726293029
239, -2579.46, 0.00, 0.00, 0.00, 0.00, 0.00, 0.00, 0.00, 0.000, 0.000, 0.000, 14:04:53.037, 1551726293037
240, -2566.92, 0.00, 0.00, 0.00, 0.00, 0.00, 0.00, 0.00, 0.000, 0.000, 0.000, 14:04:53.037, 1551726293037
241, -2530.64, 0.00, 0.00, 0.00, 0.00, 0.00, 0.00, 0.00, 0.000, 0.000, 0.000, 14:04:53.045, 1551726293045
242, -2536.83, 0.00, 0.00, 0.00, 0.00, 0.00, 0.00, 0.00, 0.000, 0.000, 0.000, 14:04:53.045, 1551726293045
243, -2570.88, 0.00, 0.00, 0.00, 0.00, 0.00, 0.00, 0.00, 0.000, 0.000, 0.000, 14:04:53.051, 1551726293051
244, -2569.27, 0.00, 0.00, 0.00, 0.00, 0.00, 0.00, 0.00, 0.000, 0.000, 0.000, 14:04:53.051, 1551726293051
245, -2524.18, 0.00, 0.00, 0.00, 0.00, 0.00, 0.00, 0.00, 0.000, 0.000, 0.000, 14:04:53.059, 1551726293059
246, -2527.80, 0.00, 0.00, 0.00, 0.00, 0.00, 0.00, 0.00, 0.000, 0.000, 0.000, 14:04:53.059, 1551726293059
247, -2564.53, 0.00, 0.00, 0.00, 0.00, 0.00, 0.00, 0.00, 0.000, 0.000, 0.000, 14:04:53.067, 1551726293067
248, -2580.31, 0.00, 0.00, 0.00, 0.00, 0.00, 0.00, 0.00, -0.658, 0.716, 0.168, 14:04:53.067, 1551726293067
249, -2538.31, 0.00, 0.00, 0.00, 0.00, 0.00, 0.00, 0.00, 0.000, 0.000, 0.000, 14:04:53.074, 1551726293074
250, -2529.01, 0.00, 0.00, 0.00, 0.00, 0.00, 0.00, 0.00, 0.000, 0.000, 0.000, 14:04:53.074, 1551726293074
251, -2555.99, 0.00, 0.00, 0.00, 0.00, 0.00, 0.00, 0.00, 0.000, 0.000, 0.000, 14:04:53.081, 1551726293081
252, -2579.75, 0.00, 0.00, 0.00, 0.00, 0.00, 0.00, 0.00, 0.000, 0.000, 0.000, 14:04:53.081, 1551726293081
253, -2536.59, 0.00, 0.00, 0.00, 0.00, 0.00, 0.00, 0.00, 0.000, 0.000, 0.000, 14:04:53.089, 1551726293089
