%OpenBCI Raw EEG Data
%Number of channels = 8
%Sample Rate = 250.0 Hz
%First Column = SampleIndex
%Last Column = Timestamp 
%Other Columns = EEG data in microvolts followed by Accel Data (in G) interleaved with Aux Data
0, -4185.79, 0.00, 0.00, 0.00, 0.00, 0.00, 0.00, 0.00, -0.644, 0.708, -0.262, 14:09:34.310, 1551726574310
1, -4196.76, 0.00, 0.00, 0.00, 0.00, 0.00, 0.00, 0.00, 0.000, 0.000, 0.000, 14:09:34.317, 1551726574317
2, -4156.69, 0.00, 0.00, 0.00, 0.00, 0.00, 0.00, 0.00, 0.000, 0.000, 0.000, 14:09:34.317, 1551726574317
3, -4147.08, 0.00, 0.00, 0.00, 0.00, 0.00, 0.00, 0.00, 0.000, 0.000, 0.000, 14:09:34.325, 1551726574325
4, -4168.02, 0.00, 0.00, 0.00, 0.00, 0.00, 0.00, 0.00, 0.000, 0.000, 0.000, 14:09:34.325, 1551726574325
5, -4197.17, 0.00, 0.00, 0.00, 0.00, 0.00, 0.00, 0.00, 0.000, 0.000, 0.000, 14:09:34.333, 1551726574333
6, -4175.75, 0.00, 0.00, 0.00, 0.00, 0.00, 0.00, 0.00, 0.000, 0.000, 0.000, 14:09:34.333, 1551726574333
7, -4163.24, 0.00, 0.00, 0.00, 0.00, 0.00, 0.00, 0.00, 0.000, 0.000, 0.000, 14:09:34.340, 1551726574340
8, -4173.74, 0.00, 0.00, 0.00, 0.00, 0.00, 0.00, 0.00, 0.000, 0.000, 0.000, 14:09:34.340, 1551726574340
9, -4212.57, 0.00, 0.00, 0.00, 0.00, 0.00, 0.00, 0.00, 0.000, 0.000, 0.000, 14:09:34.348, 1551726574348
10, -4183.33, 0.00, 0.00, 0.00, 0.00, 0.00, 0.00, 0.00, -0.648, 0.708, -0.242, 14:09:34.348, 1551726574348
11, -4152.86, 0.00, 0.00, 0.00, 0.00, 0.00, 0.00, 0.00, 0.000, 0.000, 0.000, 14:09:34.361, 1551726574361
12, -4170.08, 0.00, 0.00, 0.00, 0.00, 0.00, 0.00, 0.00, 0.000, 0.000, 0.000, 14:09:34.362, 1551726574362
13, -4203.83, 0.00, 0.00, 0.00, 0.00, 0.00, 0.00, 0.00, 0.000, 0.000, 0.000, 14:09:34.364, 1551726574364
14, -4195.85, 0.00, 0.00, 0.00, 0.00, 0.00, 0.00, 0.00, 0.000, 0.000, 0.000, 14:09:34.364, 1551726574364
15, -4147.37, 0.00, 0.00, 0.00, 0.00, 0.00, 0.00, 0.00, 0.000, 0.000, 0.000, 14:09:34.370, 1551726574370
16, -4153.89, 0.00, 0.00, 0.00, 0.00, 0.00, 0.00, 0.00, 0.000, 0.000, 0.000, 14:09:34.377, 1551726574377
17, -4179.64, 0.00, 0.00, 0.00, 0.00, 0.00, 0.00, 0.00, 0.000, 0.000, 0.000, 14:09:34.377, 1551726574377
18, -4178.77, 0.00, 0.00, 0.00, 0.00, 0.00, 0.00, 0.00, 0.000, 0.000, 0.000, 14:09:34.385, 1551726574385
19, -4138.00, 0.00, 0.00, 0.00, 0.00, 0.00, 0.00, 0.00, 0.000, 0.000, 0.000, 14:09:34.385, 1551726574385
20, -4141.06, 0.00, 0.00, 0.00, 0.00, 0.00, 0.00, 0.00, -0.652, 0.712, -0.230, 14:09:34.393, 1551726574393
21, -4175.33, 0.00, 0.00, 0.00, 0.00, 0.00, 0.00, 0.00, 0.000, 0.000, 0.000, 14:09:34.393, 1551726574393
22, -4190.86, 0.00, 0.00, 0.00, 0.00, 0.00, 0.00, 0.00, 0.000, 0.000, 0.000, 14:09:34.400, 1551726574400
23, -4153.60, 0.00, 0.00, 0.00, 0.00, 0.00, 0.00, 0.00, 0.000, 0.000, 0.000, 14:09:34.401, 1551726574401
24, -4150.99, 0.00, 0.00, 0.00, 0.00, 0.00, 0.00, 0.00, 0.000, 0.000, 0.000, 14:09:34.407, 1551726574407
25, -4176.51, 0.00, 0.00, 0.00, 0.00, 0.00, 0.00, 0.00, 0.000, 0.000, 0.000, 14:09:34.407, 1551726574407
26, -4205.06, 0.00, 0.00, 0.00, 0.00, 0.00, 0.00, 0.00, 0.000, 0.000, 0.000, 14:09:34.416, 1551726574416
27, -4167.91, 0.00, 0.00, 0.00, 0.00, 0.00, 0.00, 0.00, 0.000, 0.000, 0.000, 14:09:34.416, 1551726574416
28, -4155.64, 0.00, 0.00, 0.00, 0.00, 0.00, 0.00, 0.00, 0.000, 0.000, 0.000, 14:09:34.423, 1551726574423
29, -4181.99, 0.00, 0.00, 0.00, 0.00, 0.00, 0.00, 0.00, 0.000, 0.000, 0.000, 14:09:34.423, 1551726574423
30, -4204.85, 0.00, 0.00, 0.00, 0.00, 0.00, 0.00, 0.00, -0.652, 0.708, -0.226, 14:09:34.430, 1551726574430
31, -4172.56, 0.00, 0.00, 0.00, 0.00, 0.00, 0.00, 0.00, 0.000, 0.000, 0.000, 14:09:34.437, 1551726574437
32, -4151.93, 0.00, 0.00, 0.00, 0.00, 0.00, 0.00, 0.00, 0.000, 0.000, 0.000, 14:09:34.437, 1551726574437
33, -4174.66, 0.00, 0.00, 0.00, 0.00, 0.00, 0.00, 0.00, 0.000, 0.000, 0.000, 14:09:34.445, 1551726574445
34, -4218.47, 0.00, 0.00, 0.00, 0.00, 0.00, 0.00, 0.00, 0.000, 0.000, 0.000, 14:09:34.445, 1551726574445
35, -4191.29, 0.00, 0.00, 0.00, 0.00, 0.00, 0.00, 0.00, 0.000, 0.000, 0.000, 14:09:34.453, 1551726574453
36, -4142.81, 0.00, 0.00, 0.00, 0.00, 0.00, 0.00, 0.00, 0.000, 0.000, 0.000, 14:09:34.453, 1551726574453
37, -4151.52, 0.00, 0.00, 0.00, 0.00, 0.00, 0.00, 0.00, 0.000, 0.000, 0.000, 14:09:34.460, 1551726574460
38, -4190.77, 0.00, 0.00, 0.00, 0.00, 0.00, 0.00, 0.00, 0.000, 0.000, 0.000, 14:09:34.460, 1551726574460
39, -4188.85, 0.00, 0.00, 0.00, 0.00, 0.00, 0.00, 0.00, 0.000, 0.000, 0.000, 14:09:34.467, 1551726574467
40, -4148.46, 0.00, 0.00, 0.00, 0.00, 0.00, 0.00, 0.00, -0.654, 0.706, -0.222, 14:09:34.468, 1551726574468
41, -4153.02, 0.00, 0.00, 0.00, 0.00, 0.00, 0.00, 0.00, 0.000, 0.000, 0.000, 14:09:34.475, 1551726574475
42, -4180.31, 0.00, 0.00, 0.00, 0.00, 0.00, 0.00, 0.00, 0.000, 0.000, 0.000, 14:09:34.475, 1551726574475
43, -4187.46, 0.00, 0.00, 0.00, 0.00, 0.00, 0.00, 0.00, 0.000, 0.000, 0.000, 14:09:34.482, 1551726574482
44, -4148.84, 0.00, 0.00, 0.00, 0.00, 0.00, 0.00, 0.00, 0.000, 0.000, 0.000, 14:09:34.483, 1551726574483
45, -4146.05, 0.00, 0.00, 0.00, 0.00, 0.00, 0.00, 0.00, 0.000, 0.000, 0.000, 14:09:34.489, 1551726574489
46, -4180.87, 0.00, 0.00, 0.00, 0.00, 0.00, 0.00, 0.00, 0.000, 0.000, 0.000, 14:09:34.497, 1551726574497
47, -4202.64, 0.00, 0.00, 0.00, 0.00, 0.00, 0.00, 0.00, 0.000, 0.000, 0.000, 14:09:34.497, 1551726574497
48, -4163.06, 0.00, 0.00, 0.00, 0.00, 0.00, 0.00, 0.00, 0.000, 0.000, 0.000, 14:09:34.505, 1551726574505
49, -4167.30, 0.00, 0.00, 0.00, 0.00, 0.00, 0.00, 0.00, 0.000, 0.000, 0.000, 14:09:34.505, 1551726574505
50, -4184.27, 0.00, 0.00, 0.00, 0.00, 0.00, 0.00, 0.00, -0.652, 0.706, -0.224, 14:09:34.512, 1551726574512
51, -4201.97, 0.00, 0.00, 0.00, 0.00, 0.00, 0.00, 0.00, 0.000, 0.000, 0.000, 14:09:34.512, 1551726574512
52, -4172.31, 0.00, 0.00, 0.00, 0.00, 0.00, 0.00, 0.00, 0.000, 0.000, 0.000, 14:09:34.519, 1551726574519
53, -4160.53, 0.00, 0.00, 0.00, 0.00, 0.00, 0.00, 0.00, 0.000, 0.000, 0.000, 14:09:34.520, 1551726574520
54, -4176.92, 0.00, 0.00, 0.00, 0.00, 0.00, 0.00, 0.00, 0.000, 0.000, 0.000, 14:09:34.528, 1551726574528
55, -4209.66, 0.00, 0.00, 0.00, 0.00, 0.00, 0.00, 0.00, 0.000, 0.000, 0.000, 14:09:34.528, 1551726574528
56, -4185.07, 0.00, 0.00, 0.00, 0.00, 0.00, 0.00, 0.00, 0.000, 0.000, 0.000, 14:09:34.536, 1551726574536
57, -4158.63, 0.00, 0.00, 0.00, 0.00, 0.00, 0.00, 0.00, 0.000, 0.000, 0.000, 14:09:34.536, 1551726574536
58, -4172.71, 0.00, 0.00, 0.00, 0.00, 0.00, 0.00, 0.00, 0.000, 0.000, 0.000, 14:09:34.544, 1551726574544
59, -4203.78, 0.00, 0.00, 0.00, 0.00, 0.00, 0.00, 0.00, 0.000, 0.000, 0.000, 14:09:34.544, 1551726574544
60, -4183.22, 0.00, 0.00, 0.00, 0.00, 0.00, 0.00, 0.00, -0.658, 0.714, -0.224, 14:09:34.549, 1551726574549
61, -4145.82, 0.00, 0.00, 0.00, 0.00, 0.00, 0.00, 0.00, 0.000, 0.000, 0.000, 14:09:34.550, 1551726574550
62, -4159.70, 0.00, 0.00, 0.00, 0.00, 0.00, 0.00, 0.00, 0.000, 0.000, 0.000, 14:09:34.557, 1551726574557
63, -4194.84, 0.00, 0.00, 0.00, 0.00, 0.00, 0.00, 0.00, 0.000, 0.000, 0.000, 14:09:34.566, 1551726574566
64, -4189.07, 0.00, 0.00, 0.00, 0.00, 0.00, 0.00, 0.00, 0.000, 0.000, 0.000, 14:09:34.566, 1551726574566
65, -4160.87, 0.00, 0.00, 0.00, 0.00, 0.00, 0.00, 0.00, 0.000, 0.000, 0.000, 14:09:34.572, 1551726574572
66, -4157.58, 0.00, 0.00, 0.00, 0.00, 0.00, 0.00, 0.00, 0.000, 0.000, 0.000, 14:09:34.572, 1551726574572
67, -4188.52, 0.00, 0.00, 0.00, 0.00, 0.00, 0.00, 0.00, 0.000, 0.000, 0.000, 14:09:34.580, 1551726574580
68, -4200.00, 0.00, 0.00, 0.00, 0.00, 0.00, 0.00, 0.00, 0.000, 0.000, 0.000, 14:09:34.580, 1551726574580
69, -4161.89, 0.00, 0.00, 0.00, 0.00, 0.00, 0.00, 0.00, -0.656, 0.714, -0.220, 14:09:34.588, 1551726574588
70, -4158.68, 0.00, 0.00, 0.00, 0.00, 0.00, 0.00, 0.00, 0.000, 0.000, 0.000, 14:09:34.588, 1551726574588
71, -4195.40, 0.00, 0.00, 0.00, 0.00, 0.00, 0.00, 0.00, 0.000, 0.000, 0.000, 14:09:34.595, 1551726574595
72, -4211.69, 0.00, 0.00, 0.00, 0.00, 0.00, 0.00, 0.00, 0.000, 0.000, 0.000, 14:09:34.595, 1551726574595
73, -4170.21, 0.00, 0.00, 0.00, 0.00, 0.00, 0.00, 0.00, 0.000, 0.000, 0.000, 14:09:34.602, 1551726574602
74, -4160.37, 0.00, 0.00, 0.00, 0.00, 0.00, 0.00, 0.00, 0.000, 0.000, 0.000, 14:09:34.603, 1551726574603
75, -4189.05, 0.00, 0.00, 0.00, 0.00, 0.00, 0.00, 0.00, 0.000, 0.000, 0.000, 14:09:34.611, 1551726574611
76, -4217.24, 0.00, 0.00, 0.00, 0.00, 0.00, 0.00, 0.00, 0.000, 0.000, 0.000, 14:09:34.611, 1551726574611
77, -4185.23, 0.00, 0.00, 0.00, 0.00, 0.00, 0.00, 0.00, 0.000, 0.000, 0.000, 14:09:34.618, 1551726574618
78, -4157.69, 0.00, 0.00, 0.00, 0.00, 0.00, 0.00, 0.00, 0.000, 0.000, 0.000, 14:09:34.625, 1551726574625
79, -4185.97, 0.00, 0.00, 0.00, 0.00, 0.00, 0.00, 0.00, -0.654, 0.716, -0.218, 14:09:34.625, 1551726574625
80, -4222.74, 0.00, 0.00, 0.00, 0.00, 0.00, 0.00, 0.00, 0.000, 0.000, 0.000, 14:09:34.633, 1551726574633
81, -4191.58, 0.00, 0.00, 0.00, 0.00, 0.00, 0.00, 0.00, 0.000, 0.000, 0.000, 14:09:34.634, 1551726574634
82, -4151.70, 0.00, 0.00, 0.00, 0.00, 0.00, 0.00, 0.00, 0.000, 0.000, 0.000, 14:09:34.640, 1551726574640
83, -4176.80, 0.00, 0.00, 0.00, 0.00, 0.00, 0.00, 0.00, 0.000, 0.000, 0.000, 14:09:34.640, 1551726574640
84, -4199.87, 0.00, 0.00, 0.00, 0.00, 0.00, 0.00, 0.00, 0.000, 0.000, 0.000, 14:09:34.648, 1551726574648
85, -4186.46, 0.00, 0.00, 0.00, 0.00, 0.00, 0.00, 0.00, 0.000, 0.000, 0.000, 14:09:34.649, 1551726574649
86, -4156.11, 0.00, 0.00, 0.00, 0.00, 0.00, 0.00, 0.00, 0.000, 0.000, 0.000, 14:09:34.655, 1551726574655
87, -4168.42, 0.00, 0.00, 0.00, 0.00, 0.00, 0.00, 0.00, 0.000, 0.000, 0.000, 14:09:34.655, 1551726574655
88, -4196.67, 0.00, 0.00, 0.00, 0.00, 0.00, 0.00, 0.00, 0.000, 0.000, 0.000, 14:09:34.663, 1551726574663
89, -4200.74, 0.00, 0.00, 0.00, 0.00, 0.00, 0.00, 0.00, -0.656, 0.714, -0.222, 14:09:34.663, 1551726574663
90, -4159.75, 0.00, 0.00, 0.00, 0.00, 0.00, 0.00, 0.00, 0.000, 0.000, 0.000, 14:09:34.671, 1551726574671
91, -4165.27, 0.00, 0.00, 0.00, 0.00, 0.00, 0.00, 0.00, 0.000, 0.000, 0.000, 14:09:34.671, 1551726574671
92, -4190.97, 0.00, 0.00, 0.00, 0.00, 0.00, 0.00, 0.00, 0.000, 0.000, 0.000, 14:09:34.677, 1551726574677
93, -4210.02, 0.00, 0.00, 0.00, 0.00, 0.00, 0.00, 0.00, 0.000, 0.000, 0.000, 14:09:34.685, 1551726574685
94, -4168.58, 0.00, 0.00, 0.00, 0.00, 0.00, 0.00, 0.00, 0.000, 0.000, 0.000, 14:09:34.685, 1551726574685
95, -4161.00, 0.00, 0.00, 0.00, 0.00, 0.00, 0.00, 0.00, 0.000, 0.000, 0.000, 14:09:34.692, 1551726574692
96, -4194.30, 0.00, 0.00, 0.00, 0.00, 0.00, 0.00, 0.00, 0.000, 0.000, 0.000, 14:09:34.693, 1551726574693
97, -4212.88, 0.00, 0.00, 0.00, 0.00, 0.00, 0.00, 0.00, 0.000, 0.000, 0.000, 14:09:34.700, 1551726574700
98, -4179.98, 0.00, 0.00, 0.00, 0.00, 0.00, 0.00, 0.00, 0.000, 0.000, 0.000, 14:09:34.701, 1551726574701
99, -4174.43, 0.00, 0.00, 0.00, 0.00, 0.00, 0.00, 0.00, -0.650, 0.718, -0.216, 14:09:34.707, 1551726574707
100, -4190.82, 0.00, 0.00, 0.00, 0.00, 0.00, 0.00, 0.00, 0.000, 0.000, 0.000, 14:09:34.707, 1551726574707
101, -4223.70, 0.00, 0.00, 0.00, 0.00, 0.00, 0.00, 0.00, 0.000, 0.000, 0.000, 14:09:34.715, 1551726574715
102, -4181.25, 0.00, 0.00, 0.00, 0.00, 0.00, 0.00, 0.00, 0.000, 0.000, 0.000, 14:09:34.716, 1551726574716
103, -4168.24, 0.00, 0.00, 0.00, 0.00, 0.00, 0.00, 0.00, 0.000, 0.000, 0.000, 14:09:34.723, 1551726574723
104, -4195.38, 0.00, 0.00, 0.00, 0.00, 0.00, 0.00, 0.00, 0.000, 0.000, 0.000, 14:09:34.723, 1551726574723
105, -4230.13, 0.00, 0.00, 0.00, 0.00, 0.00, 0.00, 0.00, 0.000, 0.000, 0.000, 14:09:34.730, 1551726574730
106, -4191.20, 0.00, 0.00, 0.00, 0.00, 0.00, 0.00, 0.00, 0.000, 0.000, 0.000, 14:09:34.731, 1551726574731
107, -4158.07, 0.00, 0.00, 0.00, 0.00, 0.00, 0.00, 0.00, 0.000, 0.000, 0.000, 14:09:34.737, 1551726574737
108, -4178.55, 0.00, 0.00, 0.00, 0.00, 0.00, 0.00, 0.00, 0.000, 0.000, 0.000, 14:09:34.745, 1551726574745
109, -4209.73, 0.00, 0.00, 0.00, 0.00, 0.00, 0.00, 0.00, -0.652, 0.720, -0.214, 14:09:34.745, 1551726574745
110, -4197.90, 0.00, 0.00, 0.00, 0.00, 0.00, 0.00, 0.00, 0.000, 0.000, 0.000, 14:09:34.753, 1551726574753
111, -4164.29, 0.00, 0.00, 0.00, 0.00, 0.00, 0.00, 0.00, 0.000, 0.000, 0.000, 14:09:34.754, 1551726574754
112, -4178.68, 0.00, 0.00, 0.00, 0.00, 0.00, 0.00, 0.00, 0.000, 0.000, 0.000, 14:09:34.759, 1551726574759
113, -4211.63, 0.00, 0.00, 0.00, 0.00, 0.00, 0.00, 0.00, 0.000, 0.000, 0.000, 14:09:34.759, 1551726574759
114, -4210.42, 0.00, 0.00, 0.00, 0.00, 0.00, 0.00, 0.00, 0.000, 0.000, 0.000, 14:09:34.768, 1551726574768
115, -4167.97, 0.00, 0.00, 0.00, 0.00, 0.00, 0.00, 0.00, 0.000, 0.000, 0.000, 14:09:34.768, 1551726574768
116, -4171.15, 0.00, 0.00, 0.00, 0.00, 0.00, 0.00, 0.00, 0.000, 0.000, 0.000, 14:09:34.775, 1551726574775
117, -4212.50, 0.00, 0.00, 0.00, 0.00, 0.00, 0.00, 0.00, 0.000, 0.000, 0.000, 14:09:34.775, 1551726574775
118, -4227.07, 0.00, 0.00, 0.00, 0.00, 0.00, 0.00, 0.00, 0.000, 0.000, 0.000, 14:09:34.783, 1551726574783
119, -4193.59, 0.00, 0.00, 0.00, 0.00, 0.00, 0.00, 0.00, -0.654, 0.714, -0.220, 14:09:34.783, 1551726574783
120, -4166.99, 0.00, 0.00, 0.00, 0.00, 0.00, 0.00, 0.00, 0.000, 0.000, 0.000, 14:09:34.790, 1551726574790
121, -4190.46, 0.00, 0.00, 0.00, 0.00, 0.00, 0.00, 0.00, 0.000, 0.000, 0.000, 14:09:34.790, 1551726574790
122, -4218.82, 0.00, 0.00, 0.00, 0.00, 0.00, 0.00, 0.00, 0.000, 0.000, 0.000, 14:09:34.797, 1551726574797
123, -4176.76, 0.00, 0.00, 0.00, 0.00, 0.00, 0.00, 0.00, 0.000, 0.000, 0.000, 14:09:34.797, 1551726574797
124, -4167.21, 0.00, 0.00, 0.00, 0.00, 0.00, 0.00, 0.00, 0.000, 0.000, 0.000, 14:09:34.805, 1551726574805
125, -4187.15, 0.00, 0.00, 0.00, 0.00, 0.00, 0.00, 0.00, 0.000, 0.000, 0.000, 14:09:34.812, 1551726574812
126, -4222.22, 0.00, 0.00, 0.00, 0.00, 0.00, 0.00, 0.00, 0.000, 0.000, 0.000, 14:09:34.812, 1551726574812
127, -4189.05, 0.00, 0.00, 0.00, 0.00, 0.00, 0.00, 0.00, 0.000, 0.000, 0.000, 14:09:34.820, 1551726574820
128, -4180.60, 0.00, 0.00, 0.00, 0.00, 0.00, 0.00, 0.00, 0.000, 0.000, 0.000, 14:09:34.820, 1551726574820
129, -4184.43, 0.00, 0.00, 0.00, 0.00, 0.00, 0.00, 0.00, -0.650, 0.710, -0.218, 14:09:34.828, 1551726574828
130, -4218.87, 0.00, 0.00, 0.00, 0.00, 0.00, 0.00, 0.00, 0.000, 0.000, 0.000, 14:09:34.828, 1551726574828
131, -4198.28, 0.00, 0.00, 0.00, 0.00, 0.00, 0.00, 0.00, 0.000, 0.000, 0.000, 14:09:34.836, 1551726574836
132, -4164.49, 0.00, 0.00, 0.00, 0.00, 0.00, 0.00, 0.00, 0.000, 0.000, 0.000, 14:09:34.836, 1551726574836
133, -4182.70, 0.00, 0.00, 0.00, 0.00, 0.00, 0.00, 0.00, 0.000, 0.000, 0.000, 14:09:34.843, 1551726574843
134, -4222.00, 0.00, 0.00, 0.00, 0.00, 0.00, 0.00, 0.00, 0.000, 0.000, 0.000, 14:09:34.843, 1551726574843
135, -4216.61, 0.00, 0.00, 0.00, 0.00, 0.00, 0.00, 0.00, 0.000, 0.000, 0.000, 14:09:34.850, 1551726574850
136, -4185.21, 0.00, 0.00, 0.00, 0.00, 0.00, 0.00, 0.00, 0.000, 0.000, 0.000, 14:09:34.850, 1551726574850
137, -4185.79, 0.00, 0.00, 0.00, 0.00, 0.00, 0.00, 0.00, 0.000, 0.000, 0.000, 14:09:34.858, 1551726574858
138, -4214.44, 0.00, 0.00, 0.00, 0.00, 0.00, 0.00, 0.00, -0.658, 0.710, -0.216, 14:09:34.858, 1551726574858
139, -4221.17, 0.00, 0.00, 0.00, 0.00, 0.00, 0.00, 0.00, 0.000, 0.000, 0.000, 14:09:34.866, 1551726574866
140, -4183.98, 0.00, 0.00, 0.00, 0.00, 0.00, 0.00, 0.00, 0.000, 0.000, 0.000, 14:09:34.872, 1551726574872
141, -4177.79, 0.00, 0.00, 0.00, 0.00, 0.00, 0.00, 0.00, 0.000, 0.000, 0.000, 14:09:34.872, 1551726574872
142, -4211.27, 0.00, 0.00, 0.00, 0.00, 0.00, 0.00, 0.00, 0.000, 0.000, 0.000, 14:09:34.880, 1551726574880
143, -4229.04, 0.00, 0.00, 0.00, 0.00, 0.00, 0.00, 0.00, 0.000, 0.000, 0.000, 14:09:34.880, 1551726574880
144, -4182.99, 0.00, 0.00, 0.00, 0.00, 0.00, 0.00, 0.00, 0.000, 0.000, 0.000, 14:09:34.888, 1551726574888
145, -4175.02, 0.00, 0.00, 0.00, 0.00, 0.00, 0.00, 0.00, 0.000, 0.000, 0.000, 14:09:34.888, 1551726574888
146, -4209.77, 0.00, 0.00, 0.00, 0.00, 0.00, 0.00, 0.00, 0.000, 0.000, 0.000, 14:09:34.895, 1551726574895
147, -4233.69, 0.00, 0.00, 0.00, 0.00, 0.00, 0.00, 0.00, 0.000, 0.000, 0.000, 14:09:34.895, 1551726574895
148, -4190.44, 0.00, 0.00, 0.00, 0.00, 0.00, 0.00, 0.00, -0.654, 0.710, -0.218, 14:09:34.903, 1551726574903
149, -4180.76, 0.00, 0.00, 0.00, 0.00, 0.00, 0.00, 0.00, 0.000, 0.000, 0.000, 14:09:34.903, 1551726574903
150, -4204.16, 0.00, 0.00, 0.00, 0.00, 0.00, 0.00, 0.00, 0.000, 0.000, 0.000, 14:09:34.910, 1551726574910
151, -4217.46, 0.00, 0.00, 0.00, 0.00, 0.00, 0.00, 0.00, 0.000, 0.000, 0.000, 14:09:34.911, 1551726574911
152, -4192.05, 0.00, 0.00, 0.00, 0.00, 0.00, 0.00, 0.00, 0.000, 0.000, 0.000, 14:09:34.918, 1551726574918
153, -4170.81, 0.00, 0.00, 0.00, 0.00, 0.00, 0.00, 0.00, 0.000, 0.000, 0.000, 14:09:34.918, 1551726574918
154, -4195.27, 0.00, 0.00, 0.00, 0.00, 0.00, 0.00, 0.00, 0.000, 0.000, 0.000, 14:09:34.924, 1551726574924
155, -4230.60, 0.00, 0.00, 0.00, 0.00, 0.00, 0.00, 0.00, 0.000, 0.000, 0.000, 14:09:34.932, 1551726574932
156, -4213.37, 0.00, 0.00, 0.00, 0.00, 0.00, 0.00, 0.00, 0.000, 0.000, 0.000, 14:09:34.933, 1551726574933
157, -4181.03, 0.00, 0.00, 0.00, 0.00, 0.00, 0.00, 0.00, 0.000, 0.000, 0.000, 14:09:34.940, 1551726574940
158, -4197.25, 0.00, 0.00, 0.00, 0.00, 0.00, 0.00, 0.00, -0.652, 0.718, -0.224, 14:09:34.940, 1551726574940
159, -4230.69, 0.00, 0.00, 0.00, 0.00, 0.00, 0.00, 0.00, 0.000, 0.000, 0.000, 14:09:34.947, 1551726574947
160, -4229.24, 0.00, 0.00, 0.00, 0.00, 0.00, 0.00, 0.00, 0.000, 0.000, 0.000, 14:09:34.948, 1551726574948
161, -4185.79, 0.00, 0.00, 0.00, 0.00, 0.00, 0.00, 0.00, 0.000, 0.000, 0.000, 14:09:34.955, 1551726574955
162, -4196.41, 0.00, 0.00, 0.00, 0.00, 0.00, 0.00, 0.00, 0.000, 0.000, 0.000, 14:09:34.955, 1551726574955
163, -4219.72, 0.00, 0.00, 0.00, 0.00, 0.00, 0.00, 0.00, 0.000, 0.000, 0.000, 14:09:34.963, 1551726574963
164, -4229.71, 0.00, 0.00, 0.00, 0.00, 0.00, 0.00, 0.00, 0.000, 0.000, 0.000, 14:09:34.964, 1551726574964
165, -4189.07, 0.00, 0.00, 0.00, 0.00, 0.00, 0.00, 0.00, 0.000, 0.000, 0.000, 14:09:34.971, 1551726574971
166, -4190.77, 0.00, 0.00, 0.00, 0.00, 0.00, 0.00, 0.00, 0.000, 0.000, 0.000, 14:09:34.971, 1551726574971
167, -4227.59, 0.00, 0.00, 0.00, 0.00, 0.00, 0.00, 0.00, 0.000, 0.000, 0.000, 14:09:34.977, 1551726574977
168, -4227.63, 0.00, 0.00, 0.00, 0.00, 0.00, 0.00, 0.00, -0.660, 0.716, -0.222, 14:09:34.977, 1551726574977
169, -4182.93, 0.00, 0.00, 0.00, 0.00, 0.00, 0.00, 0.00, 0.000, 0.000, 0.000, 14:09:34.985, 1551726574985
170, -4172.40, 0.00, 0.00, 0.00, 0.00, 0.00, 0.00, 0.00, 0.000, 0.000, 0.000, 14:09:34.992, 1551726574992
171, -4199.92, 0.00, 0.00, 0.00, 0.00, 0.00, 0.00, 0.00, 0.000, 0.000, 0.000, 14:09:34.993, 1551726574993
172, -4236.15, 0.00, 0.00, 0.00, 0.00, 0.00, 0.00, 0.00, 0.000, 0.000, 0.000, 14:09:35.000, 1551726575000
173, -4191.18, 0.00, 0.00, 0.00, 0.00, 0.00, 0.00, 0.00, 0.000, 0.000, 0.000, 14:09:35.001, 1551726575001
174, -4171.91, 0.00, 0.00, 0.00, 0.00, 0.00, 0.00, 0.00, 0.000, 0.000, 0.000, 14:09:35.007, 1551726575007
175, -4203.33, 0.00, 0.00, 0.00, 0.00, 0.00, 0.00, 0.00, 0.000, 0.000, 0.000, 14:09:35.007, 1551726575007
176, -4234.07, 0.00, 0.00, 0.00, 0.00, 0.00, 0.00, 0.00, 0.000, 0.000, 0.000, 14:09:35.016, 1551726575016
177, -4199.36, 0.00, 0.00, 0.00, 0.00, 0.00, 0.00, 0.00, 0.000, 0.000, 0.000, 14:09:35.016, 1551726575016
178, -4175.75, 0.00, 0.00, 0.00, 0.00, 0.00, 0.00, 0.00, -0.656, 0.710, -0.212, 14:09:35.023, 1551726575023
179, -4189.97, 0.00, 0.00, 0.00, 0.00, 0.00, 0.00, 0.00, 0.000, 0.000, 0.000, 14:09:35.023, 1551726575023
180, -4225.66, 0.00, 0.00, 0.00, 0.00, 0.00, 0.00, 0.00, 0.000, 0.000, 0.000, 14:09:35.030, 1551726575030
181, -4210.00, 0.00, 0.00, 0.00, 0.00, 0.00, 0.00, 0.00, 0.000, 0.000, 0.000, 14:09:35.030, 1551726575030
182, -4176.62, 0.00, 0.00, 0.00, 0.00, 0.00, 0.00, 0.00, 0.000, 0.000, 0.000, 14:09:35.038, 1551726575038
183, -4192.14, 0.00, 0.00, 0.00, 0.00, 0.00, 0.00, 0.00, 0.000, 0.000, 0.000, 14:09:35.038, 1551726575038
184, -4232.50, 0.00, 0.00, 0.00, 0.00, 0.00, 0.00, 0.00, 0.000, 0.000, 0.000, 14:09:35.045, 1551726575045
185, -4210.26, 0.00, 0.00, 0.00, 0.00, 0.00, 0.00, 0.00, 0.000, 0.000, 0.000, 14:09:35.045, 1551726575045
186, -4181.61, 0.00, 0.00, 0.00, 0.00, 0.00, 0.00, 0.00, 0.000, 0.000, 0.000, 14:09:35.053, 1551726575053
187, -4185.12, 0.00, 0.00, 0.00, 0.00, 0.00, 0.00, 0.00, 0.000, 0.000, 0.000, 14:09:35.059, 1551726575059
188, -4209.97, 0.00, 0.00, 0.00, 0.00, 0.00, 0.00, 0.00, -0.650, 0.712, -0.216, 14:09:35.059, 1551726575059
189, -4226.33, 0.00, 0.00, 0.00, 0.00, 0.00, 0.00, 0.00, 0.000, 0.000, 0.000, 14:09:35.067, 1551726575067
190, -4181.18, 0.00, 0.00, 0.00, 0.00, 0.00, 0.00, 0.00, 0.000, 0.000, 0.000, 14:09:35.068, 1551726575068
191, -4171.55, 0.00, 0.00, 0.00, 0.00, 0.00, 0.00, 0.00, 0.000, 0.000, 0.000, 14:09:35.075, 1551726575075
192, -4198.80, 0.00, 0.00, 0.00, 0.00, 0.00, 0.00, 0.00, 0.000, 0.000, 0.000, 14:09:35.076, 1551726575076
193, -4217.17, 0.00, 0.00, 0.00, 0.00, 0.00, 0.00, 0.00, 0.000, 0.000, 0.000, 14:09:35.083, 1551726575083
194, -4178.59, 0.00, 0.00, 0.00, 0.00, 0.00, 0.00, 0.00, 0.000, 0.000, 0.000, 14:09:35.083, 1551726575083
195, -4169.65, 0.00, 0.00, 0.00, 0.00, 0.00, 0.00, 0.00, 0.000, 0.000, 0.000, 14:09:35.090, 1551726575090
196, -4188.98, 0.00, 0.00, 0.00, 0.00, 0.00, 0.00, 0.00, 0.000, 0.000, 0.000, 14:09:35.090, 1551726575090
197, -4221.33, 0.00, 0.00, 0.00, 0.00, 0.00, 0.00, 0.00, -0.650, 0.720, -0.218, 14:09:35.098, 1551726575098
198, -4189.41, 0.00, 0.00, 0.00, 0.00, 0.00, 0.00, 0.00, 0.000, 0.000, 0.000, 14:09:35.099, 1551726575099
199, -4174.70, 0.00, 0.00, 0.00, 0.00, 0.00, 0.00, 0.00, 0.000, 0.000, 0.000, 14:09:35.106, 1551726575106
200, -4197.61, 0.00, 0.00, 0.00, 0.00, 0.00, 0.00, 0.00, 0.000, 0.000, 0.000, 14:09:35.107, 1551726575107
201, -4220.88, 0.00, 0.00, 0.00, 0.00, 0.00, 0.00, 0.00, 0.000, 0.000, 0.000, 14:09:35.112, 1551726575112
202, -4193.10, 0.00, 0.00, 0.00, 0.00, 0.00, 0.00, 0.00, 0.000, 0.000, 0.000, 14:09:35.120, 1551726575120
203, -4168.40, 0.00, 0.00, 0.00, 0.00, 0.00, 0.00, 0.00, 0.000, 0.000, 0.000, 14:09:35.120, 1551726575120
204, -4182.48, 0.00, 0.00, 0.00, 0.00, 0.00, 0.00, 0.00, 0.000, 0.000, 0.000, 14:09:35.128, 1551726575128
205, -4222.96, 0.00, 0.00, 0.00, 0.00, 0.00, 0.00, 0.00, 0.000, 0.000, 0.000, 14:09:35.128, 1551726575128
206, -4211.60, 0.00, 0.00, 0.00, 0.00, 0.00, 0.00, 0.00, 0.000, 0.000, 0.000, 14:09:35.135, 1551726575135
207, -4174.55, 0.00, 0.00, 0.00, 0.00, 0.00, 0.00, 0.00, -0.652, 0.710, -0.220, 14:09:35.135, 1551726575135
208, -4181.41, 0.00, 0.00, 0.00, 0.00, 0.00, 0.00, 0.00, 0.000, 0.000, 0.000, 14:09:35.142, 1551726575142
209, -4217.37, 0.00, 0.00, 0.00, 0.00, 0.00, 0.00, 0.00, 0.000, 0.000, 0.000, 14:09:35.142, 1551726575142
210, -4221.73, 0.00, 0.00, 0.00, 0.00, 0.00, 0.00, 0.00, 0.000, 0.000, 0.000, 14:09:35.150, 1551726575150
211, -4179.62, 0.00, 0.00, 0.00, 0.00, 0.00, 0.00, 0.00, 0.000, 0.000, 0.000, 14:09:35.150, 1551726575150
212, -4191.58, 0.00, 0.00, 0.00, 0.00, 0.00, 0.00, 0.00, 0.000, 0.000, 0.000, 14:09:35.158, 1551726575158
213, -4223.56, 0.00, 0.00, 0.00, 0.00, 0.00, 0.00, 0.00, 0.000, 0.000, 0.000, 14:09:35.159, 1551726575159
214, -4216.34, 0.00, 0.00, 0.00, 0.00, 0.00, 0.00, 0.00, 0.000, 0.000, 0.000, 14:09:35.165, 1551726575165
215, -4166.79, 0.00, 0.00, 0.00, 0.00, 0.00, 0.00, 0.00, 0.000, 0.000, 0.000, 14:09:35.166, 1551726575166
216, -4168.73, 0.00, 0.00, 0.00, 0.00, 0.00, 0.00, 0.00, 0.000, 0.000, 0.000, 14:09:35.172, 1551726575172
217, -4202.64, 0.00, 0.00, 0.00, 0.00, 0.00, 0.00, 0.00, -0.652, 0.710, -0.214, 14:09:35.180, 1551726575180
218, -4217.68, 0.00, 0.00, 0.00, 0.00, 0.00, 0.00, 0.00, 0.000, 0.000, 0.000, 14:09:35.180, 1551726575180
219, -4173.81, 0.00, 0.00, 0.00, 0.00, 0.00, 0.00, 0.00, 0.000, 0.000, 0.000, 14:09:35.188, 1551726575188
220, -4168.18, 0.00, 0.00, 0.00, 0.00, 0.00, 0.00, 0.00, 0.000, 0.000, 0.000, 14:09:35.188, 1551726575188
221, -4195.11, 0.00, 0.00, 0.00, 0.00, 0.00, 0.00, 0.00, 0.000, 0.000, 0.000, 14:09:35.194, 1551726575194
222, -4225.37, 0.00, 0.00, 0.00, 0.00, 0.00, 0.00, 0.00, 0.000, 0.000, 0.000, 14:09:35.195, 1551726575195
223, -4198.31, 0.00, 0.00, 0.00, 0.00, 0.00, 0.00, 0.00, 0.000, 0.000, 0.000, 14:09:35.203, 1551726575203
224, -4166.48, 0.00, 0.00, 0.00, 0.00, 0.00, 0.00, 0.00, 0.000, 0.000, 0.000, 14:09:35.203, 1551726575203
225, -4185.92, 0.00, 0.00, 0.00, 0.00, 0.00, 0.00, 0.00, 0.000, 0.000, 0.000, 14:09:35.211, 1551726575211
226, -4236.15, 0.00, 0.00, 0.00, 0.00, 0.00, 0.00, 0.00, 0.000, 0.000, 0.000, 14:09:35.211, 1551726575211
227, -4201.50, 0.00, 0.00, 0.00, 0.00, 0.00, 0.00, 0.00, -0.656, 0.708, -0.212, 14:09:35.218, 1551726575218
228, -4161.49, 0.00, 0.00, 0.00, 0.00, 0.00, 0.00, 0.00, 0.000, 0.000, 0.000, 14:09:35.218, 1551726575218
229, -4175.98, 0.00, 0.00, 0.00, 0.00, 0.00, 0.00, 0.00, 0.000, 0.000, 0.000, 14:09:35.225, 1551726575225
230, -4215.36, 0.00, 0.00, 0.00, 0.00, 0.00, 0.00, 0.00, 0.000, 0.000, 0.000, 14:09:35.225, 1551726575225
231, -4202.93, 0.00, 0.00, 0.00, 0.00, 0.00, 0.00, 0.00, 0.000, 0.000, 0.000, 14:09:35.233, 1551726575233
232, -4157.22, 0.00, 0.00, 0.00, 0.00, 0.00, 0.00, 0.00, 0.000, 0.000, 0.000, 14:09:35.240, 1551726575240
233, -4165.49, 0.00, 0.00, 0.00, 0.00, 0.00, 0.00, 0.00, 0.000, 0.000, 0.000, 14:09:35.240, 1551726575240
234, -4194.28, 0.00, 0.00, 0.00, 0.00, 0.00, 0.00, 0.00, 0.000, 0.000, 0.000, 14:09:35.247, 1551726575247
235, -4200.94, 0.00, 0.00, 0.00, 0.00, 0.00, 0.00, 0.00, 0.000, 0.000, 0.000, 14:09:35.247, 1551726575247
236, -4159.59, 0.00, 0.00, 0.00, 0.00, 0.00, 0.00, 0.00, 0.000, 0.000, 0.000, 14:09:35.255, 1551726575255
237, -4156.93, 0.00, 0.00, 0.00, 0.00, 0.00, 0.00, 0.00, -0.652, 0.710, -0.220, 14:09:35.256, 1551726575256
238, -4193.10, 0.00, 0.00, 0.00, 0.00, 0.00, 0.00, 0.00, 0.000, 0.000, 0.000, 14:09:35.263, 1551726575263
239, -4224.57, 0.00, 0.00, 0.00, 0.00, 0.00, 0.00, 0.00, 0.000, 0.000, 0.000, 14:09:35.263, 1551726575263
240, -4158.56, 0.00, 0.00, 0.00, 0.00, 0.00, 0.00, 0.00, 0.000, 0.000, 0.000, 14:09:35.270, 1551726575270
241, -4156.06, 0.00, 0.00, 0.00, 0.00, 0.00, 0.00, 0.00, 0.000, 0.000, 0.000, 14:09:35.271, 1551726575271
242, -4186.03, 0.00, 0.00, 0.00, 0.00, 0.00, 0.00, 0.00, 0.000, 0.000, 0.000, 14:09:35.278, 1551726575278
243, -4215.20, 0.00, 0.00, 0.00, 0.00, 0.00, 0.00, 0.00, 0.000, 0.000, 0.000, 14:09:35.278, 1551726575278
244, -4175.69, 0.00, 0.00, 0.00, 0.00, 0.00, 0.00, 0.00, 0.000, 0.000, 0.000, 14:09:35.285, 1551726575285
245, -4153.65, 0.00, 0.00, 0.00, 0.00, 0.00, 0.00, 0.00, 0.000, 0.000, 0.000, 14:09:35.285, 1551726575285
246, -4180.16, 0.00, 0.00, 0.00, 0.00, 0.00, 0.00, 0.00, 0.000, 0.000, 0.000, 14:09:35.292, 1551726575292
247, -4219.54, 0.00, 0.00, 0.00, 0.00, 0.00, 0.00, 0.00, -0.648, 0.718, -0.224, 14:09:35.292, 1551726575292
248, -4176.47, 0.00, 0.00, 0.00, 0.00, 0.00, 0.00, 0.00, 0.000, 0.000, 0.000, 14:09:35.299, 1551726575299
249, -4160.71, 0.00, 0.00, 0.00, 0.00, 0.00, 0.00, 0.00, 0.000, 0.000, 0.000, 14:09:35.308, 1551726575308
250, -4174.46, 0.00, 0.00, 0.00, 0.00, 0.00, 0.00, 0.00, 0.000, 0.000, 0.000, 14:09:35.308, 1551726575308
251, -4205.30, 0.00, 0.00, 0.00, 0.00, 0.00, 0.00, 0.00, 0.000, 0.000, 0.000, 14:09:35.315, 1551726575315
252, -4193.08, 0.00, 0.00, 0.00, 0.00, 0.00, 0.00, 0.00, 0.000, 0.000, 0.000, 14:09:35.315, 1551726575315
253, -4153.04, 0.00, 0.00, 0.00, 0.00, 0.00, 0.00, 0.00, 0.000, 0.000, 0.000, 14:09:35.323, 1551726575323
254, -4172.82, 0.00, 0.00, 0.00, 0.00, 0.00, 0.00, 0.00, 0.000, 0.000, 0.000, 14:09:35.324, 1551726575324
255, -4191.89, 0.00, 0.00, 0.00, 0.00, 0.00, 0.00, 0.00, 0.000, 0.000, 0.000, 14:09:35.330, 1551726575330
0, -4185.41, 0.00, 0.00, 0.00, 0.00, 0.00, 0.00, 0.00, 0.000, 0.000, 0.000, 14:09:35.330, 1551726575330
1, -4143.14, 0.00, 0.00, 0.00, 0.00, 0.00, 0.00, 0.00, -0.652, 0.722, -0.218, 14:09:35.339, 1551726575339
2, -4150.29, 0.00, 0.00, 0.00, 0.00, 0.00, 0.00, 0.00, 0.000, 0.000, 0.000, 14:09:35.339, 1551726575339
3, -4186.01, 0.00, 0.00, 0.00, 0.00, 0.00, 0.00, 0.00, 0.000, 0.000, 0.000, 14:09:35.346, 1551726575346
4, -4197.55, 0.00, 0.00, 0.00, 0.00, 0.00, 0.00, 0.00, 0.000, 0.000, 0.000, 14:09:35.346, 1551726575346
5, -4160.17, 0.00, 0.00, 0.00, 0.00, 0.00, 0.00, 0.00, 0.000, 0.000, 0.000, 14:09:35.353, 1551726575353
6, -4167.97, 0.00, 0.00, 0.00, 0.00, 0.00, 0.00, 0.00, 0.000, 0.000, 0.000, 14:09:35.353, 1551726575353
7, -4184.56, 0.00, 0.00, 0.00, 0.00, 0.00, 0.00, 0.00, 0.000, 0.000, 0.000, 14:09:35.359, 1551726575359
8, -4187.67, 0.00, 0.00, 0.00, 0.00, 0.00, 0.00, 0.00, 0.000, 0.000, 0.000, 14:09:35.367, 1551726575367
9, -4151.52, 0.00, 0.00, 0.00, 0.00, 0.00, 0.00, 0.00, 0.000, 0.000, 0.000, 14:09:35.367, 1551726575367
10, -4149.58, 0.00, 0.00, 0.00, 0.00, 0.00, 0.00, 0.00, -0.648, 0.712, -0.220, 14:09:35.376, 1551726575376
11, -4178.26, 0.00, 0.00, 0.00, 0.00, 0.00, 0.00, 0.00, 0.000, 0.000, 0.000, 14:09:35.376, 1551726575376
12, -4200.61, 0.00, 0.00, 0.00, 0.00, 0.00, 0.00, 0.00, 0.000, 0.000, 0.000, 14:09:35.382, 1551726575382
13, -4177.21, 0.00, 0.00, 0.00, 0.00, 0.00, 0.00, 0.00, 0.000, 0.000, 0.000, 14:09:35.382, 1551726575382
14, -4149.27, 0.00, 0.00, 0.00, 0.00, 0.00, 0.00, 0.00, 0.000, 0.000, 0.000, 14:09:35.390, 1551726575390
15, -4173.56, 0.00, 0.00, 0.00, 0.00, 0.00, 0.00, 0.00, 0.000, 0.000, 0.000, 14:09:35.390, 1551726575390
16, -4213.93, 0.00, 0.00, 0.00, 0.00, 0.00, 0.00, 0.00, 0.000, 0.000, 0.000, 14:09:35.398, 1551726575398
17, -4190.33, 0.00, 0.00, 0.00, 0.00, 0.00, 0.00, 0.00, 0.000, 0.000, 0.000, 14:09:35.398, 1551726575398
18, -4165.90, 0.00, 0.00, 0.00, 0.00, 0.00, 0.00, 0.00, 0.000, 0.000, 0.000, 14:09:35.405, 1551726575405
19, -4171.98, 0.00, 0.00, 0.00, 0.00, 0.00, 0.00, 0.00, 0.000, 0.000, 0.000, 14:09:35.406, 1551726575406
20, -4204.05, 0.00, 0.00, 0.00, 0.00, 0.00, 0.00, 0.00, -0.646, 0.708, -0.214, 14:09:35.412, 1551726575412
21, -4190.30, 0.00, 0.00, 0.00, 0.00, 0.00, 0.00, 0.00, 0.000, 0.000, 0.000, 14:09:35.413, 1551726575413
22, -4149.29, 0.00, 0.00, 0.00, 0.00, 0.00, 0.00, 0.00, 0.000, 0.000, 0.000, 14:09:35.420, 1551726575420
23, -4173.50, 0.00, 0.00, 0.00, 0.00, 0.00, 0.00, 0.00, 0.000, 0.000, 0.000, 14:09:35.427, 1551726575427
24, -4208.10, 0.00, 0.00, 0.00, 0.00, 0.00, 0.00, 0.00, 0.000, 0.000, 0.000, 14:09:35.428, 1551726575428
25, -4203.71, 0.00, 0.00, 0.00, 0.00, 0.00, 0.00, 0.00, 0.000, 0.000, 0.000, 14:09:35.435, 1551726575435
26, -4166.70, 0.00, 0.00, 0.00, 0.00, 0.00, 0.00, 0.00, 0.000, 0.000, 0.000, 14:09:35.435, 1551726575435
27, -4173.16, 0.00, 0.00, 0.00, 0.00, 0.00, 0.00, 0.00, 0.000, 0.000, 0.000, 14:09:35.442, 1551726575442
28, -4207.60, 0.00, 0.00, 0.00, 0.00, 0.00, 0.00, 0.00, 0.000, 0.000, 0.000, 14:09:35.443, 1551726575443
29, -4222.29, 0.00, 0.00, 0.00, 0.00, 0.00, 0.00, 0.00, 0.000, 0.000, 0.000, 14:09:35.450, 1551726575450
30, -4154.59, 0.00, 0.00, 0.00, 0.00, 0.00, 0.00, 0.00, -0.646, 0.702, -0.216, 14:09:35.450, 1551726575450
31, -4157.85, 0.00, 0.00, 0.00, 0.00, 0.00, 0.00, 0.00, 0.000, 0.000, 0.000, 14:09:35.458, 1551726575458
32, -4197.88, 0.00, 0.00, 0.00, 0.00, 0.00, 0.00, 0.00, 0.000, 0.000, 0.000, 14:09:35.458, 1551726575458
33, -4222.80, 0.00, 0.00, 0.00, 0.00, 0.00, 0.00, 0.00, 0.000, 0.000, 0.000, 14:09:35.465, 1551726575465
34, -4172.49, 0.00, 0.00, 0.00, 0.00, 0.00, 0.00, 0.00, 0.000, 0.000, 0.000, 14:09:35.465, 1551726575465
35, -4152.40, 0.00, 0.00, 0.00, 0.00, 0.00, 0.00, 0.00, 0.000, 0.000, 0.000, 14:09:35.473, 1551726575473
36, -4169.38, 0.00, 0.00, 0.00, 0.00, 0.00, 0.00, 0.00, 0.000, 0.000, 0.000, 14:09:35.473, 1551726575473
37, -4200.16, 0.00, 0.00, 0.00, 0.00, 0.00, 0.00, 0.00, 0.000, 0.000, 0.000, 14:09:35.480, 1551726575480
38, -4177.52, 0.00, 0.00, 0.00, 0.00, 0.00, 0.00, 0.00, 0.000, 0.000, 0.000, 14:09:35.488, 1551726575488
39, -4156.66, 0.00, 0.00, 0.00, 0.00, 0.00, 0.00, 0.00, 0.000, 0.000, 0.000, 14:09:35.488, 1551726575488
40, -4183.67, 0.00, 0.00, 0.00, 0.00, 0.00, 0.00, 0.00, -0.652, 0.708, -0.218, 14:09:35.495, 1551726575495
41, -4217.71, 0.00, 0.00, 0.00, 0.00, 0.00, 0.00, 0.00, 0.000, 0.000, 0.000, 14:09:35.495, 1551726575495
42, -4182.44, 0.00, 0.00, 0.00, 0.00, 0.00, 0.00, 0.00, 0.000, 0.000, 0.000, 14:09:35.502, 1551726575502
43, -4153.00, 0.00, 0.00, 0.00, 0.00, 0.00, 0.00, 0.00, 0.000, 0.000, 0.000, 14:09:35.503, 1551726575503
44, -4153.33, 0.00, 0.00, 0.00, 0.00, 0.00, 0.00, 0.00, 0.000, 0.000, 0.000, 14:09:35.511, 1551726575511
45, -4196.14, 0.00, 0.00, 0.00, 0.00, 0.00, 0.00, 0.00, 0.000, 0.000, 0.000, 14:09:35.511, 1551726575511
46, -4177.70, 0.00, 0.00, 0.00, 0.00, 0.00, 0.00, 0.00, 0.000, 0.000, 0.000, 14:09:35.517, 1551726575517
47, -4145.09, 0.00, 0.00, 0.00, 0.00, 0.00, 0.00, 0.00, 0.000, 0.000, 0.000, 14:09:35.517, 1551726575517
48, -4154.07, 0.00, 0.00, 0.00, 0.00, 0.00, 0.00, 0.00, 0.000, 0.000, 0.000, 14:09:35.525, 1551726575525
49, -4199.31, 0.00, 0.00, 0.00, 0.00, 0.00, 0.00, 0.00, 0.000, 0.000, 0.000, 14:09:35.526, 1551726575526
50, -4198.31, 0.00, 0.00, 0.00, 0.00, 0.00, 0.00, 0.00, -0.652, 0.710, -0.214, 14:09:35.533, 1551726575533
51, -4163.08, 0.00, 0.00, 0.00, 0.00, 0.00, 0.00, 0.00, 0.000, 0.000, 0.000, 14:09:35.534, 1551726575534
52, -4163.55, 0.00, 0.00, 0.00, 0.00, 0.00, 0.00, 0.00, 0.000, 0.000, 0.000, 14:09:35.540, 1551726575540
53, -4189.28, 0.00, 0.00, 0.00, 0.00, 0.00, 0.00, 0.00, 0.000, 0.000, 0.000, 14:09:35.540, 1551726575540
54, -4205.35, 0.00, 0.00, 0.00, 0.00, 0.00, 0.00, 0.00, 0.000, 0.000, 0.000, 14:09:35.547, 1551726575547
55, -4160.82, 0.00, 0.00, 0.00, 0.00, 0.00, 0.00, 0.00, 0.000, 0.000, 0.000, 14:09:35.555, 1551726575555
56, -4151.81, 0.00, 0.00, 0.00, 0.00, 0.00, 0.00, 0.00, 0.000, 0.000, 0.000, 14:09:35.555, 1551726575555
57, -4191.85, 0.00, 0.00, 0.00, 0.00, 0.00, 0.00, 0.00, 0.000, 0.000, 0.000, 14:09:35.563, 1551726575563
58, -4216.57, 0.00, 0.00, 0.00, 0.00, 0.00, 0.00, 0.00, 0.000, 0.000, 0.000, 14:09:35.563, 1551726575563
59, -4167.59, 0.00, 0.00, 0.00, 0.00, 0.00, 0.00, 0.00, 0.000, 0.000, 0.000, 14:09:35.570, 1551726575570
60, -4163.53, 0.00, 0.00, 0.00, 0.00, 0.00, 0.00, 0.00, -0.654, 0.712, -0.210, 14:09:35.570, 1551726575570
61, -4181.99, 0.00, 0.00, 0.00, 0.00, 0.00, 0.00, 0.00, 0.000, 0.000, 0.000, 14:09:35.577, 1551726575577
62, -4213.55, 0.00, 0.00, 0.00, 0.00, 0.00, 0.00, 0.00, 0.000, 0.000, 0.000, 14:09:35.578, 1551726575578
63, -4185.92, 0.00, 0.00, 0.00, 0.00, 0.00, 0.00, 0.00, 0.000, 0.000, 0.000, 14:09:35.586, 1551726575586
64, -4159.64, 0.00, 0.00, 0.00, 0.00, 0.00, 0.00, 0.00, 0.000, 0.000, 0.000, 14:09:35.586, 1551726575586
65, -4168.62, 0.00, 0.00, 0.00, 0.00, 0.00, 0.00, 0.00, 0.000, 0.000, 0.000, 14:09:35.593, 1551726575593
66, -4210.02, 0.00, 0.00, 0.00, 0.00, 0.00, 0.00, 0.00, 0.000, 0.000, 0.000, 14:09:35.593, 1551726575593
67, -4194.55, 0.00, 0.00, 0.00, 0.00, 0.00, 0.00, 0.00, 0.000, 0.000, 0.000, 14:09:35.600, 1551726575600
68, -4172.36, 0.00, 0.00, 0.00, 0.00, 0.00, 0.00, 0.00, 0.000, 0.000, 0.000, 14:09:35.600, 1551726575600
69, -4179.91, 0.00, 0.00, 0.00, 0.00, 0.00, 0.00, 0.00, -0.648, 0.710, -0.220, 14:09:35.607, 1551726575607
70, -4216.46, 0.00, 0.00, 0.00, 0.00, 0.00, 0.00, 0.00, 0.000, 0.000, 0.000, 14:09:35.615, 1551726575615
71, -4215.87, 0.00, 0.00, 0.00, 0.00, 0.00, 0.00, 0.00, 0.000, 0.000, 0.000, 14:09:35.616, 1551726575616
72, -4171.86, 0.00, 0.00, 0.00, 0.00, 0.00, 0.00, 0.00, 0.000, 0.000, 0.000, 14:09:35.622, 1551726575622
73, -4196.72, 0.00, 0.00, 0.00, 0.00, 0.00, 0.00, 0.00, 0.000, 0.000, 0.000, 14:09:35.622, 1551726575622
74, -4201.99, 0.00, 0.00, 0.00, 0.00, 0.00, 0.00, 0.00, 0.000, 0.000, 0.000, 14:09:35.630, 1551726575630
75, -4215.87, 0.00, 0.00, 0.00, 0.00, 0.00, 0.00, 0.00, 0.000, 0.000, 0.000, 14:09:35.631, 1551726575631
76, -4178.61, 0.00, 0.00, 0.00, 0.00, 0.00, 0.00, 0.00, 0.000, 0.000, 0.000, 14:09:35.638, 1551726575638
77, -4189.03, 0.00, 0.00, 0.00, 0.00, 0.00, 0.00, 0.00, 0.000, 0.000, 0.000, 14:09:35.638, 1551726575638
78, -4208.79, 0.00, 0.00, 0.00, 0.00, 0.00, 0.00, 0.00, 0.000, 0.000, 0.000, 14:09:35.646, 1551726575646
79, -4221.42, 0.00, 0.00, 0.00, 0.00, 0.00, 0.00, 0.00, -0.652, 0.714, -0.220, 14:09:35.646, 1551726575646
80, -4183.29, 0.00, 0.00, 0.00, 0.00, 0.00, 0.00, 0.00, 0.000, 0.000, 0.000, 14:09:35.652, 1551726575652
81, -4181.79, 0.00, 0.00, 0.00, 0.00, 0.00, 0.00, 0.00, 0.000, 0.000, 0.000, 14:09:35.653, 1551726575653
82, -4214.78, 0.00, 0.00, 0.00, 0.00, 0.00, 0.00, 0.00, 0.000, 0.000, 0.000, 14:09:35.660, 1551726575660
83, -4232.21, 0.00, 0.00, 0.00, 0.00, 0.00, 0.00, 0.00, 0.000, 0.000, 0.000, 14:09:35.661, 1551726575661
84, -4192.29, 0.00, 0.00, 0.00, 0.00, 0.00, 0.00, 0.00, 0.000, 0.000, 0.000, 14:09:35.668, 1551726575668
85, -4179.49, 0.00, 0.00, 0.00, 0.00, 0.00, 0.00, 0.00, 0.000, 0.000, 0.000, 14:09:35.675, 1551726575675
86, -4203.04, 0.00, 0.00, 0.00, 0.00, 0.00, 0.00, 0.00, 0.000, 0.000, 0.000, 14:09:35.676, 1551726575676
87, -4230.47, 0.00, 0.00, 0.00, 0.00, 0.00, 0.00, 0.00, 0.000, 0.000, 0.000, 14:09:35.683, 1551726575683
88, -4204.34, 0.00, 0.00, 0.00, 0.00, 0.00, 0.00, 0.00, 0.000, 0.000, 0.000, 14:09:35.684, 1551726575684
89, -4175.06, 0.00, 0.00, 0.00, 0.00, 0.00, 0.00, 0.00, -0.650, 0.716, -0.222, 14:09:35.690, 1551726575690
90, -4188.92, 0.00, 0.00, 0.00, 0.00, 0.00, 0.00, 0.00, 0.000, 0.000, 0.000, 14:09:35.691, 1551726575691
91, -4226.80, 0.00, 0.00, 0.00, 0.00, 0.00, 0.00, 0.00, 0.000, 0.000, 0.000, 14:09:35.698, 1551726575698
92, -4208.52, 0.00, 0.00, 0.00, 0.00, 0.00, 0.00, 0.00, 0.000, 0.000, 0.000, 14:09:35.698, 1551726575698
93, -4179.11, 0.00, 0.00, 0.00, 0.00, 0.00, 0.00, 0.00, 0.000, 0.000, 0.000, 14:09:35.705, 1551726575705
94, -4192.23, 0.00, 0.00, 0.00, 0.00, 0.00, 0.00, 0.00, 0.000, 0.000, 0.000, 14:09:35.705, 1551726575705
95, -4231.68, 0.00, 0.00, 0.00, 0.00, 0.00, 0.00, 0.00, 0.000, 0.000, 0.000, 14:09:35.713, 1551726575713
96, -4232.30, 0.00, 0.00, 0.00, 0.00, 0.00, 0.00, 0.00, 0.000, 0.000, 0.000, 14:09:35.713, 1551726575713
97, -4177.67, 0.00, 0.00, 0.00, 0.00, 0.00, 0.00, 0.00, 0.000, 0.000, 0.000, 14:09:35.721, 1551726575721
98, -4180.94, 0.00, 0.00, 0.00, 0.00, 0.00, 0.00, 0.00, 0.000, 0.000, 0.000, 14:09:35.722, 1551726575722
99, -4208.68, 0.00, 0.00, 0.00, 0.00, 0.00, 0.00, 0.00, -0.646, 0.712, -0.220, 14:09:35.727, 1551726575727
100, -4221.60, 0.00, 0.00, 0.00, 0.00, 0.00, 0.00, 0.00, 0.000, 0.000, 0.000, 14:09:35.735, 1551726575735
101, -4182.21, 0.00, 0.00, 0.00, 0.00, 0.00, 0.00, 0.00, 0.000, 0.000, 0.000, 14:09:35.735, 1551726575735
102, -4171.89, 0.00, 0.00, 0.00, 0.00, 0.00, 0.00, 0.00, 0.000, 0.000, 0.000, 14:09:35.742, 1551726575742
103, -4208.92, 0.00, 0.00, 0.00, 0.00, 0.00, 0.00, 0.00, 0.000, 0.000, 0.000, 14:09:35.742, 1551726575742
104, -4223.65, 0.00, 0.00, 0.00, 0.00, 0.00, 0.00, 0.00, 0.000, 0.000, 0.000, 14:09:35.750, 1551726575750
105, -4185.50, 0.00, 0.00, 0.00, 0.00, 0.00, 0.00, 0.00, 0.000, 0.000, 0.000, 14:09:35.750, 1551726575750
106, -4188.40, 0.00, 0.00, 0.00, 0.00, 0.00, 0.00, 0.00, 0.000, 0.000, 0.000, 14:09:35.758, 1551726575758
107, -4191.51, 0.00, 0.00, 0.00, 0.00, 0.00, 0.00, 0.00, 0.000, 0.000, 0.000, 14:09:35.758, 1551726575758
108, -4233.80, 0.00, 0.00, 0.00, 0.00, 0.00, 0.00, 0.00, 0.000, 0.000, 0.000, 14:09:35.765, 1551726575765
109, -4189.21, 0.00, 0.00, 0.00, 0.00, 0.00, 0.00, 0.00, -0.650, 0.706, -0.220, 14:09:35.765, 1551726575765
110, -4169.32, 0.00, 0.00, 0.00, 0.00, 0.00, 0.00, 0.00, 0.000, 0.000, 0.000, 14:09:35.773, 1551726575773
111, -4194.35, 0.00, 0.00, 0.00, 0.00, 0.00, 0.00, 0.00, 0.000, 0.000, 0.000, 14:09:35.773, 1551726575773
112, -4224.99, 0.00, 0.00, 0.00, 0.00, 0.00, 0.00, 0.00, 0.000, 0.000, 0.000, 14:09:35.781, 1551726575781
113, -4200.36, 0.00, 0.00, 0.00, 0.00, 0.00, 0.00, 0.00, 0.000, 0.000, 0.000, 14:09:35.781, 1551726575781
114, -4166.86, 0.00, 0.00, 0.00, 0.00, 0.00, 0.00, 0.00, 0.000, 0.000, 0.000, 14:09:35.787, 1551726575787
115, -4187.42, 0.00, 0.00, 0.00, 0.00, 0.00, 0.00, 0.00, 0.000, 0.000, 0.000, 14:09:35.787, 1551726575787
116, -4234.20, 0.00, 0.00, 0.00, 0.00, 0.00, 0.00, 0.00, 0.000, 0.000, 0.000, 14:09:35.795, 1551726575795
117, -4226.02, 0.00, 0.00, 0.00, 0.00, 0.00, 0.00, 0.00, 0.000, 0.000, 0.000, 14:09:35.802, 1551726575802
118, -4186.79, 0.00, 0.00, 0.00, 0.00, 0.00, 0.00, 0.00, 0.000, 0.000, 0.000, 14:09:35.803, 1551726575803
119, -4188.92, 0.00, 0.00, 0.00, 0.00, 0.00, 0.00, 0.00, -0.650, 0.714, -0.222, 14:09:35.810, 1551726575810
120, -4210.53, 0.00, 0.00, 0.00, 0.00, 0.00, 0.00, 0.00, 0.000, 0.000, 0.000, 14:09:35.811, 1551726575811
121, -4220.05, 0.00, 0.00, 0.00, 0.00, 0.00, 0.00, 0.00, 0.000, 0.000, 0.000, 14:09:35.817, 1551726575817
122, -4173.74, 0.00, 0.00, 0.00, 0.00, 0.00, 0.00, 0.00, 0.000, 0.000, 0.000, 14:09:35.817, 1551726575817
123, -4183.11, 0.00, 0.00, 0.00, 0.00, 0.00, 0.00, 0.00, 0.000, 0.000, 0.000, 14:09:35.825, 1551726575825
124, -4218.47, 0.00, 0.00, 0.00, 0.00, 0.00, 0.00, 0.00, 0.000, 0.000, 0.000, 14:09:35.825, 1551726575825
125, -4224.88, 0.00, 0.00, 0.00, 0.00, 0.00, 0.00, 0.00, 0.000, 0.000, 0.000, 14:09:35.833, 1551726575833
126, -4194.75, 0.00, 0.00, 0.00, 0.00, 0.00, 0.00, 0.00, 0.000, 0.000, 0.000, 14:09:35.833, 1551726575833
127, -4196.52, 0.00, 0.00, 0.00, 0.00, 0.00, 0.00, 0.00, 0.000, 0.000, 0.000, 14:09:35.840, 1551726575840
128, -4209.95, 0.00, 0.00, 0.00, 0.00, 0.00, 0.00, 0.00, 0.000, 0.000, 0.000, 14:09:35.841, 1551726575841
129, -4231.03, 0.00, 0.00, 0.00, 0.00, 0.00, 0.00, 0.00, -0.652, 0.708, -0.226, 14:09:35.848, 1551726575848
130, -4198.62, 0.00, 0.00, 0.00, 0.00, 0.00, 0.00, 0.00, 0.000, 0.000, 0.000, 14:09:35.848, 1551726575848
131, -4185.63, 0.00, 0.00, 0.00, 0.00, 0.00, 0.00, 0.00, 0.000, 0.000, 0.000, 14:09:35.855, 1551726575855
132, -4205.08, 0.00, 0.00, 0.00, 0.00, 0.00, 0.00, 0.00, 0.000, 0.000, 0.000, 14:09:35.863, 1551726575863
133, -4236.46, 0.00, 0.00, 0.00, 0.00, 0.00, 0.00, 0.00, 0.000, 0.000, 0.000, 14:09:35.863, 1551726575863
134, -4186.01, 0.00, 0.00, 0.00, 0.00, 0.00, 0.00, 0.00, 0.000, 0.000, 0.000, 14:09:35.870, 1551726575870
135, -4168.78, 0.00, 0.00, 0.00, 0.00, 0.00, 0.00, 0.00, 0.000, 0.000, 0.000, 14:09:35.870, 1551726575870
136, -4192.38, 0.00, 0.00, 0.00, 0.00, 0.00, 0.00, 0.00, 0.000, 0.000, 0.000, 14:09:35.877, 1551726575877
137, -4234.90, 0.00, 0.00, 0.00, 0.00, 0.00, 0.00, 0.00, 0.000, 0.000, 0.000, 14:09:35.877, 1551726575877
138, -4193.28, 0.00, 0.00, 0.00, 0.00, 0.00, 0.00, 0.00, -0.658, 0.712, -0.220, 14:09:35.885, 1551726575885
139, -4167.30, 0.00, 0.00, 0.00, 0.00, 0.00, 0.00, 0.00, 0.000, 0.000, 0.000, 14:09:35.886, 1551726575886
140, -4183.67, 0.00, 0.00, 0.00, 0.00, 0.00, 0.00, 0.00, 0.000, 0.000, 0.000, 14:09:35.892, 1551726575892
141, -4226.65, 0.00, 0.00, 0.00, 0.00, 0.00, 0.00, 0.00, 0.000, 0.000, 0.000, 14:09:35.893, 1551726575893
142, -4222.33, 0.00, 0.00, 0.00, 0.00, 0.00, 0.00, 0.00, 0.000, 0.000, 0.000, 14:09:35.901, 1551726575901
143, -4181.09, 0.00, 0.00, 0.00, 0.00, 0.00, 0.00, 0.00, 0.000, 0.000, 0.000, 14:09:35.901, 1551726575901
144, -4175.10, 0.00, 0.00, 0.00, 0.00, 0.00, 0.00, 0.00, 0.000, 0.000, 0.000, 14:09:35.908, 1551726575908
145, -4217.42, 0.00, 0.00, 0.00, 0.00, 0.00, 0.00, 0.00, 0.000, 0.000, 0.000, 14:09:35.908, 1551726575908
146, -4234.56, 0.00, 0.00, 0.00, 0.00, 0.00, 0.00, 0.00, 0.000, 0.000, 0.000, 14:09:35.915, 1551726575915
147, -4187.06, 0.00, 0.00, 0.00, 0.00, 0.00, 0.00, 0.00, 0.000, 0.000, 0.000, 14:09:35.922, 1551726575922
148, -4162.48, 0.00, 0.00, 0.00, 0.00, 0.00, 0.00, 0.00, -0.658, 0.710, -0.222, 14:09:35.922, 1551726575922
149, -4193.01, 0.00, 0.00, 0.00, 0.00, 0.00, 0.00, 0.00, 0.000, 0.000, 0.000, 14:09:35.930, 1551726575930
150, -4214.24, 0.00, 0.00, 0.00, 0.00, 0.00, 0.00, 0.00, 0.000, 0.000, 0.000, 14:09:35.931, 1551726575931
151, -4172.40, 0.00, 0.00, 0.00, 0.00, 0.00, 0.00, 0.00, 0.000, 0.000, 0.000, 14:09:35.938, 1551726575938
152, -4172.87, 0.00, 0.00, 0.00, 0.00, 0.00, 0.00, 0.00, 0.000, 0.000, 0.000, 14:09:35.938, 1551726575938
153, -4202.22, 0.00, 0.00, 0.00, 0.00, 0.00, 0.00, 0.00, 0.000, 0.000, 0.000, 14:09:35.946, 1551726575946
154, -4217.17, 0.00, 0.00, 0.00, 0.00, 0.00, 0.00, 0.00, 0.000, 0.000, 0.000, 14:09:35.946, 1551726575946
155, -4182.99, 0.00, 0.00, 0.00, 0.00, 0.00, 0.00, 0.00, 0.000, 0.000, 0.000, 14:09:35.953, 1551726575953
156, -4168.58, 0.00, 0.00, 0.00, 0.00, 0.00, 0.00, 0.00, 0.000, 0.000, 0.000, 14:09:35.953, 1551726575953
157, -4191.31, 0.00, 0.00, 0.00, 0.00, 0.00, 0.00, 0.00, 0.000, 0.000, 0.000, 14:09:35.960, 1551726575960
158, -4233.73, 0.00, 0.00, 0.00, 0.00, 0.00, 0.00, 0.00, -0.656, 0.708, -0.228, 14:09:35.960, 1551726575960
159, -4190.44, 0.00, 0.00, 0.00, 0.00, 0.00, 0.00, 0.00, 0.000, 0.000, 0.000, 14:09:35.969, 1551726575969
160, -4177.43, 0.00, 0.00, 0.00, 0.00, 0.00, 0.00, 0.00, 0.000, 0.000, 0.000, 14:09:35.969, 1551726575969
161, -4182.73, 0.00, 0.00, 0.00, 0.00, 0.00, 0.00, 0.00, 0.000, 0.000, 0.000, 14:09:35.975, 1551726575975
162, -4225.66, 0.00, 0.00, 0.00, 0.00, 0.00, 0.00, 0.00, 0.000, 0.000, 0.000, 14:09:35.982, 1551726575982
163, -4212.03, 0.00, 0.00, 0.00, 0.00, 0.00, 0.00, 0.00, 0.000, 0.000, 0.000, 14:09:35.982, 1551726575982
164, -4176.78, 0.00, 0.00, 0.00, 0.00, 0.00, 0.00, 0.00, 0.000, 0.000, 0.000, 14:09:35.990, 1551726575990
165, -4190.10, 0.00, 0.00, 0.00, 0.00, 0.00, 0.00, 0.00, 0.000, 0.000, 0.000, 14:09:35.990, 1551726575990
166, -4220.95, 0.00, 0.00, 0.00, 0.00, 0.00, 0.00, 0.00, 0.000, 0.000, 0.000, 14:09:35.998, 1551726575998
167, -4210.31, 0.00, 0.00, 0.00, 0.00, 0.00, 0.00, 0.00, 0.000, 0.000, 0.000, 14:09:35.999, 1551726575999
168, -4178.28, 0.00, 0.00, 0.00, 0.00, 0.00, 0.00, 0.00, -0.656, 0.706, -0.230, 14:09:36.005, 1551726576005
169, -4188.78, 0.00, 0.00, 0.00, 0.00, 0.00, 0.00, 0.00, 0.000, 0.000, 0.000, 14:09:36.006, 1551726576006
170, -4220.05, 0.00, 0.00, 0.00, 0.00, 0.00, 0.00, 0.00, 0.000, 0.000, 0.000, 14:09:36.012, 1551726576012
171, -4226.02, 0.00, 0.00, 0.00, 0.00, 0.00, 0.00, 0.00, 0.000, 0.000, 0.000, 14:09:36.013, 1551726576013
172, -4180.94, 0.00, 0.00, 0.00, 0.00, 0.00, 0.00, 0.00, 0.000, 0.000, 0.000, 14:09:36.020, 1551726576020
173, -4197.01, 0.00, 0.00, 0.00, 0.00, 0.00, 0.00, 0.00, 0.000, 0.000, 0.000, 14:09:36.021, 1551726576021
174, -4215.32, 0.00, 0.00, 0.00, 0.00, 0.00, 0.00, 0.00, 0.000, 0.000, 0.000, 14:09:36.028, 1551726576028
175, -4230.74, 0.00, 0.00, 0.00, 0.00, 0.00, 0.00, 0.00, 0.000, 0.000, 0.000, 14:09:36.028, 1551726576028
176, -4191.11, 0.00, 0.00, 0.00, 0.00, 0.00, 0.00, 0.00, 0.000, 0.000, 0.000, 14:09:36.034, 1551726576034
177, -4181.65, 0.00, 0.00, 0.00, 0.00, 0.00, 0.00, 0.00, 0.000, 0.000, 0.000, 14:09:36.035, 1551726576035
178, -4201.77, 0.00, 0.00, 0.00, 0.00, 0.00, 0.00, 0.00, -0.658, 0.712, -0.226, 14:09:36.042, 1551726576042
179, -4231.90, 0.00, 0.00, 0.00, 0.00, 0.00, 0.00, 0.00, 0.000, 0.000, 0.000, 14:09:36.050, 1551726576050
180, -4206.31, 0.00, 0.00, 0.00, 0.00, 0.00, 0.00, 0.00, 0.000, 0.000, 0.000, 14:09:36.050, 1551726576050
181, -4182.46, 0.00, 0.00, 0.00, 0.00, 0.00, 0.00, 0.00, 0.000, 0.000, 0.000, 14:09:36.057, 1551726576057
182, -4206.53, 0.00, 0.00, 0.00, 0.00, 0.00, 0.00, 0.00, 0.000, 0.000, 0.000, 14:09:36.058, 1551726576058
183, -4240.66, 0.00, 0.00, 0.00, 0.00, 0.00, 0.00, 0.00, 0.000, 0.000, 0.000, 14:09:36.065, 1551726576065
184, -4209.46, 0.00, 0.00, 0.00, 0.00, 0.00, 0.00, 0.00, 0.000, 0.000, 0.000, 14:09:36.065, 1551726576065
185, -4185.12, 0.00, 0.00, 0.00, 0.00, 0.00, 0.00, 0.00, 0.000, 0.000, 0.000, 14:09:36.073, 1551726576073
186, -4205.12, 0.00, 0.00, 0.00, 0.00, 0.00, 0.00, 0.00, 0.000, 0.000, 0.000, 14:09:36.074, 1551726576074
187, -4249.92, 0.00, 0.00, 0.00, 0.00, 0.00, 0.00, 0.00, 0.000, 0.000, 0.000, 14:09:36.081, 1551726576081
188, -4233.40, 0.00, 0.00, 0.00, 0.00, 0.00, 0.00, 0.00, -0.660, 0.714, -0.218, 14:09:36.081, 1551726576081
189, -4195.58, 0.00, 0.00, 0.00, 0.00, 0.00, 0.00, 0.00, 0.000, 0.000, 0.000, 14:09:36.087, 1551726576087
190, -4201.88, 0.00, 0.00, 0.00, 0.00, 0.00, 0.00, 0.00, 0.000, 0.000, 0.000, 14:09:36.088, 1551726576088
191, -4236.46, 0.00, 0.00, 0.00, 0.00, 0.00, 0.00, 0.00, 0.000, 0.000, 0.000, 14:09:36.095, 1551726576095
192, -4232.08, 0.00, 0.00, 0.00, 0.00, 0.00, 0.00, 0.00, 0.000, 0.000, 0.000, 14:09:36.096, 1551726576096
193, -4187.02, 0.00, 0.00, 0.00, 0.00, 0.00, 0.00, 0.00, 0.000, 0.000, 0.000, 14:09:36.102, 1551726576102
194, -4195.67, 0.00, 0.00, 0.00, 0.00, 0.00, 0.00, 0.00, 0.000, 0.000, 0.000, 14:09:36.111, 1551726576111
195, -4234.25, 0.00, 0.00, 0.00, 0.00, 0.00, 0.00, 0.00, 0.000, 0.000, 0.000, 14:09:36.111, 1551726576111
196, -4247.37, 0.00, 0.00, 0.00, 0.00, 0.00, 0.00, 0.00, 0.000, 0.000, 0.000, 14:09:36.117, 1551726576117
197, -4207.51, 0.00, 0.00, 0.00, 0.00, 0.00, 0.00, 0.00, -0.654, 0.712, -0.214, 14:09:36.117, 1551726576117
198, -4198.93, 0.00, 0.00, 0.00, 0.00, 0.00, 0.00, 0.00, 0.000, 0.000, 0.000, 14:09:36.125, 1551726576125
199, -4225.89, 0.00, 0.00, 0.00, 0.00, 0.00, 0.00, 0.00, 0.000, 0.000, 0.000, 14:09:36.125, 1551726576125
200, -4241.06, 0.00, 0.00, 0.00, 0.00, 0.00, 0.00, 0.00, 0.000, 0.000, 0.000, 14:09:36.133, 1551726576133
201, -4200.43, 0.00, 0.00, 0.00, 0.00, 0.00, 0.00, 0.00, 0.000, 0.000, 0.000, 14:09:36.133, 1551726576133
202, -4200.45, 0.00, 0.00, 0.00, 0.00, 0.00, 0.00, 0.00, 0.000, 0.000, 0.000, 14:09:36.140, 1551726576140
203, -4218.80, 0.00, 0.00, 0.00, 0.00, 0.00, 0.00, 0.00, 0.000, 0.000, 0.000, 14:09:36.140, 1551726576140
204, -4236.80, 0.00, 0.00, 0.00, 0.00, 0.00, 0.00, 0.00, 0.000, 0.000, 0.000, 14:09:36.148, 1551726576148
205, -4202.37, 0.00, 0.00, 0.00, 0.00, 0.00, 0.00, 0.00, 0.000, 0.000, 0.000, 14:09:36.149, 1551726576149
206, -4188.14, 0.00, 0.00, 0.00, 0.00, 0.00, 0.00, 0.00, 0.000, 0.000, 0.000, 14:09:36.156, 1551726576156
207, -4208.36, 0.00, 0.00, 0.00, 0.00, 0.00, 0.00, 0.00, -0.650, 0.714, -0.216, 14:09:36.156, 1551726576156
208, -4239.50, 0.00, 0.00, 0.00, 0.00, 0.00, 0.00, 0.00, 0.000, 0.000, 0.000, 14:09:36.163, 1551726576163
209, -4211.16, 0.00, 0.00, 0.00, 0.00, 0.00, 0.00, 0.00, 0.000, 0.000, 0.000, 14:09:36.169, 1551726576169
210, -4185.86, 0.00, 0.00, 0.00, 0.00, 0.00, 0.00, 0.00, 0.000, 0.000, 0.000, 14:09:36.169, 1551726576169
211, -4204.63, 0.00, 0.00, 0.00, 0.00, 0.00, 0.00, 0.00, 0.000, 0.000, 0.000, 14:09:36.178, 1551726576178
212, -4244.31, 0.00, 0.00, 0.00, 0.00, 0.00, 0.00, 0.00, 0.000, 0.000, 0.000, 14:09:36.178, 1551726576178
213, -4227.34, 0.00, 0.00, 0.00, 0.00, 0.00, 0.00, 0.00, 0.000, 0.000, 0.000, 14:09:36.185, 1551726576185
214, -4191.60, 0.00, 0.00, 0.00, 0.00, 0.00, 0.00, 0.00, 0.000, 0.000, 0.000, 14:09:36.185, 1551726576185
215, -4207.20, 0.00, 0.00, 0.00, 0.00, 0.00, 0.00, 0.00, 0.000, 0.000, 0.000, 14:09:36.193, 1551726576193
216, -4230.45, 0.00, 0.00, 0.00, 0.00, 0.00, 0.00, 0.00, 0.000, 0.000, 0.000, 14:09:36.193, 1551726576193
217, -4239.92, 0.00, 0.00, 0.00, 0.00, 0.00, 0.00, 0.00, -0.650, 0.708, -0.220, 14:09:36.201, 1551726576201
218, -4193.46, 0.00, 0.00, 0.00, 0.00, 0.00, 0.00, 0.00, 0.000, 0.000, 0.000, 14:09:36.202, 1551726576202
219, -4191.71, 0.00, 0.00, 0.00, 0.00, 0.00, 0.00, 0.00, 0.000, 0.000, 0.000, 14:09:36.207, 1551726576207
220, -4225.28, 0.00, 0.00, 0.00, 0.00, 0.00, 0.00, 0.00, 0.000, 0.000, 0.000, 14:09:36.207, 1551726576207
221, -4238.38, 0.00, 0.00, 0.00, 0.00, 0.00, 0.00, 0.00, 0.000, 0.000, 0.000, 14:09:36.216, 1551726576216
222, -4195.00, 0.00, 0.00, 0.00, 0.00, 0.00, 0.00, 0.00, 0.000, 0.000, 0.000, 14:09:36.216, 1551726576216
223, -4196.36, 0.00, 0.00, 0.00, 0.00, 0.00, 0.00, 0.00, 0.000, 0.000, 0.000, 14:09:36.222, 1551726576222
224, -4218.13, 0.00, 0.00, 0.00, 0.00, 0.00, 0.00, 0.00, 0.000, 0.000, 0.000, 14:09:36.231, 1551726576231
225, -4240.10, 0.00, 0.00, 0.00, 0.00, 0.00, 0.00, 0.00, 0.000, 0.000, 0.000, 14:09:36.232, 1551726576232
226, -4201.46, 0.00, 0.00, 0.00, 0.00, 0.00, 0.00, 0.00, 0.000, 0.000, 0.000, 14:09:36.237, 1551726576237
227, -4191.71, 0.00, 0.00, 0.00, 0.00, 0.00, 0.00, 0.00, -0.654, 0.704, -0.220, 14:09:36.237, 1551726576237
228, -4221.28, 0.00, 0.00, 0.00, 0.00, 0.00, 0.00, 0.00, 0.000, 0.000, 0.000, 14:09:36.245, 1551726576245
229, -4250.21, 0.00, 0.00, 0.00, 0.00, 0.00, 0.00, 0.00, 0.000, 0.000, 0.000, 14:09:36.246, 1551726576246
230, -4221.04, 0.00, 0.00, 0.00, 0.00, 0.00, 0.00, 0.00, 0.000, 0.000, 0.000, 14:09:36.253, 1551726576253
231, -4195.96, 0.00, 0.00, 0.00, 0.00, 0.00, 0.00, 0.00, 0.000, 0.000, 0.000, 14:09:36.253, 1551726576253
232, -4206.75, 0.00, 0.00, 0.00, 0.00, 0.00, 0.00, 0.00, 0.000, 0.000, 0.000, 14:09:36.260, 1551726576260
233, -4251.75, 0.00, 0.00, 0.00, 0.00, 0.00, 0.00, 0.00, 0.000, 0.000, 0.000, 14:09:36.260, 1551726576260
234, -4217.93, 0.00, 0.00, 0.00, 0.00, 0.00, 0.00, 0.00, 0.000, 0.000, 0.000, 14:09:36.268, 1551726576268
235, -4187.06, 0.00, 0.00, 0.00, 0.00, 0.00, 0.00, 0.00, 0.000, 0.000, 0.000, 14:09:36.268, 1551726576268
236, -4202.78, 0.00, 0.00, 0.00, 0.00, 0.00, 0.00, 0.00, 0.000, 0.000, 0.000, 14:09:36.276, 1551726576276
237, -4239.68, 0.00, 0.00, 0.00, 0.00, 0.00, 0.00, 0.00, -0.656, 0.706, -0.218, 14:09:36.276, 1551726576276
238, -4233.11, 0.00, 0.00, 0.00, 0.00, 0.00, 0.00, 0.00, 0.000, 0.000, 0.000, 14:09:36.283, 1551726576283
239, -4199.20, 0.00, 0.00, 0.00, 0.00, 0.00, 0.00, 0.00, 0.000, 0.000, 0.000, 14:09:36.283, 1551726576283
240, -4199.67, 0.00, 0.00, 0.00, 0.00, 0.00, 0.00, 0.00, 0.000, 0.000, 0.000, 14:09:36.290, 1551726576290
241, -4235.48, 0.00, 0.00, 0.00, 0.00, 0.00, 0.00, 0.00, 0.000, 0.000, 0.000, 14:09:36.297, 1551726576297
242, -4239.21, 0.00, 0.00, 0.00, 0.00, 0.00, 0.00, 0.00, 0.000, 0.000, 0.000, 14:09:36.298, 1551726576298
243, -4202.71, 0.00, 0.00, 0.00, 0.00, 0.00, 0.00, 0.00, 0.000, 0.000, 0.000, 14:09:36.305, 1551726576305
244, -4206.26, 0.00, 0.00, 0.00, 0.00, 0.00, 0.00, 0.00, 0.000, 0.000, 0.000, 14:09:36.305, 1551726576305
245, -4225.95, 0.00, 0.00, 0.00, 0.00, 0.00, 0.00, 0.00, 0.000, 0.000, 0.000, 14:09:36.314, 1551726576314
246, -4245.07, 0.00, 0.00, 0.00, 0.00, 0.00, 0.00, 0.00, 0.000, 0.000, 0.000, 14:09:36.314, 1551726576314
247, -4212.12, 0.00, 0.00, 0.00, 0.00, 0.00, 0.00, 0.00, -0.656, 0.710, -0.218, 14:09:36.320, 1551726576320
248, -4191.89, 0.00, 0.00, 0.00, 0.00, 0.00, 0.00, 0.00, 0.000, 0.000, 0.000, 14:09:36.320, 1551726576320
249, -4215.96, 0.00, 0.00, 0.00, 0.00, 0.00, 0.00, 0.00, 0.000, 0.000, 0.000, 14:09:36.328, 1551726576328
250, -4246.85, 0.00, 0.00, 0.00, 0.00, 0.00, 0.00, 0.00, 0.000, 0.000, 0.000, 14:09:36.328, 1551726576328
251, -4209.01, 0.00, 0.00, 0.00, 0.00, 0.00, 0.00, 0.00, 0.000, 0.000, 0.000, 14:09:36.336, 1551726576336
252, -4194.17, 0.00, 0.00, 0.00, 0.00, 0.00, 0.00, 0.00, 0.000, 0.000, 0.000, 14:09:36.337, 1551726576337
253, -4213.04, 0.00, 0.00, 0.00, 0.00, 0.00, 0.00, 0.00, 0.000, 0.000, 0.000, 14:09:36.342, 1551726576342
254, -4245.07, 0.00, 0.00, 0.00, 0.00, 0.00, 0.00, 0.00, 0.000, 0.000, 0.000, 14:09:36.343, 1551726576343
255, -4217.82, 0.00, 0.00, 0.00, 0.00, 0.00, 0.00, 0.00, 0.000, 0.000, 0.000, 14:09:36.350, 1551726576350
0, -4192.32, 0.00, 0.00, 0.00, 0.00, 0.00, 0.00, 0.00, 0.000, 0.000, 0.000, 14:09:36.357, 1551726576357
1, -4214.24, 0.00, 0.00, 0.00, 0.00, 0.00, 0.00, 0.00, -0.652, 0.710, -0.216, 14:09:36.358, 1551726576358
2, -4249.67, 0.00, 0.00, 0.00, 0.00, 0.00, 0.00, 0.00, 0.000, 0.000, 0.000, 14:09:36.366, 1551726576366
3, -4224.03, 0.00, 0.00, 0.00, 0.00, 0.00, 0.00, 0.00, 0.000, 0.000, 0.000, 14:09:36.366, 1551726576366
4, -4190.71, 0.00, 0.00, 0.00, 0.00, 0.00, 0.00, 0.00, 0.000, 0.000, 0.000, 14:09:36.373, 1551726576373
5, -4207.29, 0.00, 0.00, 0.00, 0.00, 0.00, 0.00, 0.00, 0.000, 0.000, 0.000, 14:09:36.373, 1551726576373
6, -4247.14, 0.00, 0.00, 0.00, 0.00, 0.00, 0.00, 0.00, 0.000, 0.000, 0.000, 14:09:36.380, 1551726576380
7, -4230.85, 0.00, 0.00, 0.00, 0.00, 0.00, 0.00, 0.00, 0.000, 0.000, 0.000, 14:09:36.380, 1551726576380
8, -4197.23, 0.00, 0.00, 0.00, 0.00, 0.00, 0.00, 0.00, 0.000, 0.000, 0.000, 14:09:36.388, 1551726576388
9, -4202.24, 0.00, 0.00, 0.00, 0.00, 0.00, 0.00, 0.00, 0.000, 0.000, 0.000, 14:09:36.388, 1551726576388
10, -4238.70, 0.00, 0.00, 0.00, 0.00, 0.00, 0.00, 0.00, -0.652, 0.712, -0.222, 14:09:36.395, 1551726576395
11, -4230.40, 0.00, 0.00, 0.00, 0.00, 0.00, 0.00, 0.00, 0.000, 0.000, 0.000, 14:09:36.395, 1551726576395
12, -4195.69, 0.00, 0.00, 0.00, 0.00, 0.00, 0.00, 0.00, 0.000, 0.000, 0.000, 14:09:36.403, 1551726576403
13, -4195.33, 0.00, 0.00, 0.00, 0.00, 0.00, 0.00, 0.00, 0.000, 0.000, 0.000, 14:09:36.403, 1551726576403
14, -4220.05, 0.00, 0.00, 0.00, 0.00, 0.00, 0.00, 0.00, 0.000, 0.000, 0.000, 14:09:36.410, 1551726576410
15, -4243.25, 0.00, 0.00, 0.00, 0.00, 0.00, 0.00, 0.00, 0.000, 0.000, 0.000, 14:09:36.418, 1551726576418
16, -4206.64, 0.00, 0.00, 0.00, 0.00, 0.00, 0.00, 0.00, 0.000, 0.000, 0.000, 14:09:36.418, 1551726576418
17, -4196.03, 0.00, 0.00, 0.00, 0.00, 0.00, 0.00, 0.00, 0.000, 0.000, 0.000, 14:09:36.425, 1551726576425
18, -4224.08, 0.00, 0.00, 0.00, 0.00, 0.00, 0.00, 0.00, 0.000, 0.000, 0.000, 14:09:36.425, 1551726576425
19, -4248.55, 0.00, 0.00, 0.00, 0.00, 0.00, 0.00, 0.00, 0.000, 0.000, 0.000, 14:09:36.432, 1551726576432
20, -4211.87, 0.00, 0.00, 0.00, 0.00, 0.00, 0.00, 0.00, -0.654, 0.710, -0.222, 14:09:36.433, 1551726576433
21, -4198.71, 0.00, 0.00, 0.00, 0.00, 0.00, 0.00, 0.00, 0.000, 0.000, 0.000, 14:09:36.440, 1551726576440
22, -4223.16, 0.00, 0.00, 0.00, 0.00, 0.00, 0.00, 0.00, 0.000, 0.000, 0.000, 14:09:36.441, 1551726576441
23, -4258.45, 0.00, 0.00, 0.00, 0.00, 0.00, 0.00, 0.00, 0.000, 0.000, 0.000, 14:09:36.448, 1551726576448
24, -4247.21, 0.00, 0.00, 0.00, 0.00, 0.00, 0.00, 0.00, 0.000, 0.000, 0.000, 14:09:36.449, 1551726576449
25, -4194.08, 0.00, 0.00, 0.00, 0.00, 0.00, 0.00, 0.00, 0.000, 0.000, 0.000, 14:09:36.456, 1551726576456
26, -4211.05, 0.00, 0.00, 0.00, 0.00, 0.00, 0.00, 0.00, 0.000, 0.000, 0.000, 14:09:36.456, 1551726576456
27, -4249.45, 0.00, 0.00, 0.00, 0.00, 0.00, 0.00, 0.00, 0.000, 0.000, 0.000, 14:09:36.463, 1551726576463
28, -4231.68, 0.00, 0.00, 0.00, 0.00, 0.00, 0.00, 0.00, 0.000, 0.000, 0.000, 14:09:36.463, 1551726576463
29, -4198.66, 0.00, 0.00, 0.00, 0.00, 0.00, 0.00, 0.00, 0.000, 0.000, 0.000, 14:09:36.470, 1551726576470
30, -4211.29, 0.00, 0.00, 0.00, 0.00, 0.00, 0.00, 0.00, -0.650, 0.710, -0.218, 14:09:36.477, 1551726576477
31, -4240.73, 0.00, 0.00, 0.00, 0.00, 0.00, 0.00, 0.00, 0.000, 0.000, 0.000, 14:09:36.477, 1551726576477
32, -4232.91, 0.00, 0.00, 0.00, 0.00, 0.00, 0.00, 0.00, 0.000, 0.000, 0.000, 14:09:36.485, 1551726576485
33, -4197.81, 0.00, 0.00, 0.00, 0.00, 0.00, 0.00, 0.00, 0.000, 0.000, 0.000, 14:09:36.485, 1551726576485
34, -4202.80, 0.00, 0.00, 0.00, 0.00, 0.00, 0.00, 0.00, 0.000, 0.000, 0.000, 14:09:36.493, 1551726576493
35, -4235.01, 0.00, 0.00, 0.00, 0.00, 0.00, 0.00, 0.00, 0.000, 0.000, 0.000, 14:09:36.493, 1551726576493
36, -4245.42, 0.00, 0.00, 0.00, 0.00, 0.00, 0.00, 0.00, 0.000, 0.000, 0.000, 14:09:36.501, 1551726576501
37, -4204.34, 0.00, 0.00, 0.00, 0.00, 0.00, 0.00, 0.00, 0.000, 0.000, 0.000, 14:09:36.501, 1551726576501
38, -4202.75, 0.00, 0.00, 0.00, 0.00, 0.00, 0.00, 0.00, 0.000, 0.000, 0.000, 14:09:36.508, 1551726576508
39, -4237.73, 0.00, 0.00, 0.00, 0.00, 0.00, 0.00, 0.00, 0.000, 0.000, 0.000, 14:09:36.508, 1551726576508
40, -4269.00, 0.00, 0.00, 0.00, 0.00, 0.00, 0.00, 0.00, -0.652, 0.708, -0.218, 14:09:36.515, 1551726576515
41, -4214.53, 0.00, 0.00, 0.00, 0.00, 0.00, 0.00, 0.00, 0.000, 0.000, 0.000, 14:09:36.516, 1551726576516
42, -4200.05, 0.00, 0.00, 0.00, 0.00, 0.00, 0.00, 0.00, 0.000, 0.000, 0.000, 14:09:36.524, 1551726576524
43, -4230.87, 0.00, 0.00, 0.00, 0.00, 0.00, 0.00, 0.00, 0.000, 0.000, 0.000, 14:09:36.524, 1551726576524
44, -4258.88, 0.00, 0.00, 0.00, 0.00, 0.00, 0.00, 0.00, 0.000, 0.000, 0.000, 14:09:36.530, 1551726576530
45, -4223.85, 0.00, 0.00, 0.00, 0.00, 0.00, 0.00, 0.00, 0.000, 0.000, 0.000, 14:09:36.531, 1551726576531
46, -4197.84, 0.00, 0.00, 0.00, 0.00, 0.00, 0.00, 0.00, 0.000, 0.000, 0.000, 14:09:36.537, 1551726576537
47, -4219.38, 0.00, 0.00, 0.00, 0.00, 0.00, 0.00, 0.00, 0.000, 0.000, 0.000, 14:09:36.545, 1551726576545
48, -4257.38, 0.00, 0.00, 0.00, 0.00, 0.00, 0.00, 0.00, 0.000, 0.000, 0.000, 14:09:36.545, 1551726576545
49, -4228.53, 0.00, 0.00, 0.00, 0.00, 0.00, 0.00, 0.00, 0.000, 0.000, 0.000, 14:09:36.553, 1551726576553
50, -4201.48, 0.00, 0.00, 0.00, 0.00, 0.00, 0.00, 0.00, -0.648, 0.710, -0.214, 14:09:36.553, 1551726576553
51, -4217.46, 0.00, 0.00, 0.00, 0.00, 0.00, 0.00, 0.00, 0.000, 0.000, 0.000, 14:09:36.560, 1551726576560
52, -4253.67, 0.00, 0.00, 0.00, 0.00, 0.00, 0.00, 0.00, 0.000, 0.000, 0.000, 14:09:36.560, 1551726576560
53, -4238.07, 0.00, 0.00, 0.00, 0.00, 0.00, 0.00, 0.00, 0.000, 0.000, 0.000, 14:09:36.567, 1551726576567
54, -4198.37, 0.00, 0.00, 0.00, 0.00, 0.00, 0.00, 0.00, 0.000, 0.000, 0.000, 14:09:36.568, 1551726576568
55, -4207.43, 0.00, 0.00, 0.00, 0.00, 0.00, 0.00, 0.00, 0.000, 0.000, 0.000, 14:09:36.576, 1551726576576
56, -4248.53, 0.00, 0.00, 0.00, 0.00, 0.00, 0.00, 0.00, 0.000, 0.000, 0.000, 14:09:36.576, 1551726576576
57, -4257.29, 0.00, 0.00, 0.00, 0.00, 0.00, 0.00, 0.00, 0.000, 0.000, 0.000, 14:09:36.583, 1551726576583
58, -4202.93, 0.00, 0.00, 0.00, 0.00, 0.00, 0.00, 0.00, 0.000, 0.000, 0.000, 14:09:36.583, 1551726576583
59, -4204.83, 0.00, 0.00, 0.00, 0.00, 0.00, 0.00, 0.00, 0.000, 0.000, 0.000, 14:09:36.591, 1551726576591
60, -4238.76, 0.00, 0.00, 0.00, 0.00, 0.00, 0.00, 0.00, -0.654, 0.712, -0.214, 14:09:36.591, 1551726576591
61, -4249.11, 0.00, 0.00, 0.00, 0.00, 0.00, 0.00, 0.00, 0.000, 0.000, 0.000, 14:09:36.597, 1551726576597
62, -4204.94, 0.00, 0.00, 0.00, 0.00, 0.00, 0.00, 0.00, 0.000, 0.000, 0.000, 14:09:36.606, 1551726576606
63, -4195.02, 0.00, 0.00, 0.00, 0.00, 0.00, 0.00, 0.00, 0.000, 0.000, 0.000, 14:09:36.606, 1551726576606
64, -4224.75, 0.00, 0.00, 0.00, 0.00, 0.00, 0.00, 0.00, 0.000, 0.000, 0.000, 14:09:36.612, 1551726576612
65, -4247.39, 0.00, 0.00, 0.00, 0.00, 0.00, 0.00, 0.00, 0.000, 0.000, 0.000, 14:09:36.613, 1551726576613
66, -4209.50, 0.00, 0.00, 0.00, 0.00, 0.00, 0.00, 0.00, 0.000, 0.000, 0.000, 14:09:36.620, 1551726576620
67, -4194.64, 0.00, 0.00, 0.00, 0.00, 0.00, 0.00, 0.00, 0.000, 0.000, 0.000, 14:09:36.620, 1551726576620
68, -4216.90, 0.00, 0.00, 0.00, 0.00, 0.00, 0.00, 0.00, 0.000, 0.000, 0.000, 14:09:36.628, 1551726576628
69, -4250.65, 0.00, 0.00, 0.00, 0.00, 0.00, 0.00, 0.00, -0.652, 0.708, -0.208, 14:09:36.628, 1551726576628
70, -4217.53, 0.00, 0.00, 0.00, 0.00, 0.00, 0.00, 0.00, 0.000, 0.000, 0.000, 14:09:36.637, 1551726576637
71, -4195.91, 0.00, 0.00, 0.00, 0.00, 0.00, 0.00, 0.00, 0.000, 0.000, 0.000, 14:09:36.637, 1551726576637
72, -4215.85, 0.00, 0.00, 0.00, 0.00, 0.00, 0.00, 0.00, 0.000, 0.000, 0.000, 14:09:36.642, 1551726576642
73, -4254.52, 0.00, 0.00, 0.00, 0.00, 0.00, 0.00, 0.00, 0.000, 0.000, 0.000, 14:09:36.643, 1551726576643
74, -4229.69, 0.00, 0.00, 0.00, 0.00, 0.00, 0.00, 0.00, 0.000, 0.000, 0.000, 14:09:36.650, 1551726576650
75, -4205.19, 0.00, 0.00, 0.00, 0.00, 0.00, 0.00, 0.00, 0.000, 0.000, 0.000, 14:09:36.651, 1551726576651
76, -4220.17, 0.00, 0.00, 0.00, 0.00, 0.00, 0.00, 0.00, 0.000, 0.000, 0.000, 14:09:36.658, 1551726576658
77, -4244.44, 0.00, 0.00, 0.00, 0.00, 0.00, 0.00, 0.00, 0.000, 0.000, 0.000, 14:09:36.666, 1551726576666
78, -4237.60, 0.00, 0.00, 0.00, 0.00, 0.00, 0.00, 0.00, 0.000, 0.000, 0.000, 14:09:36.666, 1551726576666
79, -4202.19, 0.00, 0.00, 0.00, 0.00, 0.00, 0.00, 0.00, -0.654, 0.708, -0.212, 14:09:36.672, 1551726576672
80, -4207.36, 0.00, 0.00, 0.00, 0.00, 0.00, 0.00, 0.00, 0.000, 0.000, 0.000, 14:09:36.672, 1551726576672
81, -4244.80, 0.00, 0.00, 0.00, 0.00, 0.00, 0.00, 0.00, 0.000, 0.000, 0.000, 14:09:36.680, 1551726576680
82, -4250.16, 0.00, 0.00, 0.00, 0.00, 0.00, 0.00, 0.00, 0.000, 0.000, 0.000, 14:09:36.680, 1551726576680
83, -4214.87, 0.00, 0.00, 0.00, 0.00, 0.00, 0.00, 0.00, 0.000, 0.000, 0.000, 14:09:36.688, 1551726576688
84, -4206.53, 0.00, 0.00, 0.00, 0.00, 0.00, 0.00, 0.00, 0.000, 0.000, 0.000, 14:09:36.688, 1551726576688
85, -4233.51, 0.00, 0.00, 0.00, 0.00, 0.00, 0.00, 0.00, 0.000, 0.000, 0.000, 14:09:36.695, 1551726576695
86, -4250.50, 0.00, 0.00, 0.00, 0.00, 0.00, 0.00, 0.00, 0.000, 0.000, 0.000, 14:09:36.695, 1551726576695
87, -4211.11, 0.00, 0.00, 0.00, 0.00, 0.00, 0.00, 0.00, 0.000, 0.000, 0.000, 14:09:36.705, 1551726576705
88, -4201.75, 0.00, 0.00, 0.00, 0.00, 0.00, 0.00, 0.00, 0.000, 0.000, 0.000, 14:09:36.705, 1551726576705
89, -4229.89, 0.00, 0.00, 0.00, 0.00, 0.00, 0.00, 0.00, -0.648, 0.710, -0.214, 14:09:36.711, 1551726576711
90, -4255.37, 0.00, 0.00, 0.00, 0.00, 0.00, 0.00, 0.00, 0.000, 0.000, 0.000, 14:09:36.711, 1551726576711
91, -4212.68, 0.00, 0.00, 0.00, 0.00, 0.00, 0.00, 0.00, 0.000, 0.000, 0.000, 14:09:36.718, 1551726576718
92, -4204.90, 0.00, 0.00, 0.00, 0.00, 0.00, 0.00, 0.00, 0.000, 0.000, 0.000, 14:09:36.724, 1551726576724
93, -4232.10, 0.00, 0.00, 0.00, 0.00, 0.00, 0.00, 0.00, 0.000, 0.000, 0.000, 14:09:36.724, 1551726576724
94, -4248.42, 0.00, 0.00, 0.00, 0.00, 0.00, 0.00, 0.00, 0.000, 0.000, 0.000, 14:09:36.732, 1551726576732
95, -4222.54, 0.00, 0.00, 0.00, 0.00, 0.00, 0.00, 0.00, 0.000, 0.000, 0.000, 14:09:36.733, 1551726576733
96, -4200.21, 0.00, 0.00, 0.00, 0.00, 0.00, 0.00, 0.00, 0.000, 0.000, 0.000, 14:09:36.741, 1551726576741
97, -4218.96, 0.00, 0.00, 0.00, 0.00, 0.00, 0.00, 0.00, 0.000, 0.000, 0.000, 14:09:36.742, 1551726576742
98, -4249.76, 0.00, 0.00, 0.00, 0.00, 0.00, 0.00, 0.00, 0.000, 0.000, 0.000, 14:09:36.748, 1551726576748
99, -4226.58, 0.00, 0.00, 0.00, 0.00, 0.00, 0.00, 0.00, -0.652, 0.710, -0.216, 14:09:36.748, 1551726576748
100, -4200.61, 0.00, 0.00, 0.00, 0.00, 0.00, 0.00, 0.00, 0.000, 0.000, 0.000, 14:09:36.755, 1551726576755
101, -4214.18, 0.00, 0.00, 0.00, 0.00, 0.00, 0.00, 0.00, 0.000, 0.000, 0.000, 14:09:36.755, 1551726576755
102, -4245.69, 0.00, 0.00, 0.00, 0.00, 0.00, 0.00, 0.00, 0.000, 0.000, 0.000, 14:09:36.763, 1551726576763
103, -4232.19, 0.00, 0.00, 0.00, 0.00, 0.00, 0.00, 0.00, 0.000, 0.000, 0.000, 14:09:36.763, 1551726576763
104, -4200.03, 0.00, 0.00, 0.00, 0.00, 0.00, 0.00, 0.00, 0.000, 0.000, 0.000, 14:09:36.771, 1551726576771
105, -4208.88, 0.00, 0.00, 0.00, 0.00, 0.00, 0.00, 0.00, 0.000, 0.000, 0.000, 14:09:36.772, 1551726576772
106, -4246.76, 0.00, 0.00, 0.00, 0.00, 0.00, 0.00, 0.00, 0.000, 0.000, 0.000, 14:09:36.777, 1551726576777
107, -4243.30, 0.00, 0.00, 0.00, 0.00, 0.00, 0.00, 0.00, 0.000, 0.000, 0.000, 14:09:36.778, 1551726576778
108, -4202.26, 0.00, 0.00, 0.00, 0.00, 0.00, 0.00, 0.00, 0.000, 0.000, 0.000, 14:09:36.785, 1551726576785
109, -4202.40, 0.00, 0.00, 0.00, 0.00, 0.00, 0.00, 0.00, -0.648, 0.714, -0.218, 14:09:36.793, 1551726576793
110, -4229.31, 0.00, 0.00, 0.00, 0.00, 0.00, 0.00, 0.00, 0.000, 0.000, 0.000, 14:09:36.793, 1551726576793
111, -4247.81, 0.00, 0.00, 0.00, 0.00, 0.00, 0.00, 0.00, 0.000, 0.000, 0.000, 14:09:36.801, 1551726576801
112, -4209.91, 0.00, 0.00, 0.00, 0.00, 0.00, 0.00, 0.00, 0.000, 0.000, 0.000, 14:09:36.801, 1551726576801
113, -4203.47, 0.00, 0.00, 0.00, 0.00, 0.00, 0.00, 0.00, 0.000, 0.000, 0.000, 14:09:36.808, 1551726576808
114, -4225.80, 0.00, 0.00, 0.00, 0.00, 0.00, 0.00, 0.00, 0.000, 0.000, 0.000, 14:09:36.808, 1551726576808
115, -4253.69, 0.00, 0.00, 0.00, 0.00, 0.00, 0.00, 0.00, 0.000, 0.000, 0.000, 14:09:36.815, 1551726576815
116, -4218.38, 0.00, 0.00, 0.00, 0.00, 0.00, 0.00, 0.00, 0.000, 0.000, 0.000, 14:09:36.815, 1551726576815
117, -4191.24, 0.00, 0.00, 0.00, 0.00, 0.00, 0.00, 0.00, 0.000, 0.000, 0.000, 14:09:36.824, 1551726576824
118, -4218.20, 0.00, 0.00, 0.00, 0.00, 0.00, 0.00, 0.00, 0.000, 0.000, 0.000, 14:09:36.824, 1551726576824
119, -4255.84, 0.00, 0.00, 0.00, 0.00, 0.00, 0.00, 0.00, -0.650, 0.708, -0.214, 14:09:36.830, 1551726576830
120, -4221.82, 0.00, 0.00, 0.00, 0.00, 0.00, 0.00, 0.00, 0.000, 0.000, 0.000, 14:09:36.830, 1551726576830
121, -4189.81, 0.00, 0.00, 0.00, 0.00, 0.00, 0.00, 0.00, 0.000, 0.000, 0.000, 14:09:36.838, 1551726576838
122, -4218.31, 0.00, 0.00, 0.00, 0.00, 0.00, 0.00, 0.00, 0.000, 0.000, 0.000, 14:09:36.838, 1551726576838
123, -4244.40, 0.00, 0.00, 0.00, 0.00, 0.00, 0.00, 0.00, 0.000, 0.000, 0.000, 14:09:36.845, 1551726576845
124, -4229.62, 0.00, 0.00, 0.00, 0.00, 0.00, 0.00, 0.00, 0.000, 0.000, 0.000, 14:09:36.853, 1551726576853
125, -4196.58, 0.00, 0.00, 0.00, 0.00, 0.00, 0.00, 0.00, 0.000, 0.000, 0.000, 14:09:36.853, 1551726576853
126, -4203.87, 0.00, 0.00, 0.00, 0.00, 0.00, 0.00, 0.00, 0.000, 0.000, 0.000, 14:09:36.860, 1551726576860
127, -4240.15, 0.00, 0.00, 0.00, 0.00, 0.00, 0.00, 0.00, 0.000, 0.000, 0.000, 14:09:36.860, 1551726576860
128, -4236.15, 0.00, 0.00, 0.00, 0.00, 0.00, 0.00, 0.00, 0.000, 0.000, 0.000, 14:09:36.868, 1551726576868
129, -4192.90, 0.00, 0.00, 0.00, 0.00, 0.00, 0.00, 0.00, -0.652, 0.708, -0.216, 14:09:36.868, 1551726576868
130, -4199.27, 0.00, 0.00, 0.00, 0.00, 0.00, 0.00, 0.00, 0.000, 0.000, 0.000, 14:09:36.875, 1551726576875
131, -4231.52, 0.00, 0.00, 0.00, 0.00, 0.00, 0.00, 0.00, 0.000, 0.000, 0.000, 14:09:36.876, 1551726576876
132, -4249.42, 0.00, 0.00, 0.00, 0.00, 0.00, 0.00, 0.00, 0.000, 0.000, 0.000, 14:09:36.883, 1551726576883
133, -4202.95, 0.00, 0.00, 0.00, 0.00, 0.00, 0.00, 0.00, 0.000, 0.000, 0.000, 14:09:36.883, 1551726576883
134, -4192.43, 0.00, 0.00, 0.00, 0.00, 0.00, 0.00, 0.00, 0.000, 0.000, 0.000, 14:09:36.890, 1551726576890
135, -4225.80, 0.00, 0.00, 0.00, 0.00, 0.00, 0.00, 0.00, 0.000, 0.000, 0.000, 14:09:36.890, 1551726576890
136, -4252.78, 0.00, 0.00, 0.00, 0.00, 0.00, 0.00, 0.00, 0.000, 0.000, 0.000, 14:09:36.898, 1551726576898
137, -4199.98, 0.00, 0.00, 0.00, 0.00, 0.00, 0.00, 0.00, 0.000, 0.000, 0.000, 14:09:36.898, 1551726576898
138, -4198.06, 0.00, 0.00, 0.00, 0.00, 0.00, 0.00, 0.00, -0.650, 0.710, -0.222, 14:09:36.905, 1551726576905
139, -4235.50, 0.00, 0.00, 0.00, 0.00, 0.00, 0.00, 0.00, 0.000, 0.000, 0.000, 14:09:36.912, 1551726576912
140, -4261.05, 0.00, 0.00, 0.00, 0.00, 0.00, 0.00, 0.00, 0.000, 0.000, 0.000, 14:09:36.913, 1551726576913
141, -4222.31, 0.00, 0.00, 0.00, 0.00, 0.00, 0.00, 0.00, 0.000, 0.000, 0.000, 14:09:36.920, 1551726576920
142, -4200.92, 0.00, 0.00, 0.00, 0.00, 0.00, 0.00, 0.00, 0.000, 0.000, 0.000, 14:09:36.921, 1551726576921
143, -4220.93, 0.00, 0.00, 0.00, 0.00, 0.00, 0.00, 0.00, 0.000, 0.000, 0.000, 14:09:36.928, 1551726576928
144, -4251.53, 0.00, 0.00, 0.00, 0.00, 0.00, 0.00, 0.00, 0.000, 0.000, 0.000, 14:09:36.928, 1551726576928
145, -4217.75, 0.00, 0.00, 0.00, 0.00, 0.00, 0.00, 0.00, 0.000, 0.000, 0.000, 14:09:36.935, 1551726576935
146, -4191.53, 0.00, 0.00, 0.00, 0.00, 0.00, 0.00, 0.00, 0.000, 0.000, 0.000, 14:09:36.936, 1551726576936
147, -4206.53, 0.00, 0.00, 0.00, 0.00, 0.00, 0.00, 0.00, 0.000, 0.000, 0.000, 14:09:36.942, 1551726576942
148, -4245.58, 0.00, 0.00, 0.00, 0.00, 0.00, 0.00, 0.00, -0.646, 0.712, -0.214, 14:09:36.943, 1551726576943
149, -4229.87, 0.00, 0.00, 0.00, 0.00, 0.00, 0.00, 0.00, 0.000, 0.000, 0.000, 14:09:36.951, 1551726576951
150, -4196.32, 0.00, 0.00, 0.00, 0.00, 0.00, 0.00, 0.00, 0.000, 0.000, 0.000, 14:09:36.951, 1551726576951
151, -4205.79, 0.00, 0.00, 0.00, 0.00, 0.00, 0.00, 0.00, 0.000, 0.000, 0.000, 14:09:36.958, 1551726576958
152, -4248.11, 0.00, 0.00, 0.00, 0.00, 0.00, 0.00, 0.00, 0.000, 0.000, 0.000, 14:09:36.959, 1551726576959
153, -4239.12, 0.00, 0.00, 0.00, 0.00, 0.00, 0.00, 0.00, 0.000, 0.000, 0.000, 14:09:36.965, 1551726576965
154, -4204.50, 0.00, 0.00, 0.00, 0.00, 0.00, 0.00, 0.00, 0.000, 0.000, 0.000, 14:09:36.972, 1551726576972
155, -4210.91, 0.00, 0.00, 0.00, 0.00, 0.00, 0.00, 0.00, 0.000, 0.000, 0.000, 14:09:36.973, 1551726576973
156, -4233.00, 0.00, 0.00, 0.00, 0.00, 0.00, 0.00, 0.00, 0.000, 0.000, 0.000, 14:09:36.980, 1551726576980
157, -4244.57, 0.00, 0.00, 0.00, 0.00, 0.00, 0.00, 0.00, 0.000, 0.000, 0.000, 14:09:36.980, 1551726576980
158, -4203.87, 0.00, 0.00, 0.00, 0.00, 0.00, 0.00, 0.00, -0.650, 0.714, -0.212, 14:09:36.988, 1551726576988
159, -4203.58, 0.00, 0.00, 0.00, 0.00, 0.00, 0.00, 0.00, 0.000, 0.000, 0.000, 14:09:36.988, 1551726576988
160, -4231.39, 0.00, 0.00, 0.00, 0.00, 0.00, 0.00, 0.00, 0.000, 0.000, 0.000, 14:09:36.995, 1551726576995
161, -4255.30, 0.00, 0.00, 0.00, 0.00, 0.00, 0.00, 0.00, 0.000, 0.000, 0.000, 14:09:36.995, 1551726576995
162, -4213.24, 0.00, 0.00, 0.00, 0.00, 0.00, 0.00, 0.00, 0.000, 0.000, 0.000, 14:09:37.003, 1551726577003
163, -4202.35, 0.00, 0.00, 0.00, 0.00, 0.00, 0.00, 0.00, 0.000, 0.000, 0.000, 14:09:37.003, 1551726577003
164, -4243.63, 0.00, 0.00, 0.00, 0.00, 0.00, 0.00, 0.00, 0.000, 0.000, 0.000, 14:09:37.011, 1551726577011
165, -4257.92, 0.00, 0.00, 0.00, 0.00, 0.00, 0.00, 0.00, 0.000, 0.000, 0.000, 14:09:37.011, 1551726577011
166, -4219.05, 0.00, 0.00, 0.00, 0.00, 0.00, 0.00, 0.00, 0.000, 0.000, 0.000, 14:09:37.018, 1551726577018
167, -4203.18, 0.00, 0.00, 0.00, 0.00, 0.00, 0.00, 0.00, 0.000, 0.000, 0.000, 14:09:37.018, 1551726577018
168, -4221.73, 0.00, 0.00, 0.00, 0.00, 0.00, 0.00, 0.00, -0.650, 0.714, -0.216, 14:09:37.025, 1551726577025
169, -4256.26, 0.00, 0.00, 0.00, 0.00, 0.00, 0.00, 0.00, 0.000, 0.000, 0.000, 14:09:37.025, 1551726577025
170, -4242.12, 0.00, 0.00, 0.00, 0.00, 0.00, 0.00, 0.00, 0.000, 0.000, 0.000, 14:09:37.032, 1551726577032
171, -4202.26, 0.00, 0.00, 0.00, 0.00, 0.00, 0.00, 0.00, 0.000, 0.000, 0.000, 14:09:37.041, 1551726577041
172, -4212.59, 0.00, 0.00, 0.00, 0.00, 0.00, 0.00, 0.00, 0.000, 0.000, 0.000, 14:09:37.041, 1551726577041
173, -4248.08, 0.00, 0.00, 0.00, 0.00, 0.00, 0.00, 0.00, 0.000, 0.000, 0.000, 14:09:37.047, 1551726577047
174, -4236.95, 0.00, 0.00, 0.00, 0.00, 0.00, 0.00, 0.00, 0.000, 0.000, 0.000, 14:09:37.048, 1551726577048
175, -4199.31, 0.00, 0.00, 0.00, 0.00, 0.00, 0.00, 0.00, 0.000, 0.000, 0.000, 14:09:37.055, 1551726577055
176, -4211.27, 0.00, 0.00, 0.00, 0.00, 0.00, 0.00, 0.00, 0.000, 0.000, 0.000, 14:09:37.056, 1551726577056
177, -4252.06, 0.00, 0.00, 0.00, 0.00, 0.00, 0.00, 0.00, 0.000, 0.000, 0.000, 14:09:37.063, 1551726577063
178, -4249.87, 0.00, 0.00, 0.00, 0.00, 0.00, 0.00, 0.00, -0.652, 0.712, -0.218, 14:09:37.063, 1551726577063
179, -4205.06, 0.00, 0.00, 0.00, 0.00, 0.00, 0.00, 0.00, 0.000, 0.000, 0.000, 14:09:37.070, 1551726577070
180, -4208.97, 0.00, 0.00, 0.00, 0.00, 0.00, 0.00, 0.00, 0.000, 0.000, 0.000, 14:09:37.071, 1551726577071
181, -4236.15, 0.00, 0.00, 0.00, 0.00, 0.00, 0.00, 0.00, 0.000, 0.000, 0.000, 14:09:37.078, 1551726577078
182, -4249.89, 0.00, 0.00, 0.00, 0.00, 0.00, 0.00, 0.00, 0.000, 0.000, 0.000, 14:09:37.078, 1551726577078
183, -4214.51, 0.00, 0.00, 0.00, 0.00, 0.00, 0.00, 0.00, 0.000, 0.000, 0.000, 14:09:37.086, 1551726577086
184, -4212.16, 0.00, 0.00, 0.00, 0.00, 0.00, 0.00, 0.00, 0.000, 0.000, 0.000, 14:09:37.086, 1551726577086
185, -4226.25, 0.00, 0.00, 0.00, 0.00, 0.00, 0.00, 0.00, 0.000, 0.000, 0.000, 14:09:37.093, 1551726577093
186, -4255.15, 0.00, 0.00, 0.00, 0.00, 0.00, 0.00, 0.00, 0.000, 0.000, 0.000, 14:09:37.100, 1551726577100
187, -4225.55, 0.00, 0.00, 0.00, 0.00, 0.00, 0.00, 0.00, 0.000, 0.000, 0.000, 14:09:37.100, 1551726577100
188, -4208.65, 0.00, 0.00, 0.00, 0.00, 0.00, 0.00, 0.00, -0.650, 0.710, -0.216, 14:09:37.108, 1551726577108
189, -4220.19, 0.00, 0.00, 0.00, 0.00, 0.00, 0.00, 0.00, 0.000, 0.000, 0.000, 14:09:37.108, 1551726577108
190, -4249.02, 0.00, 0.00, 0.00, 0.00, 0.00, 0.00, 0.00, 0.000, 0.000, 0.000, 14:09:37.115, 1551726577115
191, -4218.27, 0.00, 0.00, 0.00, 0.00, 0.00, 0.00, 0.00, 0.000, 0.000, 0.000, 14:09:37.116, 1551726577116
192, -4192.85, 0.00, 0.00, 0.00, 0.00, 0.00, 0.00, 0.00, 0.000, 0.000, 0.000, 14:09:37.124, 1551726577124
193, -4214.78, 0.00, 0.00, 0.00, 0.00, 0.00, 0.00, 0.00, 0.000, 0.000, 0.000, 14:09:37.124, 1551726577124
194, -4252.80, 0.00, 0.00, 0.00, 0.00, 0.00, 0.00, 0.00, 0.000, 0.000, 0.000, 14:09:37.130, 1551726577130
195, -4233.06, 0.00, 0.00, 0.00, 0.00, 0.00, 0.00, 0.00, 0.000, 0.000, 0.000, 14:09:37.130, 1551726577130
196, -4199.20, 0.00, 0.00, 0.00, 0.00, 0.00, 0.00, 0.00, 0.000, 0.000, 0.000, 14:09:37.138, 1551726577138
197, -4208.88, 0.00, 0.00, 0.00, 0.00, 0.00, 0.00, 0.00, -0.652, 0.716, -0.220, 14:09:37.139, 1551726577139
198, -4249.78, 0.00, 0.00, 0.00, 0.00, 0.00, 0.00, 0.00, 0.000, 0.000, 0.000, 14:09:37.146, 1551726577146
199, -4235.90, 0.00, 0.00, 0.00, 0.00, 0.00, 0.00, 0.00, 0.000, 0.000, 0.000, 14:09:37.146, 1551726577146
200, -4200.59, 0.00, 0.00, 0.00, 0.00, 0.00, 0.00, 0.00, 0.000, 0.000, 0.000, 14:09:37.153, 1551726577153
201, -4223.45, 0.00, 0.00, 0.00, 0.00, 0.00, 0.00, 0.00, 0.000, 0.000, 0.000, 14:09:37.160, 1551726577160
202, -4235.99, 0.00, 0.00, 0.00, 0.00, 0.00, 0.00, 0.00, 0.000, 0.000, 0.000, 14:09:37.160, 1551726577160
203, -4243.99, 0.00, 0.00, 0.00, 0.00, 0.00, 0.00, 0.00, 0.000, 0.000, 0.000, 14:09:37.168, 1551726577168
204, -4203.76, 0.00, 0.00, 0.00, 0.00, 0.00, 0.00, 0.00, 0.000, 0.000, 0.000, 14:09:37.168, 1551726577168
205, -4203.67, 0.00, 0.00, 0.00, 0.00, 0.00, 0.00, 0.00, 0.000, 0.000, 0.000, 14:09:37.176, 1551726577176
206, -4235.19, 0.00, 0.00, 0.00, 0.00, 0.00, 0.00, 0.00, 0.000, 0.000, 0.000, 14:09:37.176, 1551726577176
207, -4248.26, 0.00, 0.00, 0.00, 0.00, 0.00, 0.00, 0.00, -0.654, 0.710, -0.220, 14:09:37.183, 1551726577183
208, -4211.98, 0.00, 0.00, 0.00, 0.00, 0.00, 0.00, 0.00, 0.000, 0.000, 0.000, 14:09:37.183, 1551726577183
209, -4200.83, 0.00, 0.00, 0.00, 0.00, 0.00, 0.00, 0.00, 0.000, 0.000, 0.000, 14:09:37.190, 1551726577190
210, -4219.79, 0.00, 0.00, 0.00, 0.00, 0.00, 0.00, 0.00, 0.000, 0.000, 0.000, 14:09:37.191, 1551726577191
211, -4251.08, 0.00, 0.00, 0.00, 0.00, 0.00, 0.00, 0.00, 0.000, 0.000, 0.000, 14:09:37.198, 1551726577198
212, -4216.66, 0.00, 0.00, 0.00, 0.00, 0.00, 0.00, 0.00, 0.000, 0.000, 0.000, 14:09:37.198, 1551726577198
213, -4205.68, 0.00, 0.00, 0.00, 0.00, 0.00, 0.00, 0.00, 0.000, 0.000, 0.000, 14:09:37.205, 1551726577205
214, -4222.89, 0.00, 0.00, 0.00, 0.00, 0.00, 0.00, 0.00, 0.000, 0.000, 0.000, 14:09:37.206, 1551726577206
215, -4254.36, 0.00, 0.00, 0.00, 0.00, 0.00, 0.00, 0.00, 0.000, 0.000, 0.000, 14:09:37.212, 1551726577212
216, -4228.15, 0.00, 0.00, 0.00, 0.00, 0.00, 0.00, 0.00, 0.000, 0.000, 0.000, 14:09:37.220, 1551726577220
217, -4195.33, 0.00, 0.00, 0.00, 0.00, 0.00, 0.00, 0.00, -0.650, 0.710, -0.220, 14:09:37.220, 1551726577220
218, -4214.15, 0.00, 0.00, 0.00, 0.00, 0.00, 0.00, 0.00, 0.000, 0.000, 0.000, 14:09:37.228, 1551726577228
219, -4251.55, 0.00, 0.00, 0.00, 0.00, 0.00, 0.00, 0.00, 0.000, 0.000, 0.000, 14:09:37.229, 1551726577229
220, -4234.96, 0.00, 0.00, 0.00, 0.00, 0.00, 0.00, 0.00, 0.000, 0.000, 0.000, 14:09:37.235, 1551726577235
221, -4198.06, 0.00, 0.00, 0.00, 0.00, 0.00, 0.00, 0.00, 0.000, 0.000, 0.000, 14:09:37.235, 1551726577235
222, -4208.54, 0.00, 0.00, 0.00, 0.00, 0.00, 0.00, 0.00, 0.000, 0.000, 0.000, 14:09:37.243, 1551726577243
223, -4247.93, 0.00, 0.00, 0.00, 0.00, 0.00, 0.00, 0.00, 0.000, 0.000, 0.000, 14:09:37.243, 1551726577243
224, -4245.98, 0.00, 0.00, 0.00, 0.00, 0.00, 0.00, 0.00, 0.000, 0.000, 0.000, 14:09:37.251, 1551726577251
225, -4202.40, 0.00, 0.00, 0.00, 0.00, 0.00, 0.00, 0.00, 0.000, 0.000, 0.000, 14:09:37.251, 1551726577251
226, -4206.71, 0.00, 0.00, 0.00, 0.00, 0.00, 0.00, 0.00, 0.000, 0.000, 0.000, 14:09:37.258, 1551726577258
227, -4244.08, 0.00, 0.00, 0.00, 0.00, 0.00, 0.00, 0.00, -0.652, 0.714, -0.220, 14:09:37.259, 1551726577259
228, -4247.19, 0.00, 0.00, 0.00, 0.00, 0.00, 0.00, 0.00, 0.000, 0.000, 0.000, 14:09:37.265, 1551726577265
229, -4209.37, 0.00, 0.00, 0.00, 0.00, 0.00, 0.00, 0.00, 0.000, 0.000, 0.000, 14:09:37.265, 1551726577265
230, -4210.15, 0.00, 0.00, 0.00, 0.00, 0.00, 0.00, 0.00, 0.000, 0.000, 0.000, 14:09:37.273, 1551726577273
231, -4247.55, 0.00, 0.00, 0.00, 0.00, 0.00, 0.00, 0.00, 0.000, 0.000, 0.000, 14:09:37.273, 1551726577273
232, -4255.19, 0.00, 0.00, 0.00, 0.00, 0.00, 0.00, 0.00, 0.000, 0.000, 0.000, 14:09:37.280, 1551726577280
233, -4207.76, 0.00, 0.00, 0.00, 0.00, 0.00, 0.00, 0.00, 0.000, 0.000, 0.000, 14:09:37.288, 1551726577288
234, -4209.10, 0.00, 0.00, 0.00, 0.00, 0.00, 0.00, 0.00, 0.000, 0.000, 0.000, 14:09:37.288, 1551726577288
235, -4236.82, 0.00, 0.00, 0.00, 0.00, 0.00, 0.00, 0.00, 0.000, 0.000, 0.000, 14:09:37.295, 1551726577295
236, -4263.17, 0.00, 0.00, 0.00, 0.00, 0.00, 0.00, 0.00, 0.000, 0.000, 0.000, 14:09:37.295, 1551726577295
237, -4228.08, 0.00, 0.00, 0.00, 0.00, 0.00, 0.00, 0.00, -0.650, 0.712, -0.222, 14:09:37.303, 1551726577303
238, -4208.92, 0.00, 0.00, 0.00, 0.00, 0.00, 0.00, 0.00, 0.000, 0.000, 0.000, 14:09:37.304, 1551726577304
239, -4233.40, 0.00, 0.00, 0.00, 0.00, 0.00, 0.00, 0.00, 0.000, 0.000, 0.000, 14:09:37.311, 1551726577311
240, -4263.53, 0.00, 0.00, 0.00, 0.00, 0.00, 0.00, 0.00, 0.000, 0.000, 0.000, 14:09:37.311, 1551726577311
241, -4236.48, 0.00, 0.00, 0.00, 0.00, 0.00, 0.00, 0.00, 0.000, 0.000, 0.000, 14:09:37.317, 1551726577317
242, -4216.57, 0.00, 0.00, 0.00, 0.00, 0.00, 0.00, 0.00, 0.000, 0.000, 0.000, 14:09:37.318, 1551726577318
243, -4228.70, 0.00, 0.00, 0.00, 0.00, 0.00, 0.00, 0.00, 0.000, 0.000, 0.000, 14:09:37.325, 1551726577325
244, -4265.96, 0.00, 0.00, 0.00, 0.00, 0.00, 0.00, 0.00, 0.000, 0.000, 0.000, 14:09:37.325, 1551726577325
245, -4242.16, 0.00, 0.00, 0.00, 0.00, 0.00, 0.00, 0.00, 0.000, 0.000, 0.000, 14:09:37.334, 1551726577334
246, -4219.76, 0.00, 0.00, 0.00, 0.00, 0.00, 0.00, 0.00, 0.000, 0.000, 0.000, 14:09:37.334, 1551726577334
247, -4221.75, 0.00, 0.00, 0.00, 0.00, 0.00, 0.00, 0.00, -0.648, 0.708, -0.218, 14:09:37.341, 1551726577341
248, -4257.85, 0.00, 0.00, 0.00, 0.00, 0.00, 0.00, 0.00, 0.000, 0.000, 0.000, 14:09:37.347, 1551726577347
249, -4252.08, 0.00, 0.00, 0.00, 0.00, 0.00, 0.00, 0.00, 0.000, 0.000, 0.000, 14:09:37.347, 1551726577347
250, -4214.85, 0.00, 0.00, 0.00, 0.00, 0.00, 0.00, 0.00, 0.000, 0.000, 0.000, 14:09:37.356, 1551726577356
251, -4221.57, 0.00, 0.00, 0.00, 0.00, 0.00, 0.00, 0.00, 0.000, 0.000, 0.000, 14:09:37.356, 1551726577356
252, -4246.43, 0.00, 0.00, 0.00, 0.00, 0.00, 0.00, 0.00, 0.000, 0.000, 0.000, 14:09:37.363, 1551726577363
253, -4262.81, 0.00, 0.00, 0.00, 0.00, 0.00, 0.00, 0.00, 0.000, 0.000, 0.000, 14:09:37.363, 1551726577363
254, -4219.76, 0.00, 0.00, 0.00, 0.00, 0.00, 0.00, 0.00, 0.000, 0.000, 0.000, 14:09:37.371, 1551726577371
255, -4220.17, 0.00, 0.00, 0.00, 0.00, 0.00, 0.00, 0.00, 0.000, 0.000, 0.000, 14:09:37.371, 1551726577371
0, -4248.69, 0.00, 0.00, 0.00, 0.00, 0.00, 0.00, 0.00, -0.652, 0.712, -0.218, 14:09:37.378, 1551726577378
1, -4264.53, 0.00, 0.00, 0.00, 0.00, 0.00, 0.00, 0.00, 0.000, 0.000, 0.000, 14:09:37.378, 1551726577378
2, -4229.26, 0.00, 0.00, 0.00, 0.00, 0.00, 0.00, 0.00, 0.000, 0.000, 0.000, 14:09:37.386, 1551726577386
3, -4214.56, 0.00, 0.00, 0.00, 0.00, 0.00, 0.00, 0.00, 0.000, 0.000, 0.000, 14:09:37.386, 1551726577386
4, -4246.21, 0.00, 0.00, 0.00, 0.00, 0.00, 0.00, 0.00, 0.000, 0.000, 0.000, 14:09:37.394, 1551726577394
5, -4267.04, 0.00, 0.00, 0.00, 0.00, 0.00, 0.00, 0.00, 0.000, 0.000, 0.000, 14:09:37.394, 1551726577394
6, -4225.84, 0.00, 0.00, 0.00, 0.00, 0.00, 0.00, 0.00, 0.000, 0.000, 0.000, 14:09:37.400, 1551726577400
7, -4217.82, 0.00, 0.00, 0.00, 0.00, 0.00, 0.00, 0.00, 0.000, 0.000, 0.000, 14:09:37.408, 1551726577408
8, -4226.63, 0.00, 0.00, 0.00, 0.00, 0.00, 0.00, 0.00, 0.000, 0.000, 0.000, 14:09:37.409, 1551726577409
9, -4260.71, 0.00, 0.00, 0.00, 0.00, 0.00, 0.00, 0.00, 0.000, 0.000, 0.000, 14:09:37.415, 1551726577415
10, -4241.40, 0.00, 0.00, 0.00, 0.00, 0.00, 0.00, 0.00, -0.654, 0.710, -0.218, 14:09:37.416, 1551726577416
11, -4205.75, 0.00, 0.00, 0.00, 0.00, 0.00, 0.00, 0.00, 0.000, 0.000, 0.000, 14:09:37.423, 1551726577423
12, -4220.30, 0.00, 0.00, 0.00, 0.00, 0.00, 0.00, 0.00, 0.000, 0.000, 0.000, 14:09:37.424, 1551726577424
13, -4262.05, 0.00, 0.00, 0.00, 0.00, 0.00, 0.00, 0.00, 0.000, 0.000, 0.000, 14:09:37.430, 1551726577430
14, -4249.33, 0.00, 0.00, 0.00, 0.00, 0.00, 0.00, 0.00, 0.000, 0.000, 0.000, 14:09:37.430, 1551726577430
15, -4211.34, 0.00, 0.00, 0.00, 0.00, 0.00, 0.00, 0.00, 0.000, 0.000, 0.000, 14:09:37.439, 1551726577439
16, -4214.20, 0.00, 0.00, 0.00, 0.00, 0.00, 0.00, 0.00, 0.000, 0.000, 0.000, 14:09:37.439, 1551726577439
17, -4249.45, 0.00, 0.00, 0.00, 0.00, 0.00, 0.00, 0.00, 0.000, 0.000, 0.000, 14:09:37.446, 1551726577446
18, -4259.17, 0.00, 0.00, 0.00, 0.00, 0.00, 0.00, 0.00, 0.000, 0.000, 0.000, 14:09:37.446, 1551726577446
19, -4215.78, 0.00, 0.00, 0.00, 0.00, 0.00, 0.00, 0.00, 0.000, 0.000, 0.000, 14:09:37.453, 1551726577453
20, -4205.50, 0.00, 0.00, 0.00, 0.00, 0.00, 0.00, 0.00, -0.654, 0.710, -0.210, 14:09:37.453, 1551726577453
21, -4245.02, 0.00, 0.00, 0.00, 0.00, 0.00, 0.00, 0.00, 0.000, 0.000, 0.000, 14:09:37.459, 1551726577459
22, -4258.97, 0.00, 0.00, 0.00, 0.00, 0.00, 0.00, 0.00, 0.000, 0.000, 0.000, 14:09:37.468, 1551726577468
23, -4215.81, 0.00, 0.00, 0.00, 0.00, 0.00, 0.00, 0.00, 0.000, 0.000, 0.000, 14:09:37.468, 1551726577468
24, -4218.65, 0.00, 0.00, 0.00, 0.00, 0.00, 0.00, 0.00, 0.000, 0.000, 0.000, 14:09:37.476, 1551726577476
25, -4233.44, 0.00, 0.00, 0.00, 0.00, 0.00, 0.00, 0.00, 0.000, 0.000, 0.000, 14:09:37.476, 1551726577476
26, -4258.12, 0.00, 0.00, 0.00, 0.00, 0.00, 0.00, 0.00, 0.000, 0.000, 0.000, 14:09:37.482, 1551726577482
27, -4222.85, 0.00, 0.00, 0.00, 0.00, 0.00, 0.00, 0.00, 0.000, 0.000, 0.000, 14:09:37.482, 1551726577482
28, -4205.99, 0.00, 0.00, 0.00, 0.00, 0.00, 0.00, 0.00, 0.000, 0.000, 0.000, 14:09:37.490, 1551726577490
29, -4231.16, 0.00, 0.00, 0.00, 0.00, 0.00, 0.00, 0.00, 0.000, 0.000, 0.000, 14:09:37.490, 1551726577490
30, -4254.43, 0.00, 0.00, 0.00, 0.00, 0.00, 0.00, 0.00, -0.656, 0.714, -0.216, 14:09:37.498, 1551726577498
31, -4227.12, 0.00, 0.00, 0.00, 0.00, 0.00, 0.00, 0.00, 0.000, 0.000, 0.000, 14:09:37.498, 1551726577498
32, -4213.28, 0.00, 0.00, 0.00, 0.00, 0.00, 0.00, 0.00, 0.000, 0.000, 0.000, 14:09:37.506, 1551726577506
33, -4217.93, 0.00, 0.00, 0.00, 0.00, 0.00, 0.00, 0.00, 0.000, 0.000, 0.000, 14:09:37.506, 1551726577506
34, -4251.15, 0.00, 0.00, 0.00, 0.00, 0.00, 0.00, 0.00, 0.000, 0.000, 0.000, 14:09:37.513, 1551726577513
35, -4228.59, 0.00, 0.00, 0.00, 0.00, 0.00, 0.00, 0.00, 0.000, 0.000, 0.000, 14:09:37.513, 1551726577513
36, -4197.08, 0.00, 0.00, 0.00, 0.00, 0.00, 0.00, 0.00, 0.000, 0.000, 0.000, 14:09:37.520, 1551726577520
37, -4209.93, 0.00, 0.00, 0.00, 0.00, 0.00, 0.00, 0.00, 0.000, 0.000, 0.000, 14:09:37.520, 1551726577520
38, -4249.27, 0.00, 0.00, 0.00, 0.00, 0.00, 0.00, 0.00, 0.000, 0.000, 0.000, 14:09:37.528, 1551726577528
39, -4248.80, 0.00, 0.00, 0.00, 0.00, 0.00, 0.00, 0.00, 0.000, 0.000, 0.000, 14:09:37.535, 1551726577535
40, -4208.07, 0.00, 0.00, 0.00, 0.00, 0.00, 0.00, 0.00, -0.656, 0.714, -0.216, 14:09:37.535, 1551726577535
41, -4207.29, 0.00, 0.00, 0.00, 0.00, 0.00, 0.00, 0.00, 0.000, 0.000, 0.000, 14:09:37.542, 1551726577542
42, -4246.81, 0.00, 0.00, 0.00, 0.00, 0.00, 0.00, 0.00, 0.000, 0.000, 0.000, 14:09:37.543, 1551726577543
43, -4262.41, 0.00, 0.00, 0.00, 0.00, 0.00, 0.00, 0.00, 0.000, 0.000, 0.000, 14:09:37.551, 1551726577551
44, -4205.01, 0.00, 0.00, 0.00, 0.00, 0.00, 0.00, 0.00, 0.000, 0.000, 0.000, 14:09:37.551, 1551726577551
45, -4207.96, 0.00, 0.00, 0.00, 0.00, 0.00, 0.00, 0.00, 0.000, 0.000, 0.000, 14:09:37.558, 1551726577558
46, -4251.17, 0.00, 0.00, 0.00, 0.00, 0.00, 0.00, 0.00, 0.000, 0.000, 0.000, 14:09:37.559, 1551726577559
47, -4261.85, 0.00, 0.00, 0.00, 0.00, 0.00, 0.00, 0.00, 0.000, 0.000, 0.000, 14:09:37.565, 1551726577565
48, -4214.22, 0.00, 0.00, 0.00, 0.00, 0.00, 0.00, 0.00, 0.000, 0.000, 0.000, 14:09:37.565, 1551726577565
49, -4210.58, 0.00, 0.00, 0.00, 0.00, 0.00, 0.00, 0.00, 0.000, 0.000, 0.000, 14:09:37.573, 1551726577573
50, -4234.45, 0.00, 0.00, 0.00, 0.00, 0.00, 0.00, 0.00, -0.652, 0.714, -0.222, 14:09:37.574, 1551726577574
51, -4263.17, 0.00, 0.00, 0.00, 0.00, 0.00, 0.00, 0.00, 0.000, 0.000, 0.000, 14:09:37.581, 1551726577581
52, -4225.75, 0.00, 0.00, 0.00, 0.00, 0.00, 0.00, 0.00, 0.000, 0.000, 0.000, 14:09:37.582, 1551726577582
53, -4201.41, 0.00, 0.00, 0.00, 0.00, 0.00, 0.00, 0.00, 0.000, 0.000, 0.000, 14:09:37.587, 1551726577587
54, -4226.07, 0.00, 0.00, 0.00, 0.00, 0.00, 0.00, 0.00, 0.000, 0.000, 0.000, 14:09:37.595, 1551726577595
55, -4259.26, 0.00, 0.00, 0.00, 0.00, 0.00, 0.00, 0.00, 0.000, 0.000, 0.000, 14:09:37.595, 1551726577595
56, -4235.50, 0.00, 0.00, 0.00, 0.00, 0.00, 0.00, 0.00, 0.000, 0.000, 0.000, 14:09:37.603, 1551726577603
57, -4205.73, 0.00, 0.00, 0.00, 0.00, 0.00, 0.00, 0.00, 0.000, 0.000, 0.000, 14:09:37.603, 1551726577603
58, -4223.67, 0.00, 0.00, 0.00, 0.00, 0.00, 0.00, 0.00, 0.000, 0.000, 0.000, 14:09:37.611, 1551726577611
59, -4263.01, 0.00, 0.00, 0.00, 0.00, 0.00, 0.00, 0.00, 0.000, 0.000, 0.000, 14:09:37.612, 1551726577612
60, -4244.19, 0.00, 0.00, 0.00, 0.00, 0.00, 0.00, 0.00, -0.654, 0.716, -0.226, 14:09:37.617, 1551726577617
61, -4218.40, 0.00, 0.00, 0.00, 0.00, 0.00, 0.00, 0.00, 0.000, 0.000, 0.000, 14:09:37.618, 1551726577618
62, -4226.49, 0.00, 0.00, 0.00, 0.00, 0.00, 0.00, 0.00, 0.000, 0.000, 0.000, 14:09:37.625, 1551726577625
63, -4258.28, 0.00, 0.00, 0.00, 0.00, 0.00, 0.00, 0.00, 0.000, 0.000, 0.000, 14:09:37.626, 1551726577626
64, -4247.05, 0.00, 0.00, 0.00, 0.00, 0.00, 0.00, 0.00, 0.000, 0.000, 0.000, 14:09:37.634, 1551726577634
65, -4211.27, 0.00, 0.00, 0.00, 0.00, 0.00, 0.00, 0.00, 0.000, 0.000, 0.000, 14:09:37.634, 1551726577634
66, -4225.08, 0.00, 0.00, 0.00, 0.00, 0.00, 0.00, 0.00, 0.000, 0.000, 0.000, 14:09:37.641, 1551726577641
67, -4247.21, 0.00, 0.00, 0.00, 0.00, 0.00, 0.00, 0.00, 0.000, 0.000, 0.000, 14:09:37.641, 1551726577641
68, -4258.61, 0.00, 0.00, 0.00, 0.00, 0.00, 0.00, 0.00, 0.000, 0.000, 0.000, 14:09:37.647, 1551726577647
69, -4213.80, 0.00, 0.00, 0.00, 0.00, 0.00, 0.00, 0.00, -0.652, 0.720, -0.220, 14:09:37.655, 1551726577655
70, -4216.03, 0.00, 0.00, 0.00, 0.00, 0.00, 0.00, 0.00, 0.000, 0.000, 0.000, 14:09:37.655, 1551726577655
71, -4244.26, 0.00, 0.00, 0.00, 0.00, 0.00, 0.00, 0.00, 0.000, 0.000, 0.000, 14:09:37.663, 1551726577663
72, -4264.35, 0.00, 0.00, 0.00, 0.00, 0.00, 0.00, 0.00, 0.000, 0.000, 0.000, 14:09:37.663, 1551726577663
73, -4224.95, 0.00, 0.00, 0.00, 0.00, 0.00, 0.00, 0.00, 0.000, 0.000, 0.000, 14:09:37.670, 1551726577670
74, -4223.34, 0.00, 0.00, 0.00, 0.00, 0.00, 0.00, 0.00, 0.000, 0.000, 0.000, 14:09:37.670, 1551726577670
75, -4245.20, 0.00, 0.00, 0.00, 0.00, 0.00, 0.00, 0.00, 0.000, 0.000, 0.000, 14:09:37.678, 1551726577678
76, -4269.05, 0.00, 0.00, 0.00, 0.00, 0.00, 0.00, 0.00, 0.000, 0.000, 0.000, 14:09:37.679, 1551726577679
77, -4239.43, 0.00, 0.00, 0.00, 0.00, 0.00, 0.00, 0.00, 0.000, 0.000, 0.000, 14:09:37.686, 1551726577686
78, -4222.18, 0.00, 0.00, 0.00, 0.00, 0.00, 0.00, 0.00, 0.000, 0.000, 0.000, 14:09:37.686, 1551726577686
79, -4243.08, 0.00, 0.00, 0.00, 0.00, 0.00, 0.00, 0.00, -0.656, 0.716, -0.220, 14:09:37.693, 1551726577693
80, -4288.25, 0.00, 0.00, 0.00, 0.00, 0.00, 0.00, 0.00, 0.000, 0.000, 0.000, 14:09:37.693, 1551726577693
81, -4251.95, 0.00, 0.00, 0.00, 0.00, 0.00, 0.00, 0.00, 0.000, 0.000, 0.000, 14:09:37.700, 1551726577700
82, -4219.25, 0.00, 0.00, 0.00, 0.00, 0.00, 0.00, 0.00, 0.000, 0.000, 0.000, 14:09:37.701, 1551726577701
83, -4235.68, 0.00, 0.00, 0.00, 0.00, 0.00, 0.00, 0.00, 0.000, 0.000, 0.000, 14:09:37.707, 1551726577707
84, -4272.02, 0.00, 0.00, 0.00, 0.00, 0.00, 0.00, 0.00, 0.000, 0.000, 0.000, 14:09:37.716, 1551726577716
85, -4259.73, 0.00, 0.00, 0.00, 0.00, 0.00, 0.00, 0.00, 0.000, 0.000, 0.000, 14:09:37.716, 1551726577716
86, -4223.70, 0.00, 0.00, 0.00, 0.00, 0.00, 0.00, 0.00, 0.000, 0.000, 0.000, 14:09:37.722, 1551726577722
87, -4237.13, 0.00, 0.00, 0.00, 0.00, 0.00, 0.00, 0.00, 0.000, 0.000, 0.000, 14:09:37.723, 1551726577723
88, -4272.25, 0.00, 0.00, 0.00, 0.00, 0.00, 0.00, 0.00, 0.000, 0.000, 0.000, 14:09:37.730, 1551726577730
89, -4267.53, 0.00, 0.00, 0.00, 0.00, 0.00, 0.00, 0.00, -0.656, 0.716, -0.214, 14:09:37.730, 1551726577730
90, -4220.64, 0.00, 0.00, 0.00, 0.00, 0.00, 0.00, 0.00, 0.000, 0.000, 0.000, 14:09:37.738, 1551726577738
91, -4225.02, 0.00, 0.00, 0.00, 0.00, 0.00, 0.00, 0.00, 0.000, 0.000, 0.000, 14:09:37.738, 1551726577738
92, -4255.68, 0.00, 0.00, 0.00, 0.00, 0.00, 0.00, 0.00, 0.000, 0.000, 0.000, 14:09:37.747, 1551726577747
93, -4265.29, 0.00, 0.00, 0.00, 0.00, 0.00, 0.00, 0.00, 0.000, 0.000, 0.000, 14:09:37.748, 1551726577748
94, -4229.60, 0.00, 0.00, 0.00, 0.00, 0.00, 0.00, 0.00, 0.000, 0.000, 0.000, 14:09:37.753, 1551726577753
95, -4227.14, 0.00, 0.00, 0.00, 0.00, 0.00, 0.00, 0.00, 0.000, 0.000, 0.000, 14:09:37.753, 1551726577753
96, -4248.06, 0.00, 0.00, 0.00, 0.00, 0.00, 0.00, 0.00, 0.000, 0.000, 0.000, 14:09:37.761, 1551726577761
97, -4279.89, 0.00, 0.00, 0.00, 0.00, 0.00, 0.00, 0.00, 0.000, 0.000, 0.000, 14:09:37.761, 1551726577761
98, -4222.38, 0.00, 0.00, 0.00, 0.00, 0.00, 0.00, 0.00, 0.000, 0.000, 0.000, 14:09:37.768, 1551726577768
99, -4218.47, 0.00, 0.00, 0.00, 0.00, 0.00, 0.00, 0.00, -0.658, 0.718, -0.220, 14:09:37.768, 1551726577768
100, -4239.88, 0.00, 0.00, 0.00, 0.00, 0.00, 0.00, 0.00, 0.000, 0.000, 0.000, 14:09:37.776, 1551726577776
101, -4271.62, 0.00, 0.00, 0.00, 0.00, 0.00, 0.00, 0.00, 0.000, 0.000, 0.000, 14:09:37.782, 1551726577782
102, -4240.84, 0.00, 0.00, 0.00, 0.00, 0.00, 0.00, 0.00, 0.000, 0.000, 0.000, 14:09:37.782, 1551726577782
103, -4219.25, 0.00, 0.00, 0.00, 0.00, 0.00, 0.00, 0.00, 0.000, 0.000, 0.000, 14:09:37.790, 1551726577790
104, -4237.13, 0.00, 0.00, 0.00, 0.00, 0.00, 0.00, 0.00, 0.000, 0.000, 0.000, 14:09:37.790, 1551726577790
105, -4277.10, 0.00, 0.00, 0.00, 0.00, 0.00, 0.00, 0.00, 0.000, 0.000, 0.000, 14:09:37.799, 1551726577799
106, -4251.79, 0.00, 0.00, 0.00, 0.00, 0.00, 0.00, 0.00, 0.000, 0.000, 0.000, 14:09:37.799, 1551726577799
107, -4219.03, 0.00, 0.00, 0.00, 0.00, 0.00, 0.00, 0.00, 0.000, 0.000, 0.000, 14:09:37.805, 1551726577805
108, -4234.27, 0.00, 0.00, 0.00, 0.00, 0.00, 0.00, 0.00, 0.000, 0.000, 0.000, 14:09:37.805, 1551726577805
109, -4279.84, 0.00, 0.00, 0.00, 0.00, 0.00, 0.00, 0.00, -0.654, 0.718, -0.220, 14:09:37.813, 1551726577813
110, -4268.92, 0.00, 0.00, 0.00, 0.00, 0.00, 0.00, 0.00, 0.000, 0.000, 0.000, 14:09:37.813, 1551726577813
111, -4231.32, 0.00, 0.00, 0.00, 0.00, 0.00, 0.00, 0.00, 0.000, 0.000, 0.000, 14:09:37.821, 1551726577821
112, -4239.72, 0.00, 0.00, 0.00, 0.00, 0.00, 0.00, 0.00, 0.000, 0.000, 0.000, 14:09:37.821, 1551726577821
113, -4266.32, 0.00, 0.00, 0.00, 0.00, 0.00, 0.00, 0.00, 0.000, 0.000, 0.000, 14:09:37.829, 1551726577829
114, -4271.78, 0.00, 0.00, 0.00, 0.00, 0.00, 0.00, 0.00, 0.000, 0.000, 0.000, 14:09:37.829, 1551726577829
115, -4232.17, 0.00, 0.00, 0.00, 0.00, 0.00, 0.00, 0.00, 0.000, 0.000, 0.000, 14:09:37.834, 1551726577834
116, -4234.18, 0.00, 0.00, 0.00, 0.00, 0.00, 0.00, 0.00, 0.000, 0.000, 0.000, 14:09:37.842, 1551726577842
117, -4257.98, 0.00, 0.00, 0.00, 0.00, 0.00, 0.00, 0.00, 0.000, 0.000, 0.000, 14:09:37.843, 1551726577843
118, -4278.82, 0.00, 0.00, 0.00, 0.00, 0.00, 0.00, 0.00, 0.000, 0.000, 0.000, 14:09:37.851, 1551726577851
119, -4243.01, 0.00, 0.00, 0.00, 0.00, 0.00, 0.00, 0.00, -0.650, 0.718, -0.216, 14:09:37.851, 1551726577851
120, -4227.36, 0.00, 0.00, 0.00, 0.00, 0.00, 0.00, 0.00, 0.000, 0.000, 0.000, 14:09:37.858, 1551726577858
121, -4256.60, 0.00, 0.00, 0.00, 0.00, 0.00, 0.00, 0.00, 0.000, 0.000, 0.000, 14:09:37.858, 1551726577858
122, -4277.59, 0.00, 0.00, 0.00, 0.00, 0.00, 0.00, 0.00, 0.000, 0.000, 0.000, 14:09:37.865, 1551726577865
123, -4239.54, 0.00, 0.00, 0.00, 0.00, 0.00, 0.00, 0.00, 0.000, 0.000, 0.000, 14:09:37.865, 1551726577865
124, -4222.45, 0.00, 0.00, 0.00, 0.00, 0.00, 0.00, 0.00, 0.000, 0.000, 0.000, 14:09:37.873, 1551726577873
125, -4244.66, 0.00, 0.00, 0.00, 0.00, 0.00, 0.00, 0.00, 0.000, 0.000, 0.000, 14:09:37.873, 1551726577873
126, -4285.54, 0.00, 0.00, 0.00, 0.00, 0.00, 0.00, 0.00, 0.000, 0.000, 0.000, 14:09:37.881, 1551726577881
127, -4251.84, 0.00, 0.00, 0.00, 0.00, 0.00, 0.00, 0.00, 0.000, 0.000, 0.000, 14:09:37.881, 1551726577881
128, -4226.63, 0.00, 0.00, 0.00, 0.00, 0.00, 0.00, 0.00, -0.654, 0.716, -0.214, 14:09:37.888, 1551726577888
129, -4233.82, 0.00, 0.00, 0.00, 0.00, 0.00, 0.00, 0.00, 0.000, 0.000, 0.000, 14:09:37.888, 1551726577888
130, -4267.19, 0.00, 0.00, 0.00, 0.00, 0.00, 0.00, 0.00, 0.000, 0.000, 0.000, 14:09:37.895, 1551726577895
131, -4251.01, 0.00, 0.00, 0.00, 0.00, 0.00, 0.00, 0.00, 0.000, 0.000, 0.000, 14:09:37.903, 1551726577903
132, -4217.53, 0.00, 0.00, 0.00, 0.00, 0.00, 0.00, 0.00, 0.000, 0.000, 0.000, 14:09:37.903, 1551726577903
133, -4231.79, 0.00, 0.00, 0.00, 0.00, 0.00, 0.00, 0.00, 0.000, 0.000, 0.000, 14:09:37.911, 1551726577911
134, -4269.16, 0.00, 0.00, 0.00, 0.00, 0.00, 0.00, 0.00, 0.000, 0.000, 0.000, 14:09:37.911, 1551726577911
135, -4260.22, 0.00, 0.00, 0.00, 0.00, 0.00, 0.00, 0.00, 0.000, 0.000, 0.000, 14:09:37.917, 1551726577917
136, -4217.46, 0.00, 0.00, 0.00, 0.00, 0.00, 0.00, 0.00, 0.000, 0.000, 0.000, 14:09:37.917, 1551726577917
137, -4230.98, 0.00, 0.00, 0.00, 0.00, 0.00, 0.00, 0.00, 0.000, 0.000, 0.000, 14:09:37.926, 1551726577926
138, -4264.80, 0.00, 0.00, 0.00, 0.00, 0.00, 0.00, 0.00, -0.650, 0.716, -0.214, 14:09:37.926, 1551726577926
139, -4264.91, 0.00, 0.00, 0.00, 0.00, 0.00, 0.00, 0.00, 0.000, 0.000, 0.000, 14:09:37.933, 1551726577933
140, -4221.15, 0.00, 0.00, 0.00, 0.00, 0.00, 0.00, 0.00, 0.000, 0.000, 0.000, 14:09:37.934, 1551726577934
141, -4235.03, 0.00, 0.00, 0.00, 0.00, 0.00, 0.00, 0.00, 0.000, 0.000, 0.000, 14:09:37.940, 1551726577940
142, -4267.89, 0.00, 0.00, 0.00, 0.00, 0.00, 0.00, 0.00, 0.000, 0.000, 0.000, 14:09:37.940, 1551726577940
143, -4269.99, 0.00, 0.00, 0.00, 0.00, 0.00, 0.00, 0.00, 0.000, 0.000, 0.000, 14:09:37.948, 1551726577948
144, -4232.57, 0.00, 0.00, 0.00, 0.00, 0.00, 0.00, 0.00, 0.000, 0.000, 0.000, 14:09:37.948, 1551726577948
145, -4222.51, 0.00, 0.00, 0.00, 0.00, 0.00, 0.00, 0.00, 0.000, 0.000, 0.000, 14:09:37.955, 1551726577955
146, -4239.92, 0.00, 0.00, 0.00, 0.00, 0.00, 0.00, 0.00, 0.000, 0.000, 0.000, 14:09:37.963, 1551726577963
147, -4272.22, 0.00, 0.00, 0.00, 0.00, 0.00, 0.00, 0.00, 0.000, 0.000, 0.000, 14:09:37.963, 1551726577963
148, -4239.41, 0.00, 0.00, 0.00, 0.00, 0.00, 0.00, 0.00, -0.652, 0.712, -0.222, 14:09:37.970, 1551726577970
149, -4212.86, 0.00, 0.00, 0.00, 0.00, 0.00, 0.00, 0.00, 0.000, 0.000, 0.000, 14:09:37.970, 1551726577970
150, -4233.13, 0.00, 0.00, 0.00, 0.00, 0.00, 0.00, 0.00, 0.000, 0.000, 0.000, 14:09:37.978, 1551726577978
151, -4262.30, 0.00, 0.00, 0.00, 0.00, 0.00, 0.00, 0.00, 0.000, 0.000, 0.000, 14:09:37.978, 1551726577978
152, -4238.00, 0.00, 0.00, 0.00, 0.00, 0.00, 0.00, 0.00, 0.000, 0.000, 0.000, 14:09:37.986, 1551726577986
153, -4205.08, 0.00, 0.00, 0.00, 0.00, 0.00, 0.00, 0.00, 0.000, 0.000, 0.000, 14:09:37.986, 1551726577986
154, -4224.64, 0.00, 0.00, 0.00, 0.00, 0.00, 0.00, 0.00, 0.000, 0.000, 0.000, 14:09:37.993, 1551726577993
155, -4255.53, 0.00, 0.00, 0.00, 0.00, 0.00, 0.00, 0.00, 0.000, 0.000, 0.000, 14:09:37.993, 1551726577993
156, -4240.10, 0.00, 0.00, 0.00, 0.00, 0.00, 0.00, 0.00, 0.000, 0.000, 0.000, 14:09:38.000, 1551726578000
157, -4204.92, 0.00, 0.00, 0.00, 0.00, 0.00, 0.00, 0.00, 0.000, 0.000, 0.000, 14:09:38.000, 1551726578000
158, -4213.82, 0.00, 0.00, 0.00, 0.00, 0.00, 0.00, 0.00, -0.648, 0.718, -0.222, 14:09:38.008, 1551726578008
159, -4245.98, 0.00, 0.00, 0.00, 0.00, 0.00, 0.00, 0.00, 0.000, 0.000, 0.000, 14:09:38.009, 1551726578009
160, -4244.04, 0.00, 0.00, 0.00, 0.00, 0.00, 0.00, 0.00, 0.000, 0.000, 0.000, 14:09:38.015, 1551726578015
161, -4213.95, 0.00, 0.00, 0.00, 0.00, 0.00, 0.00, 0.00, 0.000, 0.000, 0.000, 14:09:38.016, 1551726578016
162, -4219.99, 0.00, 0.00, 0.00, 0.00, 0.00, 0.00, 0.00, 0.000, 0.000, 0.000, 14:09:38.023, 1551726578023
163, -4250.81, 0.00, 0.00, 0.00, 0.00, 0.00, 0.00, 0.00, 0.000, 0.000, 0.000, 14:09:38.030, 1551726578030
164, -4267.24, 0.00, 0.00, 0.00, 0.00, 0.00, 0.00, 0.00, 0.000, 0.000, 0.000, 14:09:38.030, 1551726578030
165, -4226.13, 0.00, 0.00, 0.00, 0.00, 0.00, 0.00, 0.00, 0.000, 0.000, 0.000, 14:09:38.038, 1551726578038
166, -4219.38, 0.00, 0.00, 0.00, 0.00, 0.00, 0.00, 0.00, 0.000, 0.000, 0.000, 14:09:38.038, 1551726578038
167, -4251.50, 0.00, 0.00, 0.00, 0.00, 0.00, 0.00, 0.00, 0.000, 0.000, 0.000, 14:09:38.046, 1551726578046
168, -4259.48, 0.00, 0.00, 0.00, 0.00, 0.00, 0.00, 0.00, -0.648, 0.708, -0.222, 14:09:38.046, 1551726578046
169, -4212.92, 0.00, 0.00, 0.00, 0.00, 0.00, 0.00, 0.00, 0.000, 0.000, 0.000, 14:09:38.053, 1551726578053
170, -4207.07, 0.00, 0.00, 0.00, 0.00, 0.00, 0.00, 0.00, 0.000, 0.000, 0.000, 14:09:38.053, 1551726578053
171, -4223.16, 0.00, 0.00, 0.00, 0.00, 0.00, 0.00, 0.00, 0.000, 0.000, 0.000, 14:09:38.061, 1551726578061
172, -4254.10, 0.00, 0.00, 0.00, 0.00, 0.00, 0.00, 0.00, 0.000, 0.000, 0.000, 14:09:38.061, 1551726578061
173, -4221.40, 0.00, 0.00, 0.00, 0.00, 0.00, 0.00, 0.00, 0.000, 0.000, 0.000, 14:09:38.069, 1551726578069
174, -4210.82, 0.00, 0.00, 0.00, 0.00, 0.00, 0.00, 0.00, 0.000, 0.000, 0.000, 14:09:38.069, 1551726578069
175, -4225.35, 0.00, 0.00, 0.00, 0.00, 0.00, 0.00, 0.00, 0.000, 0.000, 0.000, 14:09:38.075, 1551726578075
176, -4257.47, 0.00, 0.00, 0.00, 0.00, 0.00, 0.00, 0.00, 0.000, 0.000, 0.000, 14:09:38.076, 1551726578076
177, -4231.70, 0.00, 0.00, 0.00, 0.00, 0.00, 0.00, 0.00, 0.000, 0.000, 0.000, 14:09:38.082, 1551726578082
178, -4202.95, 0.00, 0.00, 0.00, 0.00, 0.00, 0.00, 0.00, -0.648, 0.710, -0.220, 14:09:38.090, 1551726578090
179, -4225.17, 0.00, 0.00, 0.00, 0.00, 0.00, 0.00, 0.00, 0.000, 0.000, 0.000, 14:09:38.091, 1551726578091
180, -4270.61, 0.00, 0.00, 0.00, 0.00, 0.00, 0.00, 0.00, 0.000, 0.000, 0.000, 14:09:38.099, 1551726578099
181, -4252.91, 0.00, 0.00, 0.00, 0.00, 0.00, 0.00, 0.00, 0.000, 0.000, 0.000, 14:09:38.099, 1551726578099
182, -4215.74, 0.00, 0.00, 0.00, 0.00, 0.00, 0.00, 0.00, 0.000, 0.000, 0.000, 14:09:38.105, 1551726578105
183, -4216.23, 0.00, 0.00, 0.00, 0.00, 0.00, 0.00, 0.00, 0.000, 0.000, 0.000, 14:09:38.105, 1551726578105
184, -4245.47, 0.00, 0.00, 0.00, 0.00, 0.00, 0.00, 0.00, 0.000, 0.000, 0.000, 14:09:38.113, 1551726578113
185, -4249.87, 0.00, 0.00, 0.00, 0.00, 0.00, 0.00, 0.00, 0.000, 0.000, 0.000, 14:09:38.113, 1551726578113
186, -4211.81, 0.00, 0.00, 0.00, 0.00, 0.00, 0.00, 0.00, 0.000, 0.000, 0.000, 14:09:38.121, 1551726578121
187, -4210.67, 0.00, 0.00, 0.00, 0.00, 0.00, 0.00, 0.00, 0.000, 0.000, 0.000, 14:09:38.121, 1551726578121
188, -4252.53, 0.00, 0.00, 0.00, 0.00, 0.00, 0.00, 0.00, -0.650, 0.714, -0.218, 14:09:38.128, 1551726578128
189, -4252.22, 0.00, 0.00, 0.00, 0.00, 0.00, 0.00, 0.00, 0.000, 0.000, 0.000, 14:09:38.129, 1551726578129
190, -4210.04, 0.00, 0.00, 0.00, 0.00, 0.00, 0.00, 0.00, 0.000, 0.000, 0.000, 14:09:38.135, 1551726578135
191, -4213.13, 0.00, 0.00, 0.00, 0.00, 0.00, 0.00, 0.00, 0.000, 0.000, 0.000, 14:09:38.136, 1551726578136
192, -4234.11, 0.00, 0.00, 0.00, 0.00, 0.00, 0.00, 0.00, 0.000, 0.000, 0.000, 14:09:38.142, 1551726578142
193, -4259.15, 0.00, 0.00, 0.00, 0.00, 0.00, 0.00, 0.00, 0.000, 0.000, 0.000, 14:09:38.150, 1551726578150
194, -4221.75, 0.00, 0.00, 0.00, 0.00, 0.00, 0.00, 0.00, 0.000, 0.000, 0.000, 14:09:38.151, 1551726578151
195, -4205.95, 0.00, 0.00, 0.00, 0.00, 0.00, 0.00, 0.00, 0.000, 0.000, 0.000, 14:09:38.158, 1551726578158
196, -4227.43, 0.00, 0.00, 0.00, 0.00, 0.00, 0.00, 0.00, 0.000, 0.000, 0.000, 14:09:38.158, 1551726578158
197, -4262.90, 0.00, 0.00, 0.00, 0.00, 0.00, 0.00, 0.00, -0.648, 0.718, -0.222, 14:09:38.165, 1551726578165
198, -4228.77, 0.00, 0.00, 0.00, 0.00, 0.00, 0.00, 0.00, 0.000, 0.000, 0.000, 14:09:38.166, 1551726578166
199, -4214.24, 0.00, 0.00, 0.00, 0.00, 0.00, 0.00, 0.00, 0.000, 0.000, 0.000, 14:09:38.173, 1551726578173
200, -4230.65, 0.00, 0.00, 0.00, 0.00, 0.00, 0.00, 0.00, 0.000, 0.000, 0.000, 14:09:38.173, 1551726578173
201, -4260.04, 0.00, 0.00, 0.00, 0.00, 0.00, 0.00, 0.00, 0.000, 0.000, 0.000, 14:09:38.181, 1551726578181
202, -4251.91, 0.00, 0.00, 0.00, 0.00, 0.00, 0.00, 0.00, 0.000, 0.000, 0.000, 14:09:38.182, 1551726578182
203, -4226.18, 0.00, 0.00, 0.00, 0.00, 0.00, 0.00, 0.00, 0.000, 0.000, 0.000, 14:09:38.188, 1551726578188
204, -4223.72, 0.00, 0.00, 0.00, 0.00, 0.00, 0.00, 0.00, 0.000, 0.000, 0.000, 14:09:38.188, 1551726578188
205, -4261.87, 0.00, 0.00, 0.00, 0.00, 0.00, 0.00, 0.00, 0.000, 0.000, 0.000, 14:09:38.196, 1551726578196
206, -4254.01, 0.00, 0.00, 0.00, 0.00, 0.00, 0.00, 0.00, 0.000, 0.000, 0.000, 14:09:38.196, 1551726578196
207, -4215.02, 0.00, 0.00, 0.00, 0.00, 0.00, 0.00, 0.00, -0.646, 0.712, -0.220, 14:09:38.203, 1551726578203
208, -4228.91, 0.00, 0.00, 0.00, 0.00, 0.00, 0.00, 0.00, 0.000, 0.000, 0.000, 14:09:38.210, 1551726578210
209, -4259.48, 0.00, 0.00, 0.00, 0.00, 0.00, 0.00, 0.00, 0.000, 0.000, 0.000, 14:09:38.210, 1551726578210
210, -4265.45, 0.00, 0.00, 0.00, 0.00, 0.00, 0.00, 0.00, 0.000, 0.000, 0.000, 14:09:38.218, 1551726578218
211, -4222.31, 0.00, 0.00, 0.00, 0.00, 0.00, 0.00, 0.00, 0.000, 0.000, 0.000, 14:09:38.218, 1551726578218
212, -4225.33, 0.00, 0.00, 0.00, 0.00, 0.00, 0.00, 0.00, 0.000, 0.000, 0.000, 14:09:38.226, 1551726578226
213, -4252.64, 0.00, 0.00, 0.00, 0.00, 0.00, 0.00, 0.00, 0.000, 0.000, 0.000, 14:09:38.226, 1551726578226
214, -4269.21, 0.00, 0.00, 0.00, 0.00, 0.00, 0.00, 0.00, 0.000, 0.000, 0.000, 14:09:38.234, 1551726578234
215, -4225.64, 0.00, 0.00, 0.00, 0.00, 0.00, 0.00, 0.00, 0.000, 0.000, 0.000, 14:09:38.234, 1551726578234
216, -4218.58, 0.00, 0.00, 0.00, 0.00, 0.00, 0.00, 0.00, 0.000, 0.000, 0.000, 14:09:38.240, 1551726578240
217, -4251.61, 0.00, 0.00, 0.00, 0.00, 0.00, 0.00, 0.00, -0.654, 0.704, -0.214, 14:09:38.240, 1551726578240
218, -4262.97, 0.00, 0.00, 0.00, 0.00, 0.00, 0.00, 0.00, 0.000, 0.000, 0.000, 14:09:38.249, 1551726578249
219, -4228.08, 0.00, 0.00, 0.00, 0.00, 0.00, 0.00, 0.00, 0.000, 0.000, 0.000, 14:09:38.249, 1551726578249
220, -4218.82, 0.00, 0.00, 0.00, 0.00, 0.00, 0.00, 0.00, 0.000, 0.000, 0.000, 14:09:38.256, 1551726578256
221, -4240.44, 0.00, 0.00, 0.00, 0.00, 0.00, 0.00, 0.00, 0.000, 0.000, 0.000, 14:09:38.256, 1551726578256
222, -4271.82, 0.00, 0.00, 0.00, 0.00, 0.00, 0.00, 0.00, 0.000, 0.000, 0.000, 14:09:38.264, 1551726578264
223, -4238.54, 0.00, 0.00, 0.00, 0.00, 0.00, 0.00, 0.00, 0.000, 0.000, 0.000, 14:09:38.264, 1551726578264
224, -4213.68, 0.00, 0.00, 0.00, 0.00, 0.00, 0.00, 0.00, 0.000, 0.000, 0.000, 14:09:38.270, 1551726578270
225, -4229.20, 0.00, 0.00, 0.00, 0.00, 0.00, 0.00, 0.00, 0.000, 0.000, 0.000, 14:09:38.278, 1551726578278
226, -4265.14, 0.00, 0.00, 0.00, 0.00, 0.00, 0.00, 0.00, 0.000, 0.000, 0.000, 14:09:38.278, 1551726578278
227, -4244.19, 0.00, 0.00, 0.00, 0.00, 0.00, 0.00, 0.00, -0.652, 0.708, -0.212, 14:09:38.286, 1551726578286
228, -4211.56, 0.00, 0.00, 0.00, 0.00, 0.00, 0.00, 0.00, 0.000, 0.000, 0.000, 14:09:38.286, 1551726578286
229, -4227.56, 0.00, 0.00, 0.00, 0.00, 0.00, 0.00, 0.00, 0.000, 0.000, 0.000, 14:09:38.293, 1551726578293
230, -4260.94, 0.00, 0.00, 0.00, 0.00, 0.00, 0.00, 0.00, 0.000, 0.000, 0.000, 14:09:38.293, 1551726578293
231, -4253.72, 0.00, 0.00, 0.00, 0.00, 0.00, 0.00, 0.00, 0.000, 0.000, 0.000, 14:09:38.300, 1551726578300
232, -4210.71, 0.00, 0.00, 0.00, 0.00, 0.00, 0.00, 0.00, 0.000, 0.000, 0.000, 14:09:38.300, 1551726578300
233, -4215.56, 0.00, 0.00, 0.00, 0.00, 0.00, 0.00, 0.00, 0.000, 0.000, 0.000, 14:09:38.308, 1551726578308
234, -4248.75, 0.00, 0.00, 0.00, 0.00, 0.00, 0.00, 0.00, 0.000, 0.000, 0.000, 14:09:38.308, 1551726578308
235, -4253.83, 0.00, 0.00, 0.00, 0.00, 0.00, 0.00, 0.00, 0.000, 0.000, 0.000, 14:09:38.317, 1551726578317
236, -4211.11, 0.00, 0.00, 0.00, 0.00, 0.00, 0.00, 0.00, 0.000, 0.000, 0.000, 14:09:38.317, 1551726578317
237, -4213.37, 0.00, 0.00, 0.00, 0.00, 0.00, 0.00, 0.00, -0.652, 0.710, -0.216, 14:09:38.323, 1551726578323
238, -4240.48, 0.00, 0.00, 0.00, 0.00, 0.00, 0.00, 0.00, 0.000, 0.000, 0.000, 14:09:38.323, 1551726578323
239, -4263.01, 0.00, 0.00, 0.00, 0.00, 0.00, 0.00, 0.00, 0.000, 0.000, 0.000, 14:09:38.330, 1551726578330
240, -4219.50, 0.00, 0.00, 0.00, 0.00, 0.00, 0.00, 0.00, 0.000, 0.000, 0.000, 14:09:38.338, 1551726578338
241, -4205.97, 0.00, 0.00, 0.00, 0.00, 0.00, 0.00, 0.00, 0.000, 0.000, 0.000, 14:09:38.338, 1551726578338
242, -4239.54, 0.00, 0.00, 0.00, 0.00, 0.00, 0.00, 0.00, 0.000, 0.000, 0.000, 14:09:38.345, 1551726578345
243, -4262.39, 0.00, 0.00, 0.00, 0.00, 0.00, 0.00, 0.00, 0.000, 0.000, 0.000, 14:09:38.345, 1551726578345
244, -4231.12, 0.00, 0.00, 0.00, 0.00, 0.00, 0.00, 0.00, 0.000, 0.000, 0.000, 14:09:38.353, 1551726578353
245, -4214.31, 0.00, 0.00, 0.00, 0.00, 0.00, 0.00, 0.00, 0.000, 0.000, 0.000, 14:09:38.354, 1551726578354
246, -4233.08, 0.00, 0.00, 0.00, 0.00, 0.00, 0.00, 0.00, 0.000, 0.000, 0.000, 14:09:38.360, 1551726578360
247, -4267.04, 0.00, 0.00, 0.00, 0.00, 0.00, 0.00, 0.00, -0.650, 0.712, -0.218, 14:09:38.361, 1551726578361
248, -4239.88, 0.00, 0.00, 0.00, 0.00, 0.00, 0.00, 0.00, 0.000, 0.000, 0.000, 14:09:38.369, 1551726578369
249, -4212.66, 0.00, 0.00, 0.00, 0.00, 0.00, 0.00, 0.00, 0.000, 0.000, 0.000, 14:09:38.370, 1551726578370
250, -4226.92, 0.00, 0.00, 0.00, 0.00, 0.00, 0.00, 0.00, 0.000, 0.000, 0.000, 14:09:38.375, 1551726578375
251, -4264.73, 0.00, 0.00, 0.00, 0.00, 0.00, 0.00, 0.00, 0.000, 0.000, 0.000, 14:09:38.375, 1551726578375
252, -4245.92, 0.00, 0.00, 0.00, 0.00, 0.00, 0.00, 0.00, 0.000, 0.000, 0.000, 14:09:38.384, 1551726578384
253, -4213.68, 0.00, 0.00, 0.00, 0.00, 0.00, 0.00, 0.00, 0.000, 0.000, 0.000, 14:09:38.384, 1551726578384
254, -4228.88, 0.00, 0.00, 0.00, 0.00, 0.00, 0.00, 0.00, 0.000, 0.000, 0.000, 14:09:38.390, 1551726578390
255, -4263.08, 0.00, 0.00, 0.00, 0.00, 0.00, 0.00, 0.00, 0.000, 0.000, 0.000, 14:09:38.399, 1551726578399
0, -4255.19, 0.00, 0.00, 0.00, 0.00, 0.00, 0.00, 0.00, -0.646, 0.712, -0.212, 14:09:38.399, 1551726578399
1, -4204.03, 0.00, 0.00, 0.00, 0.00, 0.00, 0.00, 0.00, 0.000, 0.000, 0.000, 14:09:38.405, 1551726578405
2, -4212.88, 0.00, 0.00, 0.00, 0.00, 0.00, 0.00, 0.00, 0.000, 0.000, 0.000, 14:09:38.405, 1551726578405
3, -4248.26, 0.00, 0.00, 0.00, 0.00, 0.00, 0.00, 0.00, 0.000, 0.000, 0.000, 14:09:38.413, 1551726578413
4, -4259.93, 0.00, 0.00, 0.00, 0.00, 0.00, 0.00, 0.00, 0.000, 0.000, 0.000, 14:09:38.413, 1551726578413
5, -4225.24, 0.00, 0.00, 0.00, 0.00, 0.00, 0.00, 0.00, 0.000, 0.000, 0.000, 14:09:38.421, 1551726578421
6, -4212.45, 0.00, 0.00, 0.00, 0.00, 0.00, 0.00, 0.00, 0.000, 0.000, 0.000, 14:09:38.422, 1551726578422
7, -4240.17, 0.00, 0.00, 0.00, 0.00, 0.00, 0.00, 0.00, 0.000, 0.000, 0.000, 14:09:38.428, 1551726578428
8, -4259.95, 0.00, 0.00, 0.00, 0.00, 0.00, 0.00, 0.00, 0.000, 0.000, 0.000, 14:09:38.428, 1551726578428
9, -4223.27, 0.00, 0.00, 0.00, 0.00, 0.00, 0.00, 0.00, 0.000, 0.000, 0.000, 14:09:38.436, 1551726578436
10, -4215.16, 0.00, 0.00, 0.00, 0.00, 0.00, 0.00, 0.00, -0.650, 0.710, -0.216, 14:09:38.436, 1551726578436
11, -4243.90, 0.00, 0.00, 0.00, 0.00, 0.00, 0.00, 0.00, 0.000, 0.000, 0.000, 14:09:38.443, 1551726578443
12, -4270.55, 0.00, 0.00, 0.00, 0.00, 0.00, 0.00, 0.00, 0.000, 0.000, 0.000, 14:09:38.444, 1551726578444
13, -4242.50, 0.00, 0.00, 0.00, 0.00, 0.00, 0.00, 0.00, 0.000, 0.000, 0.000, 14:09:38.451, 1551726578451
14, -4217.26, 0.00, 0.00, 0.00, 0.00, 0.00, 0.00, 0.00, 0.000, 0.000, 0.000, 14:09:38.457, 1551726578457
15, -4230.16, 0.00, 0.00, 0.00, 0.00, 0.00, 0.00, 0.00, 0.000, 0.000, 0.000, 14:09:38.457, 1551726578457
16, -4267.48, 0.00, 0.00, 0.00, 0.00, 0.00, 0.00, 0.00, 0.000, 0.000, 0.000, 14:09:38.465, 1551726578465
17, -4236.71, 0.00, 0.00, 0.00, 0.00, 0.00, 0.00, 0.00, 0.000, 0.000, 0.000, 14:09:38.465, 1551726578465
18, -4207.09, 0.00, 0.00, 0.00, 0.00, 0.00, 0.00, 0.00, 0.000, 0.000, 0.000, 14:09:38.476, 1551726578476
19, -4222.24, 0.00, 0.00, 0.00, 0.00, 0.00, 0.00, 0.00, 0.000, 0.000, 0.000, 14:09:38.476, 1551726578476
20, -4256.53, 0.00, 0.00, 0.00, 0.00, 0.00, 0.00, 0.00, -0.652, 0.710, -0.220, 14:09:38.480, 1551726578480
21, -4251.73, 0.00, 0.00, 0.00, 0.00, 0.00, 0.00, 0.00, 0.000, 0.000, 0.000, 14:09:38.481, 1551726578481
22, -4209.82, 0.00, 0.00, 0.00, 0.00, 0.00, 0.00, 0.00, 0.000, 0.000, 0.000, 14:09:38.488, 1551726578488
23, -4215.92, 0.00, 0.00, 0.00, 0.00, 0.00, 0.00, 0.00, 0.000, 0.000, 0.000, 14:09:38.488, 1551726578488
24, -4255.03, 0.00, 0.00, 0.00, 0.00, 0.00, 0.00, 0.00, 0.000, 0.000, 0.000, 14:09:38.496, 1551726578496
25, -4260.04, 0.00, 0.00, 0.00, 0.00, 0.00, 0.00, 0.00, 0.000, 0.000, 0.000, 14:09:38.496, 1551726578496
26, -4209.10, 0.00, 0.00, 0.00, 0.00, 0.00, 0.00, 0.00, 0.000, 0.000, 0.000, 14:09:38.504, 1551726578504
27, -4219.70, 0.00, 0.00, 0.00, 0.00, 0.00, 0.00, 0.00, 0.000, 0.000, 0.000, 14:09:38.504, 1551726578504
28, -4263.53, 0.00, 0.00, 0.00, 0.00, 0.00, 0.00, 0.00, 0.000, 0.000, 0.000, 14:09:38.511, 1551726578511
29, -4264.15, 0.00, 0.00, 0.00, 0.00, 0.00, 0.00, 0.00, 0.000, 0.000, 0.000, 14:09:38.511, 1551726578511
30, -4226.74, 0.00, 0.00, 0.00, 0.00, 0.00, 0.00, 0.00, -0.656, 0.718, -0.218, 14:09:38.518, 1551726578518
31, -4226.04, 0.00, 0.00, 0.00, 0.00, 0.00, 0.00, 0.00, 0.000, 0.000, 0.000, 14:09:38.525, 1551726578525
32, -4250.01, 0.00, 0.00, 0.00, 0.00, 0.00, 0.00, 0.00, 0.000, 0.000, 0.000, 14:09:38.526, 1551726578526
33, -4271.28, 0.00, 0.00, 0.00, 0.00, 0.00, 0.00, 0.00, 0.000, 0.000, 0.000, 14:09:38.534, 1551726578534
34, -4229.26, 0.00, 0.00, 0.00, 0.00, 0.00, 0.00, 0.00, 0.000, 0.000, 0.000, 14:09:38.534, 1551726578534
35, -4215.47, 0.00, 0.00, 0.00, 0.00, 0.00, 0.00, 0.00, 0.000, 0.000, 0.000, 14:09:38.540, 1551726578540
36, -4242.41, 0.00, 0.00, 0.00, 0.00, 0.00, 0.00, 0.00, 0.000, 0.000, 0.000, 14:09:38.540, 1551726578540
37, -4271.57, 0.00, 0.00, 0.00, 0.00, 0.00, 0.00, 0.00, 0.000, 0.000, 0.000, 14:09:38.549, 1551726578549
38, -4242.90, 0.00, 0.00, 0.00, 0.00, 0.00, 0.00, 0.00, 0.000, 0.000, 0.000, 14:09:38.549, 1551726578549
39, -4220.70, 0.00, 0.00, 0.00, 0.00, 0.00, 0.00, 0.00, 0.000, 0.000, 0.000, 14:09:38.556, 1551726578556
40, -4241.89, 0.00, 0.00, 0.00, 0.00, 0.00, 0.00, 0.00, -0.654, 0.718, -0.216, 14:09:38.556, 1551726578556
41, -4265.96, 0.00, 0.00, 0.00, 0.00, 0.00, 0.00, 0.00, 0.000, 0.000, 0.000, 14:09:38.563, 1551726578563
42, -4246.88, 0.00, 0.00, 0.00, 0.00, 0.00, 0.00, 0.00, 0.000, 0.000, 0.000, 14:09:38.563, 1551726578563
43, -4210.02, 0.00, 0.00, 0.00, 0.00, 0.00, 0.00, 0.00, 0.000, 0.000, 0.000, 14:09:38.571, 1551726578571
44, -4230.81, 0.00, 0.00, 0.00, 0.00, 0.00, 0.00, 0.00, 0.000, 0.000, 0.000, 14:09:38.571, 1551726578571
45, -4270.84, 0.00, 0.00, 0.00, 0.00, 0.00, 0.00, 0.00, 0.000, 0.000, 0.000, 14:09:38.578, 1551726578578
46, -4243.79, 0.00, 0.00, 0.00, 0.00, 0.00, 0.00, 0.00, 0.000, 0.000, 0.000, 14:09:38.586, 1551726578586
47, -4209.62, 0.00, 0.00, 0.00, 0.00, 0.00, 0.00, 0.00, 0.000, 0.000, 0.000, 14:09:38.586, 1551726578586
48, -4222.00, 0.00, 0.00, 0.00, 0.00, 0.00, 0.00, 0.00, 0.000, 0.000, 0.000, 14:09:38.592, 1551726578592
49, -4252.80, 0.00, 0.00, 0.00, 0.00, 0.00, 0.00, 0.00, 0.000, 0.000, 0.000, 14:09:38.593, 1551726578593
50, -4254.12, 0.00, 0.00, 0.00, 0.00, 0.00, 0.00, 0.00, -0.658, 0.714, -0.214, 14:09:38.601, 1551726578601
51, -4213.24, 0.00, 0.00, 0.00, 0.00, 0.00, 0.00, 0.00, 0.000, 0.000, 0.000, 14:09:38.601, 1551726578601
52, -4222.60, 0.00, 0.00, 0.00, 0.00, 0.00, 0.00, 0.00, 0.000, 0.000, 0.000, 14:09:38.608, 1551726578608
53, -4261.27, 0.00, 0.00, 0.00, 0.00, 0.00, 0.00, 0.00, 0.000, 0.000, 0.000, 14:09:38.608, 1551726578608
54, -4272.11, 0.00, 0.00, 0.00, 0.00, 0.00, 0.00, 0.00, 0.000, 0.000, 0.000, 14:09:38.616, 1551726578616
55, -4217.62, 0.00, 0.00, 0.00, 0.00, 0.00, 0.00, 0.00, 0.000, 0.000, 0.000, 14:09:38.616, 1551726578616
56, -4214.82, 0.00, 0.00, 0.00, 0.00, 0.00, 0.00, 0.00, 0.000, 0.000, 0.000, 14:09:38.623, 1551726578623
57, -4244.10, 0.00, 0.00, 0.00, 0.00, 0.00, 0.00, 0.00, 0.000, 0.000, 0.000, 14:09:38.623, 1551726578623
58, -4269.67, 0.00, 0.00, 0.00, 0.00, 0.00, 0.00, 0.00, 0.000, 0.000, 0.000, 14:09:38.631, 1551726578631
59, -4235.43, 0.00, 0.00, 0.00, 0.00, 0.00, 0.00, 0.00, -0.658, 0.712, -0.214, 14:09:38.631, 1551726578631
60, -4215.23, 0.00, 0.00, 0.00, 0.00, 0.00, 0.00, 0.00, 0.000, 0.000, 0.000, 14:09:38.638, 1551726578638
61, -4234.90, 0.00, 0.00, 0.00, 0.00, 0.00, 0.00, 0.00, 0.000, 0.000, 0.000, 14:09:38.645, 1551726578645
62, -4269.52, 0.00, 0.00, 0.00, 0.00, 0.00, 0.00, 0.00, 0.000, 0.000, 0.000, 14:09:38.645, 1551726578645
63, -4230.58, 0.00, 0.00, 0.00, 0.00, 0.00, 0.00, 0.00, 0.000, 0.000, 0.000, 14:09:38.653, 1551726578653
64, -4209.88, 0.00, 0.00, 0.00, 0.00, 0.00, 0.00, 0.00, 0.000, 0.000, 0.000, 14:09:38.653, 1551726578653
65, -4222.67, 0.00, 0.00, 0.00, 0.00, 0.00, 0.00, 0.00, 0.000, 0.000, 0.000, 14:09:38.661, 1551726578661
66, -4253.47, 0.00, 0.00, 0.00, 0.00, 0.00, 0.00, 0.00, 0.000, 0.000, 0.000, 14:09:38.661, 1551726578661
67, -4239.81, 0.00, 0.00, 0.00, 0.00, 0.00, 0.00, 0.00, 0.000, 0.000, 0.000, 14:09:38.669, 1551726578669
68, -4201.59, 0.00, 0.00, 0.00, 0.00, 0.00, 0.00, 0.00, 0.000, 0.000, 0.000, 14:09:38.670, 1551726578670
69, -4214.76, 0.00, 0.00, 0.00, 0.00, 0.00, 0.00, 0.00, -0.656, 0.708, -0.212, 14:09:38.675, 1551726578675
70, -4259.62, 0.00, 0.00, 0.00, 0.00, 0.00, 0.00, 0.00, 0.000, 0.000, 0.000, 14:09:38.675, 1551726578675
71, -4250.90, 0.00, 0.00, 0.00, 0.00, 0.00, 0.00, 0.00, 0.000, 0.000, 0.000, 14:09:38.684, 1551726578684
72, -4210.53, 0.00, 0.00, 0.00, 0.00, 0.00, 0.00, 0.00, 0.000, 0.000, 0.000, 14:09:38.684, 1551726578684
73, -4224.23, 0.00, 0.00, 0.00, 0.00, 0.00, 0.00, 0.00, 0.000, 0.000, 0.000, 14:09:38.691, 1551726578691
74, -4245.24, 0.00, 0.00, 0.00, 0.00, 0.00, 0.00, 0.00, 0.000, 0.000, 0.000, 14:09:38.691, 1551726578691
75, -4257.47, 0.00, 0.00, 0.00, 0.00, 0.00, 0.00, 0.00, 0.000, 0.000, 0.000, 14:09:38.697, 1551726578697
76, -4214.33, 0.00, 0.00, 0.00, 0.00, 0.00, 0.00, 0.00, 0.000, 0.000, 0.000, 14:09:38.705, 1551726578705
77, -4215.02, 0.00, 0.00, 0.00, 0.00, 0.00, 0.00, 0.00, 0.000, 0.000, 0.000, 14:09:38.705, 1551726578705
78, -4250.56, 0.00, 0.00, 0.00, 0.00, 0.00, 0.00, 0.00, 0.000, 0.000, 0.000, 14:09:38.713, 1551726578713
79, -4271.02, 0.00, 0.00, 0.00, 0.00, 0.00, 0.00, 0.00, -0.652, 0.708, -0.214, 14:09:38.713, 1551726578713
80, -4229.67, 0.00, 0.00, 0.00, 0.00, 0.00, 0.00, 0.00, 0.000, 0.000, 0.000, 14:09:38.721, 1551726578721
81, -4213.44, 0.00, 0.00, 0.00, 0.00, 0.00, 0.00, 0.00, 0.000, 0.000, 0.000, 14:09:38.722, 1551726578722
82, -4240.89, 0.00, 0.00, 0.00, 0.00, 0.00, 0.00, 0.00, 0.000, 0.000, 0.000, 14:09:38.727, 1551726578727
83, -4270.23, 0.00, 0.00, 0.00, 0.00, 0.00, 0.00, 0.00, 0.000, 0.000, 0.000, 14:09:38.728, 1551726578728
84, -4232.48, 0.00, 0.00, 0.00, 0.00, 0.00, 0.00, 0.00, 0.000, 0.000, 0.000, 14:09:38.736, 1551726578736
85, -4223.94, 0.00, 0.00, 0.00, 0.00, 0.00, 0.00, 0.00, 0.000, 0.000, 0.000, 14:09:38.736, 1551726578736
86, -4250.94, 0.00, 0.00, 0.00, 0.00, 0.00, 0.00, 0.00, 0.000, 0.000, 0.000, 14:09:38.743, 1551726578743
87, -4271.55, 0.00, 0.00, 0.00, 0.00, 0.00, 0.00, 0.00, 0.000, 0.000, 0.000, 14:09:38.744, 1551726578744
88, -4236.68, 0.00, 0.00, 0.00, 0.00, 0.00, 0.00, 0.00, 0.000, 0.000, 0.000, 14:09:38.751, 1551726578751
89, -4218.58, 0.00, 0.00, 0.00, 0.00, 0.00, 0.00, 0.00, -0.654, 0.706, -0.218, 14:09:38.752, 1551726578752
90, -4234.18, 0.00, 0.00, 0.00, 0.00, 0.00, 0.00, 0.00, 0.000, 0.000, 0.000, 14:09:38.757, 1551726578757
91, -4266.97, 0.00, 0.00, 0.00, 0.00, 0.00, 0.00, 0.00, 0.000, 0.000, 0.000, 14:09:38.757, 1551726578757
92, -4256.08, 0.00, 0.00, 0.00, 0.00, 0.00, 0.00, 0.00, 0.000, 0.000, 0.000, 14:09:38.766, 1551726578766
93, -4222.71, 0.00, 0.00, 0.00, 0.00, 0.00, 0.00, 0.00, 0.000, 0.000, 0.000, 14:09:38.773, 1551726578773
94, -4233.13, 0.00, 0.00, 0.00, 0.00, 0.00, 0.00, 0.00, 0.000, 0.000, 0.000, 14:09:38.774, 1551726578774
95, -4268.98, 0.00, 0.00, 0.00, 0.00, 0.00, 0.00, 0.00, 0.000, 0.000, 0.000, 14:09:38.780, 1551726578780
96, -4265.34, 0.00, 0.00, 0.00, 0.00, 0.00, 0.00, 0.00, 0.000, 0.000, 0.000, 14:09:38.780, 1551726578780
97, -4216.75, 0.00, 0.00, 0.00, 0.00, 0.00, 0.00, 0.00, 0.000, 0.000, 0.000, 14:09:38.788, 1551726578788
98, -4228.46, 0.00, 0.00, 0.00, 0.00, 0.00, 0.00, 0.00, 0.000, 0.000, 0.000, 14:09:38.789, 1551726578789
99, -4267.08, 0.00, 0.00, 0.00, 0.00, 0.00, 0.00, 0.00, -0.650, 0.708, -0.218, 14:09:38.796, 1551726578796
100, -4261.38, 0.00, 0.00, 0.00, 0.00, 0.00, 0.00, 0.00, 0.000, 0.000, 0.000, 14:09:38.796, 1551726578796
101, -4229.78, 0.00, 0.00, 0.00, 0.00, 0.00, 0.00, 0.00, 0.000, 0.000, 0.000, 14:09:38.803, 1551726578803
102, -4225.53, 0.00, 0.00, 0.00, 0.00, 0.00, 0.00, 0.00, 0.000, 0.000, 0.000, 14:09:38.803, 1551726578803
103, -4257.31, 0.00, 0.00, 0.00, 0.00, 0.00, 0.00, 0.00, 0.000, 0.000, 0.000, 14:09:38.810, 1551726578810
104, -4281.48, 0.00, 0.00, 0.00, 0.00, 0.00, 0.00, 0.00, 0.000, 0.000, 0.000, 14:09:38.811, 1551726578811
105, -4233.20, 0.00, 0.00, 0.00, 0.00, 0.00, 0.00, 0.00, 0.000, 0.000, 0.000, 14:09:38.818, 1551726578818
106, -4219.50, 0.00, 0.00, 0.00, 0.00, 0.00, 0.00, 0.00, 0.000, 0.000, 0.000, 14:09:38.819, 1551726578819
107, -4238.87, 0.00, 0.00, 0.00, 0.00, 0.00, 0.00, 0.00, 0.000, 0.000, 0.000, 14:09:38.826, 1551726578826
108, -4271.35, 0.00, 0.00, 0.00, 0.00, 0.00, 0.00, 0.00, 0.000, 0.000, 0.000, 14:09:38.833, 1551726578833
