%OpenBCI Raw EEG Data
%Number of channels = 8
%Sample Rate = 250.0 Hz
%First Column = SampleIndex
%Last Column = Timestamp 
%Other Columns = EEG data in microvolts followed by Accel Data (in G) interleaved with Aux Data
0, 0.00, 0.00, 0.00, 0.00, 0.00, 0.00, 0.00, 0.00, 0.270, -0.006, 0.984, 13:48:11.431, 1552240091431
1, 55581.72, 65993.48, 0.00, 0.00, 0.00, 0.00, 106869.12, 17159.59, 0.000, 0.000, 0.000, 13:48:11.915, 1552240091915
2, 55655.73, 66051.52, 0.00, 0.00, 0.00, 0.00, 106910.60, 17179.73, 0.000, 0.000, 0.000, 13:48:11.916, 1552240091916
3, 55757.23, 66137.94, 0.00, 0.00, 0.00, 0.00, 106991.60, 17218.64, 0.000, 0.000, 0.000, 13:48:11.916, 1552240091916
4, 55706.56, 66110.31, 0.00, 0.00, 0.00, 0.00, 106973.86, 17216.86, 0.000, 0.000, 0.000, 13:48:11.916, 1552240091916
5, 55587.29, 66005.80, 0.00, 0.00, 0.00, 0.00, 106862.59, 17145.71, 0.000, 0.000, 0.000, 13:48:11.916, 1552240091916
6, 55637.56, 66039.45, 0.00, 0.00, 0.00, 0.00, 106883.22, 17153.38, 0.000, 0.000, 0.000, 13:48:11.917, 1552240091917
7, 55709.51, 66113.87, 0.00, 0.00, 0.00, 0.00, 106967.82, 17198.82, 0.000, 0.000, 0.000, 13:48:11.917, 1552240091917
8, 55753.54, 66142.45, 0.00, 0.00, 0.00, 0.00, 106989.73, 17226.62, 0.240, 0.012, 0.980, 13:48:11.917, 1552240091917
9, 55634.52, 66034.38, 0.00, 0.00, 0.00, 0.00, 106875.66, 17156.82, 0.000, 0.000, 0.000, 13:48:11.918, 1552240091918
10, 55637.09, 66033.87, 0.00, 0.00, 0.00, 0.00, 106878.30, 17157.62, 0.000, 0.000, 0.000, 13:48:11.918, 1552240091918
11, 55745.98, 66126.43, 0.00, 0.00, 0.00, 0.00, 106963.40, 17201.28, 0.000, 0.000, 0.000, 13:48:11.921, 1552240091921
12, 55768.83, 66153.43, 0.00, 0.00, 0.00, 0.00, 107000.81, 17230.89, 0.000, 0.000, 0.000, 13:48:11.921, 1552240091921
13, 55585.86, 66010.04, 0.00, 0.00, 0.00, 0.00, 106878.44, 17153.80, 0.000, 0.000, 0.000, 13:48:11.922, 1552240091922
14, 55611.38, 66016.99, 0.00, 0.00, 0.00, 0.00, 106873.88, 17154.00, 0.000, 0.000, 0.000, 13:48:11.922, 1552240091922
15, 55715.54, 66103.18, 0.00, 0.00, 0.00, 0.00, 106946.59, 17186.79, 0.000, 0.000, 0.000, 13:48:11.923, 1552240091923
16, 55765.99, 66161.07, 0.00, 0.00, 0.00, 0.00, 107025.94, 17247.86, 0.000, 0.000, 0.000, 13:48:11.924, 1552240091924
17, 55674.77, 66076.18, 0.00, 0.00, 0.00, 0.00, 106926.74, 17189.01, 0.218, 0.016, 0.986, 13:48:11.924, 1552240091924
18, 55611.23, 66017.75, 0.00, 0.00, 0.00, 0.00, 106870.02, 17151.90, 0.000, 0.000, 0.000, 13:48:11.924, 1552240091924
19, 55718.11, 66100.68, 0.00, 0.00, 0.00, 0.00, 106933.09, 17184.49, 0.000, 0.000, 0.000, 13:48:11.924, 1552240091924
20, 55800.99, 66173.70, 0.00, 0.00, 0.00, 0.00, 107011.59, 17237.62, 0.000, 0.000, 0.000, 13:48:11.924, 1552240091924
21, 55679.11, 66073.50, 0.00, 0.00, 0.00, 0.00, 106919.81, 17180.73, 0.000, 0.000, 0.000, 13:48:11.924, 1552240091924
22, 55617.24, 66013.98, 0.00, 0.00, 0.00, 0.00, 106861.16, 17148.37, 0.000, 0.000, 0.000, 13:48:11.924, 1552240091924
23, 55683.07, 66071.33, 0.00, 0.00, 0.00, 0.00, 106911.48, 17170.95, 0.000, 0.000, 0.000, 13:48:11.925, 1552240091925
24, 55779.31, 66155.82, 0.00, 0.00, 0.00, 0.00, 107001.55, 17225.80, 0.000, 0.000, 0.000, 13:48:11.925, 1552240091925
25, 55708.28, 66095.13, 0.00, 0.00, 0.00, 0.00, 106948.60, 17200.18, 0.000, 0.000, 0.000, 13:48:11.925, 1552240091925
26, 55574.04, 65980.85, 0.00, 0.00, 0.00, 0.00, 106849.00, 17139.36, 0.000, 0.000, 0.000, 13:48:11.925, 1552240091925
27, 55644.13, 66038.70, 0.00, 0.00, 0.00, 0.00, 106894.73, 17162.41, 0.216, 0.024, 0.988, 13:48:11.925, 1552240091925
28, 55776.34, 66152.53, 0.00, 0.00, 0.00, 0.00, 107002.47, 17230.94, 0.000, 0.000, 0.000, 13:48:11.925, 1552240091925
29, 55743.08, 66125.42, 0.00, 0.00, 0.00, 0.00, 106981.91, 17226.82, 0.000, 0.000, 0.000, 13:48:11.925, 1552240091925
30, 55606.94, 66008.59, 0.00, 0.00, 0.00, 0.00, 106868.89, 17155.01, 0.000, 0.000, 0.000, 13:48:11.926, 1552240091926
31, 55648.38, 66040.22, 0.00, 0.00, 0.00, 0.00, 106891.91, 17167.05, 0.000, 0.000, 0.000, 13:48:11.926, 1552240091926
32, 55758.75, 66136.06, 0.00, 0.00, 0.00, 0.00, 106982.30, 17215.60, 0.000, 0.000, 0.000, 13:48:11.926, 1552240091926
33, 55762.91, 66140.15, 0.00, 0.00, 0.00, 0.00, 106993.57, 17228.21, 0.000, 0.000, 0.000, 13:48:11.926, 1552240091926
34, 55618.13, 66016.50, 0.00, 0.00, 0.00, 0.00, 106876.63, 17156.37, 0.000, 0.000, 0.000, 13:48:11.926, 1552240091926
35, 55601.15, 66003.54, 0.00, 0.00, 0.00, 0.00, 106867.98, 17149.06, 0.000, 0.000, 0.000, 13:48:11.926, 1552240091926
36, 55705.64, 66090.73, 0.00, 0.00, 0.00, 0.00, 106944.22, 17183.75, 0.000, 0.000, 0.000, 13:48:11.926, 1552240091926
37, 55778.57, 66157.36, 0.00, 0.00, 0.00, 0.00, 107016.10, 17247.21, 0.212, 0.020, 0.992, 13:48:11.926, 1552240091926
38, 55627.48, 66033.51, 0.00, 0.00, 0.00, 0.00, 106896.41, 17172.55, 0.000, 0.000, 0.000, 13:48:11.926, 1552240091926
39, 55593.86, 65999.85, 0.00, 0.00, 0.00, 0.00, 106867.33, 17152.04, 0.000, 0.000, 0.000, 13:48:11.926, 1552240091926
40, 55723.41, 66105.35, 0.00, 0.00, 0.00, 0.00, 106949.61, 17200.49, 0.000, 0.000, 0.000, 13:48:11.926, 1552240091926
41, 55804.70, 66174.82, 0.00, 0.00, 0.00, 0.00, 107019.66, 17249.31, 0.000, 0.000, 0.000, 13:48:11.927, 1552240091927
42, 55653.32, 66052.11, 0.00, 0.00, 0.00, 0.00, 106907.70, 17178.97, 0.000, 0.000, 0.000, 13:48:11.927, 1552240091927
43, 55624.17, 66019.32, 0.00, 0.00, 0.00, 0.00, 106867.73, 17154.61, 0.000, 0.000, 0.000, 13:48:11.927, 1552240091927
44, 55699.25, 66083.87, 0.00, 0.00, 0.00, 0.00, 106921.27, 17174.52, 0.000, 0.000, 0.000, 13:48:11.927, 1552240091927
45, 55800.48, 66170.52, 0.00, 0.00, 0.00, 0.00, 107011.55, 17231.88, 0.000, 0.000, 0.000, 13:48:11.927, 1552240091927
46, 55697.82, 66085.19, 0.00, 0.00, 0.00, 0.00, 106934.09, 17185.90, 0.000, 0.000, 0.000, 13:48:11.927, 1552240091927
47, 55607.90, 66004.54, 0.00, 0.00, 0.00, 0.00, 106857.09, 17135.83, 0.214, 0.026, 0.986, 13:48:11.927, 1552240091927
48, 55682.75, 66068.58, 0.00, 0.00, 0.00, 0.00, 106914.63, 17171.12, 0.000, 0.000, 0.000, 13:48:11.927, 1552240091927
49, 55796.05, 66167.95, 0.00, 0.00, 0.00, 0.00, 107014.29, 17236.90, 0.000, 0.000, 0.000, 13:48:11.927, 1552240091927
50, 55736.00, 66122.60, 0.00, 0.00, 0.00, 0.00, 106971.73, 17219.02, 0.000, 0.000, 0.000, 13:48:11.927, 1552240091927
51, 55624.66, 66024.91, 0.00, 0.00, 0.00, 0.00, 106877.41, 17160.80, 0.000, 0.000, 0.000, 13:48:11.927, 1552240091927
52, 55670.95, 66062.91, 0.00, 0.00, 0.00, 0.00, 106908.79, 17172.98, 0.000, 0.000, 0.000, 13:48:11.927, 1552240091927
53, 55783.80, 66163.30, 0.00, 0.00, 0.00, 0.00, 107005.13, 17228.25, 0.000, 0.000, 0.000, 13:48:11.927, 1552240091927
54, 55756.49, 66143.59, 0.00, 0.00, 0.00, 0.00, 106993.02, 17226.85, 0.000, 0.000, 0.000, 13:48:11.928, 1552240091928
55, 55629.18, 66031.25, 0.00, 0.00, 0.00, 0.00, 106885.52, 17161.47, 0.000, 0.000, 0.000, 13:48:11.928, 1552240091928
56, 55656.13, 66051.95, 0.00, 0.00, 0.00, 0.00, 106906.52, 17173.78, 0.000, 0.000, 0.000, 13:48:11.928, 1552240091928
57, 55766.01, 66146.92, 0.00, 0.00, 0.00, 0.00, 106997.77, 17225.44, 0.206, 0.024, 0.992, 13:48:11.928, 1552240091928
58, 55778.13, 66161.02, 0.00, 0.00, 0.00, 0.00, 107019.30, 17245.31, 0.000, 0.000, 0.000, 13:48:11.928, 1552240091928
59, 55642.36, 66043.23, 0.00, 0.00, 0.00, 0.00, 106898.76, 17170.86, 0.000, 0.000, 0.000, 13:48:11.928, 1552240091928
60, 55646.57, 66042.34, 0.00, 0.00, 0.00, 0.00, 106896.27, 17171.03, 0.000, 0.000, 0.000, 13:48:11.928, 1552240091928
61, 55749.43, 66132.48, 0.00, 0.00, 0.00, 0.00, 106979.09, 17213.05, 0.000, 0.000, 0.000, 13:48:11.928, 1552240091928
62, 55797.21, 66177.21, 0.00, 0.00, 0.00, 0.00, 107030.37, 17252.28, 0.000, 0.000, 0.000, 13:48:11.928, 1552240091928
63, 55663.29, 66063.40, 0.00, 0.00, 0.00, 0.00, 106916.62, 17183.10, 0.000, 0.000, 0.000, 13:48:11.928, 1552240091928
64, 55637.47, 66038.45, 0.00, 0.00, 0.00, 0.00, 106891.88, 17171.19, 0.000, 0.000, 0.000, 13:48:11.928, 1552240091928
65, 55722.81, 66111.97, 0.00, 0.00, 0.00, 0.00, 106954.50, 17197.34, 0.000, 0.000, 0.000, 13:48:11.928, 1552240091928
66, 55804.68, 66183.83, 0.00, 0.00, 0.00, 0.00, 107030.56, 17249.22, 0.000, 0.000, 0.000, 13:48:11.929, 1552240091929
67, 55678.82, 66077.59, 0.00, 0.00, 0.00, 0.00, 106929.13, 17188.38, 0.210, 0.028, 0.994, 13:48:11.929, 1552240091929
68, 55622.79, 66023.63, 0.00, 0.00, 0.00, 0.00, 106873.37, 17154.99, 0.000, 0.000, 0.000, 13:48:11.929, 1552240091929
69, 55706.54, 66095.88, 0.00, 0.00, 0.00, 0.00, 106933.71, 17184.09, 0.000, 0.000, 0.000, 13:48:11.929, 1552240091929
70, 55813.62, 66191.11, 0.00, 0.00, 0.00, 0.00, 107032.46, 17251.23, 0.000, 0.000, 0.000, 13:48:11.929, 1552240091929
71, 55711.81, 66105.23, 0.00, 0.00, 0.00, 0.00, 106949.38, 17199.42, 0.000, 0.000, 0.000, 13:48:11.929, 1552240091929
72, 55621.15, 66022.11, 0.00, 0.00, 0.00, 0.00, 106873.99, 17153.20, 0.000, 0.000, 0.000, 13:48:11.929, 1552240091929
73, 55682.91, 66075.24, 0.00, 0.00, 0.00, 0.00, 106925.40, 17181.74, 0.000, 0.000, 0.000, 13:48:11.929, 1552240091929
74, 55799.88, 66179.89, 0.00, 0.00, 0.00, 0.00, 107035.21, 17254.45, 0.000, 0.000, 0.000, 13:48:11.929, 1552240091929
75, 55737.89, 66130.09, 0.00, 0.00, 0.00, 0.00, 106989.80, 17226.56, 0.000, 0.000, 0.000, 13:48:11.930, 1552240091930
76, 55616.61, 66020.88, 0.00, 0.00, 0.00, 0.00, 106883.42, 17156.30, 0.000, 0.000, 0.000, 13:48:11.930, 1552240091930
77, 55667.60, 66063.51, 0.00, 0.00, 0.00, 0.00, 106918.05, 17176.15, 0.210, 0.026, 0.990, 13:48:11.930, 1552240091930
78, 55799.36, 66180.77, 0.00, 0.00, 0.00, 0.00, 107029.91, 17247.77, 0.000, 0.000, 0.000, 13:48:11.930, 1552240091930
79, 55776.27, 66163.93, 0.00, 0.00, 0.00, 0.00, 107020.10, 17247.16, 0.000, 0.000, 0.000, 13:48:11.930, 1552240091930
80, 55643.50, 66046.88, 0.00, 0.00, 0.00, 0.00, 106898.33, 17164.89, 0.000, 0.000, 0.000, 13:48:11.930, 1552240091930
81, 55667.64, 66064.67, 0.00, 0.00, 0.00, 0.00, 106917.46, 17177.11, 0.000, 0.000, 0.000, 13:48:11.930, 1552240091930
82, 55781.21, 66163.80, 0.00, 0.00, 0.00, 0.00, 107012.35, 17228.48, 0.000, 0.000, 0.000, 13:48:11.930, 1552240091930
83, 55800.14, 66182.20, 0.00, 0.00, 0.00, 0.00, 107042.57, 17261.96, 0.000, 0.000, 0.000, 13:48:11.931, 1552240091931
84, 55659.29, 66058.45, 0.00, 0.00, 0.00, 0.00, 106904.99, 17144.26, 0.000, 0.000, 0.000, 13:48:11.931, 1552240091931
85, 55659.80, 66056.53, 0.00, 0.00, 0.00, 0.00, 106922.94, 17196.96, 0.000, 0.000, 0.000, 13:48:11.932, 1552240091932
86, 55762.21, 66145.65, 0.00, 0.00, 0.00, 0.00, 107003.85, 17234.07, 0.000, 0.000, 0.000, 13:48:11.932, 1552240091932
87, 55812.06, 66191.78, 0.00, 0.00, 0.00, 0.00, 107042.57, 17239.30, 0.210, 0.026, 0.990, 13:48:11.932, 1552240091932
88, 55680.68, 66081.77, 0.00, 0.00, 0.00, 0.00, 106943.95, 17204.54, 0.000, 0.000, 0.000, 13:48:11.932, 1552240091932
89, 55654.21, 66053.47, 0.00, 0.00, 0.00, 0.00, 106916.98, 17191.96, 0.000, 0.000, 0.000, 13:48:11.932, 1552240091932
90, 55746.07, 66132.46, 0.00, 0.00, 0.00, 0.00, 106984.37, 17212.54, 0.000, 0.000, 0.000, 13:48:11.932, 1552240091932
91, 55815.79, 66192.25, 0.00, 0.00, 0.00, 0.00, 107024.44, 17210.80, 0.000, 0.000, 0.000, 13:48:11.932, 1552240091932
92, 55702.51, 66103.02, 0.00, 0.00, 0.00, 0.00, 106973.73, 17236.93, 0.000, 0.000, 0.000, 13:48:11.932, 1552240091932
93, 55646.32, 66052.17, 0.00, 0.00, 0.00, 0.00, 106925.55, 17199.46, 0.000, 0.000, 0.000, 13:48:11.932, 1552240091932
94, 55721.58, 66117.04, 0.00, 0.00, 0.00, 0.00, 106983.23, 17234.45, 0.000, 0.000, 0.000, 13:48:11.932, 1552240091932
95, 55822.68, 66203.12, 0.00, 0.00, 0.00, 0.00, 107064.25, 17272.13, 0.000, 0.000, 0.000, 13:48:11.932, 1552240091932
96, 55739.41, 66133.11, 0.00, 0.00, 0.00, 0.00, 106999.48, 17244.84, 0.000, 0.000, 0.000, 13:48:11.933, 1552240091933
97, 55642.79, 66047.01, 0.00, 0.00, 0.00, 0.00, 106914.31, 17188.96, 0.206, 0.026, 0.994, 13:48:11.933, 1552240091933
98, 55704.19, 66101.28, 0.00, 0.00, 0.00, 0.00, 106972.67, 17234.63, 0.000, 0.000, 0.000, 13:48:11.933, 1552240091933
99, 55819.66, 66198.55, 0.00, 0.00, 0.00, 0.00, 107062.75, 17284.89, 0.000, 0.000, 0.000, 13:48:11.933, 1552240091933
100, 55768.74, 66158.48, 0.00, 0.00, 0.00, 0.00, 107030.45, 17274.97, 0.000, 0.000, 0.000, 13:48:11.933, 1552240091933
101, 55640.02, 66043.45, 0.00, 0.00, 0.00, 0.00, 106891.09, 17138.83, 0.000, 0.000, 0.000, 13:48:11.933, 1552240091933
102, 55678.11, 66072.16, 0.00, 0.00, 0.00, 0.00, 106874.13, 17033.86, 0.000, 0.000, 0.000, 13:48:11.933, 1552240091933
103, 55804.88, 66187.38, 0.00, 0.00, 0.00, 0.00, 107074.53, 17322.78, 0.000, 0.000, 0.000, 13:48:11.933, 1552240091933
104, 55784.95, 66169.84, 0.00, 0.00, 0.00, 0.00, 107053.32, 17294.13, 0.000, 0.000, 0.000, 13:48:11.933, 1552240091933
105, 55659.84, 66062.77, 0.00, 0.00, 0.00, 0.00, 106944.96, 17222.09, 0.000, 0.000, 0.000, 13:48:11.934, 1552240091934
106, 55670.39, 66069.67, 0.00, 0.00, 0.00, 0.00, 106903.67, 17121.86, 0.000, 0.000, 0.000, 13:48:11.934, 1552240091934
107, 55788.16, 66171.64, 0.00, 0.00, 0.00, 0.00, 106997.59, 17176.40, 0.202, 0.026, 0.986, 13:48:11.934, 1552240091934
108, 55804.05, 66193.52, 0.00, 0.00, 0.00, 0.00, 107080.56, 17329.53, 0.000, 0.000, 0.000, 13:48:11.934, 1552240091934
109, 55682.62, 66088.56, 0.00, 0.00, 0.00, 0.00, 106974.82, 17259.77, 0.000, 0.000, 0.000, 13:48:11.934, 1552240091934
110, 55681.34, 66085.16, 0.00, 0.00, 0.00, 0.00, 106959.09, 17229.98, 0.000, 0.000, 0.000, 13:48:11.934, 1552240091934
111, 55775.85, 66167.87, 0.00, 0.00, 0.00, 0.00, 107045.63, 17296.14, 0.000, 0.000, 0.000, 13:48:11.934, 1552240091934
112, 55839.19, 66224.26, 0.00, 0.00, 0.00, 0.00, 107102.02, 17326.60, 0.000, 0.000, 0.000, 13:48:11.935, 1552240091935
113, 55712.53, 66115.25, 0.00, 0.00, 0.00, 0.00, 106979.73, 17236.12, 0.000, 0.000, 0.000, 13:48:11.935, 1552240091935
114, 55675.54, 66080.18, 0.00, 0.00, 0.00, 0.00, 106955.24, 17232.86, 0.000, 0.000, 0.000, 13:48:11.935, 1552240091935
115, 55776.86, 66168.65, 0.00, 0.00, 0.00, 0.00, 107021.42, 17232.70, 0.000, 0.000, 0.000, 13:48:11.935, 1552240091935
116, 55856.58, 66236.29, 0.00, 0.00, 0.00, 0.00, 107051.71, 17172.15, 0.000, 0.000, 0.000, 13:48:11.935, 1552240091935
117, 55743.82, 66144.80, 0.00, 0.00, 0.00, 0.00, 107022.67, 17273.40, 0.206, 0.026, 0.992, 13:48:11.935, 1552240091935
118, 55683.27, 66089.86, 0.00, 0.00, 0.00, 0.00, 106978.58, 17272.69, 0.000, 0.000, 0.000, 13:48:11.935, 1552240091935
119, 55756.07, 66151.55, 0.00, 0.00, 0.00, 0.00, 107006.05, 17245.44, 0.000, 0.000, 0.000, 13:48:11.935, 1552240091935
120, 55870.95, 66250.48, 0.00, 0.00, 0.00, 0.00, 107106.80, 17315.47, 0.000, 0.000, 0.000, 13:48:11.935, 1552240091935
121, 55774.20, 66169.68, 0.00, 0.00, 0.00, 0.00, 107031.19, 17269.05, 0.000, 0.000, 0.000, 13:48:12.394, 1552240092394
122, 55686.00, 66090.41, 0.00, 0.00, 0.00, 0.00, 106941.63, 17194.44, 0.000, 0.000, 0.000, 13:48:12.394, 1552240092394
123, 55760.71, 66152.66, 0.00, 0.00, 0.00, 0.00, 106984.90, 17225.46, 0.000, 0.000, 0.000, 13:48:12.394, 1552240092394
124, 55868.16, 66247.75, 0.00, 0.00, 0.00, 0.00, 107124.27, 17355.64, 0.000, 0.000, 0.000, 13:48:12.394, 1552240092394
125, 55809.15, 66201.33, 0.00, 0.00, 0.00, 0.00, 107095.01, 17346.05, 0.000, 0.000, 0.000, 13:48:12.394, 1552240092394
126, 55686.98, 66095.47, 0.00, 0.00, 0.00, 0.00, 106992.08, 17282.90, 0.206, 0.026, 0.992, 13:48:12.394, 1552240092394
127, 55735.59, 66136.89, 0.00, 0.00, 0.00, 0.00, 107013.47, 17275.46, 0.000, 0.000, 0.000, 13:48:12.395, 1552240092395
128, 55850.55, 66233.88, 0.00, 0.00, 0.00, 0.00, 107095.18, 17303.33, 0.000, 0.000, 0.000, 13:48:12.395, 1552240092395
129, 55841.32, 66228.77, 0.00, 0.00, 0.00, 0.00, 107118.63, 17361.74, 0.000, 0.000, 0.000, 13:48:12.395, 1552240092395
130, 55704.57, 66109.04, 0.00, 0.00, 0.00, 0.00, 106982.13, 17250.65, 0.000, 0.000, 0.000, 13:48:12.395, 1552240092395
131, 55731.50, 66126.02, 0.00, 0.00, 0.00, 0.00, 106991.60, 17251.21, 0.000, 0.000, 0.000, 13:48:12.395, 1552240092395
132, 55836.46, 66217.33, 0.00, 0.00, 0.00, 0.00, 107071.98, 17266.43, 0.000, 0.000, 0.000, 13:48:12.395, 1552240092395
133, 55861.61, 66240.42, 0.00, 0.00, 0.00, 0.00, 107089.46, 17270.16, 0.000, 0.000, 0.000, 13:48:12.395, 1552240092395
134, 55724.68, 66125.94, 0.00, 0.00, 0.00, 0.00, 107025.89, 17313.24, 0.000, 0.000, 0.000, 13:48:12.395, 1552240092395
135, 55721.98, 66120.95, 0.00, 0.00, 0.00, 0.00, 107021.76, 17311.11, 0.000, 0.000, 0.000, 13:48:12.395, 1552240092395
136, 55809.49, 66191.72, 0.00, 0.00, 0.00, 0.00, 107045.80, 17263.64, 0.206, 0.026, 0.996, 13:48:12.395, 1552240092395
137, 55876.18, 66250.91, 0.00, 0.00, 0.00, 0.00, 107120.71, 17320.88, 0.000, 0.000, 0.000, 13:48:12.396, 1552240092396
138, 55744.96, 66137.60, 0.00, 0.00, 0.00, 0.00, 107002.89, 17251.46, 0.000, 0.000, 0.000, 13:48:12.396, 1552240092396
139, 55695.54, 66092.34, 0.00, 0.00, 0.00, 0.00, 106981.86, 17278.10, 0.000, 0.000, 0.000, 13:48:12.396, 1552240092396
140, 55773.14, 66157.09, 0.00, 0.00, 0.00, 0.00, 106984.32, 17171.12, 0.000, 0.000, 0.000, 13:48:12.396, 1552240092396
141, 55861.88, 66236.94, 0.00, 0.00, 0.00, 0.00, 107076.16, 17247.34, 0.000, 0.000, 0.000, 13:48:12.396, 1552240092396
142, 55744.85, 66144.09, 0.00, 0.00, 0.00, 0.00, 107038.34, 17327.52, 0.000, 0.000, 0.000, 13:48:12.396, 1552240092396
143, 55686.35, 66088.18, 0.00, 0.00, 0.00, 0.00, 106966.39, 17240.75, 0.000, 0.000, 0.000, 13:48:12.396, 1552240092396
144, 55762.21, 66150.09, 0.00, 0.00, 0.00, 0.00, 107031.86, 17292.11, 0.000, 0.000, 0.000, 13:48:12.396, 1552240092396
145, 55847.26, 66232.64, 0.00, 0.00, 0.00, 0.00, 107114.36, 17333.62, 0.000, 0.000, 0.000, 13:48:12.396, 1552240092396
146, 55790.18, 66182.89, 0.00, 0.00, 0.00, 0.00, 107029.83, 17240.66, 0.208, 0.032, 0.998, 13:48:12.397, 1552240092397
147, 55689.95, 66089.45, 0.00, 0.00, 0.00, 0.00, 106882.75, 17036.90, 0.000, 0.000, 0.000, 13:48:12.397, 1552240092397
148, 55743.35, 66135.99, 0.00, 0.00, 0.00, 0.00, 106972.09, 17199.62, 0.000, 0.000, 0.000, 13:48:12.397, 1552240092397
149, 55858.17, 66233.91, 0.00, 0.00, 0.00, 0.00, 107086.38, 17280.47, 0.000, 0.000, 0.000, 13:48:12.397, 1552240092397
150, 55819.59, 66207.85, 0.00, 0.00, 0.00, 0.00, 107118.77, 17388.67, 0.000, 0.000, 0.000, 13:48:12.397, 1552240092397
151, 55705.26, 66108.08, 0.00, 0.00, 0.00, 0.00, 107000.66, 17287.35, 0.000, 0.000, 0.000, 13:48:12.397, 1552240092397
152, 55727.01, 66129.29, 0.00, 0.00, 0.00, 0.00, 107007.92, 17265.80, 0.000, 0.000, 0.000, 13:48:12.397, 1552240092397
153, 55835.24, 66220.37, 0.00, 0.00, 0.00, 0.00, 107087.61, 17304.29, 0.000, 0.000, 0.000, 13:48:12.401, 1552240092401
154, 55824.39, 66214.52, 0.00, 0.00, 0.00, 0.00, 107086.91, 17310.31, 0.000, 0.000, 0.000, 13:48:12.401, 1552240092401
155, 55689.21, 66098.71, 0.00, 0.00, 0.00, 0.00, 106983.05, 17254.72, 0.000, 0.000, 0.000, 13:48:12.401, 1552240092401
156, 55711.23, 66116.32, 0.00, 0.00, 0.00, 0.00, 107005.80, 17291.40, 0.202, 0.028, 0.998, 13:48:12.401, 1552240092401
157, 55847.57, 66228.82, 0.00, 0.00, 0.00, 0.00, 107090.65, 17324.93, 0.000, 0.000, 0.000, 13:48:12.402, 1552240092402
158, 55853.97, 66243.26, 0.00, 0.00, 0.00, 0.00, 107101.02, 17312.16, 0.000, 0.000, 0.000, 13:48:12.402, 1552240092402
159, 55716.66, 66127.14, 0.00, 0.00, 0.00, 0.00, 106982.51, 17215.94, 0.000, 0.000, 0.000, 13:48:12.402, 1552240092402
160, 55709.33, 66114.80, 0.00, 0.00, 0.00, 0.00, 106975.60, 17232.90, 0.000, 0.000, 0.000, 13:48:12.403, 1552240092403
161, 55830.43, 66214.38, 0.00, 0.00, 0.00, 0.00, 107028.13, 17203.56, 0.000, 0.000, 0.000, 13:48:12.403, 1552240092403
162, 55891.74, 66263.73, 0.00, 0.00, 0.00, 0.00, 107078.62, 17232.23, 0.000, 0.000, 0.000, 13:48:12.403, 1552240092403
163, 55760.45, 66159.02, 0.00, 0.00, 0.00, 0.00, 107036.76, 17300.27, 0.000, 0.000, 0.000, 13:48:12.404, 1552240092404
164, 55701.62, 66104.77, 0.00, 0.00, 0.00, 0.00, 106962.10, 17211.27, 0.000, 0.000, 0.000, 13:48:12.404, 1552240092404
165, 55808.79, 66191.36, 0.00, 0.00, 0.00, 0.00, 107040.89, 17263.99, 0.000, 0.000, 0.000, 13:48:12.405, 1552240092405
166, 55889.57, 66267.06, 0.00, 0.00, 0.00, 0.00, 107133.09, 17311.22, 0.204, 0.032, 0.994, 13:48:12.405, 1552240092405
167, 55743.66, 66153.88, 0.00, 0.00, 0.00, 0.00, 107028.48, 17281.41, 0.000, 0.000, 0.000, 13:48:12.405, 1552240092405
168, 55691.58, 66094.89, 0.00, 0.00, 0.00, 0.00, 106919.32, 17167.82, 0.000, 0.000, 0.000, 13:48:12.406, 1552240092406
169, 55782.98, 66166.99, 0.00, 0.00, 0.00, 0.00, 106985.70, 17206.62, 0.000, 0.000, 0.000, 13:48:12.406, 1552240092406
170, 55865.93, 66247.59, 0.00, 0.00, 0.00, 0.00, 107077.73, 17263.53, 0.000, 0.000, 0.000, 13:48:12.406, 1552240092406
171, 55799.07, 66196.25, 0.00, 0.00, 0.00, 0.00, 107071.83, 17329.37, 0.000, 0.000, 0.000, 13:48:12.406, 1552240092406
172, 55694.98, 66106.89, 0.00, 0.00, 0.00, 0.00, 106991.90, 17263.23, 0.000, 0.000, 0.000, 13:48:12.406, 1552240092406
173, 55729.25, 66133.98, 0.00, 0.00, 0.00, 0.00, 106966.23, 17165.38, 0.000, 0.000, 0.000, 13:48:12.406, 1552240092406
174, 55867.54, 66240.17, 0.00, 0.00, 0.00, 0.00, 107100.81, 17328.93, 0.000, 0.000, 0.000, 13:48:12.407, 1552240092407
175, 55836.93, 66221.76, 0.00, 0.00, 0.00, 0.00, 107084.88, 17323.52, 0.000, 0.000, 0.000, 13:48:12.407, 1552240092407
176, 55703.85, 66108.39, 0.00, 0.00, 0.00, 0.00, 106987.36, 17272.94, 0.206, 0.032, 1.002, 13:48:12.408, 1552240092408
177, 55704.86, 66114.40, 0.00, 0.00, 0.00, 0.00, 106996.97, 17266.01, 0.000, 0.000, 0.000, 13:48:12.408, 1552240092408
178, 55842.93, 66223.48, 0.00, 0.00, 0.00, 0.00, 107040.66, 17216.34, 0.000, 0.000, 0.000, 13:48:12.408, 1552240092408
179, 55812.50, 66210.70, 0.00, 0.00, 0.00, 0.00, 107079.18, 17279.69, 0.000, 0.000, 0.000, 13:48:12.408, 1552240092408
180, 55679.78, 66085.77, 0.00, 0.00, 0.00, 0.00, 106985.05, 17265.34, 0.000, 0.000, 0.000, 13:48:12.408, 1552240092408
181, 55742.66, 66130.16, 0.00, 0.00, 0.00, 0.00, 106980.41, 17239.99, 0.000, 0.000, 0.000, 13:48:12.408, 1552240092408
182, 55833.83, 66217.91, 0.00, 0.00, 0.00, 0.00, 107057.21, 17262.43, 0.000, 0.000, 0.000, 13:48:12.409, 1552240092409
183, 55862.98, 66247.55, 0.00, 0.00, 0.00, 0.00, 107092.30, 17283.04, 0.000, 0.000, 0.000, 13:48:12.409, 1552240092409
184, 55731.75, 66129.78, 0.00, 0.00, 0.00, 0.00, 106989.66, 17252.78, 0.000, 0.000, 0.000, 13:48:12.409, 1552240092409
185, 55725.49, 66116.32, 0.00, 0.00, 0.00, 0.00, 106985.73, 17260.08, 0.000, 0.000, 0.000, 13:48:12.409, 1552240092409
186, 55831.08, 66200.12, 0.00, 0.00, 0.00, 0.00, 107025.54, 17237.35, 0.206, 0.032, 0.996, 13:48:12.409, 1552240092409
187, 55890.00, 66252.63, 0.00, 0.00, 0.00, 0.00, 107100.34, 17304.61, 0.000, 0.000, 0.000, 13:48:12.409, 1552240092409
188, 55770.48, 66155.22, 0.00, 0.00, 0.00, 0.00, 106969.03, 17149.38, 0.000, 0.000, 0.000, 13:48:12.409, 1552240092409
189, 55715.88, 66109.40, 0.00, 0.00, 0.00, 0.00, 106980.07, 17254.07, 0.000, 0.000, 0.000, 13:48:12.409, 1552240092409
190, 55798.89, 66180.90, 0.00, 0.00, 0.00, 0.00, 107054.88, 17318.22, 0.000, 0.000, 0.000, 13:48:12.409, 1552240092409
191, 55892.19, 66262.95, 0.00, 0.00, 0.00, 0.00, 107099.63, 17296.67, 0.000, 0.000, 0.000, 13:48:12.410, 1552240092410
192, 55778.64, 66168.94, 0.00, 0.00, 0.00, 0.00, 106996.99, 17213.61, 0.000, 0.000, 0.000, 13:48:12.410, 1552240092410
193, 55678.73, 66087.58, 0.00, 0.00, 0.00, 0.00, 106946.45, 17223.83, 0.000, 0.000, 0.000, 13:48:12.410, 1552240092410
194, 55764.11, 66157.63, 0.00, 0.00, 0.00, 0.00, 107027.93, 17281.45, 0.000, 0.000, 0.000, 13:48:12.410, 1552240092410
195, 55884.88, 66257.12, 0.00, 0.00, 0.00, 0.00, 107112.15, 17321.57, 0.000, 0.000, 0.000, 13:48:12.410, 1552240092410
196, 55826.92, 66205.41, 0.00, 0.00, 0.00, 0.00, 107055.38, 17289.39, 0.206, 0.028, 0.998, 13:48:12.410, 1552240092410
197, 55689.01, 66095.52, 0.00, 0.00, 0.00, 0.00, 106974.33, 17250.54, 0.000, 0.000, 0.000, 13:48:12.410, 1552240092410
198, 55701.42, 66115.88, 0.00, 0.00, 0.00, 0.00, 106986.91, 17221.68, 0.000, 0.000, 0.000, 13:48:12.410, 1552240092410
199, 55869.70, 66246.55, 0.00, 0.00, 0.00, 0.00, 107111.74, 17327.88, 0.000, 0.000, 0.000, 13:48:12.410, 1552240092410
200, 55856.72, 66228.53, 0.00, 0.00, 0.00, 0.00, 107090.34, 17326.54, 0.000, 0.000, 0.000, 13:48:12.411, 1552240092411
201, 55692.77, 66096.27, 0.00, 0.00, 0.00, 0.00, 106948.65, 17185.81, 0.000, 0.000, 0.000, 13:48:12.411, 1552240092411
202, 55699.02, 66103.02, 0.00, 0.00, 0.00, 0.00, 106968.78, 17212.79, 0.000, 0.000, 0.000, 13:48:12.411, 1552240092411
203, 55804.05, 66202.76, 0.00, 0.00, 0.00, 0.00, 107085.13, 17328.99, 0.000, 0.000, 0.000, 13:48:12.411, 1552240092411
204, 55855.93, 66243.88, 0.00, 0.00, 0.00, 0.00, 107101.40, 17321.69, 0.000, 0.000, 0.000, 13:48:12.411, 1552240092411
205, 55745.20, 66131.50, 0.00, 0.00, 0.00, 0.00, 106946.27, 17169.27, 0.000, 0.000, 0.000, 13:48:12.411, 1552240092411
206, 55743.59, 66131.08, 0.00, 0.00, 0.00, 0.00, 106976.20, 17241.44, 0.202, 0.024, 0.996, 13:48:12.411, 1552240092411
207, 55834.05, 66214.67, 0.00, 0.00, 0.00, 0.00, 107081.15, 17324.12, 0.000, 0.000, 0.000, 13:48:12.411, 1552240092411
208, 55832.96, 66228.02, 0.00, 0.00, 0.00, 0.00, 107110.85, 17334.16, 0.000, 0.000, 0.000, 13:48:12.411, 1552240092411
209, 55724.75, 66118.83, 0.00, 0.00, 0.00, 0.00, 106989.73, 17251.10, 0.000, 0.000, 0.000, 13:48:12.412, 1552240092412
210, 55732.31, 66119.52, 0.00, 0.00, 0.00, 0.00, 106977.14, 17248.44, 0.000, 0.000, 0.000, 13:48:12.412, 1552240092412
211, 55799.88, 66186.77, 0.00, 0.00, 0.00, 0.00, 107047.33, 17285.41, 0.000, 0.000, 0.000, 13:48:12.412, 1552240092412
212, 55882.13, 66258.99, 0.00, 0.00, 0.00, 0.00, 107109.00, 17315.16, 0.000, 0.000, 0.000, 13:48:12.412, 1552240092412
213, 55763.78, 66156.49, 0.00, 0.00, 0.00, 0.00, 107002.45, 17247.66, 0.000, 0.000, 0.000, 13:48:12.412, 1552240092412
214, 55716.15, 66108.86, 0.00, 0.00, 0.00, 0.00, 106962.57, 17232.61, 0.000, 0.000, 0.000, 13:48:12.413, 1552240092413
215, 55790.38, 66179.49, 0.00, 0.00, 0.00, 0.00, 107026.81, 17263.53, 0.000, 0.000, 0.000, 13:48:12.413, 1552240092413
216, 55900.28, 66265.01, 0.00, 0.00, 0.00, 0.00, 107070.69, 17245.62, 0.210, 0.024, 0.994, 13:48:12.413, 1552240092413
217, 55788.16, 66173.52, 0.00, 0.00, 0.00, 0.00, 106987.31, 17214.60, 0.000, 0.000, 0.000, 13:48:12.413, 1552240092413
218, 55703.03, 66101.62, 0.00, 0.00, 0.00, 0.00, 106941.91, 17193.72, 0.000, 0.000, 0.000, 13:48:12.413, 1552240092413
219, 55758.57, 66146.55, 0.00, 0.00, 0.00, 0.00, 106961.92, 17146.00, 0.000, 0.000, 0.000, 13:48:12.413, 1552240092413
220, 55876.21, 66255.11, 0.00, 0.00, 0.00, 0.00, 107140.52, 17394.24, 0.000, 0.000, 0.000, 13:48:12.414, 1552240092414
221, 55827.64, 66206.36, 0.00, 0.00, 0.00, 0.00, 107062.59, 17303.96, 0.000, 0.000, 0.000, 13:48:12.414, 1552240092414
222, 55721.73, 66112.28, 0.00, 0.00, 0.00, 0.00, 106973.99, 17246.90, 0.000, 0.000, 0.000, 13:48:12.414, 1552240092414
223, 55766.06, 66152.53, 0.00, 0.00, 0.00, 0.00, 107023.63, 17296.94, 0.000, 0.000, 0.000, 13:48:12.414, 1552240092414
224, 55875.92, 66249.23, 0.00, 0.00, 0.00, 0.00, 107105.38, 17330.02, 0.000, 0.000, 0.000, 13:48:12.414, 1552240092414
225, 55841.90, 66224.02, 0.00, 0.00, 0.00, 0.00, 107070.64, 17291.89, 0.000, 0.000, 0.000, 13:48:12.414, 1552240092414
226, 55710.78, 66112.34, 0.00, 0.00, 0.00, 0.00, 106978.87, 17253.13, 0.202, 0.024, 0.996, 13:48:12.414, 1552240092414
227, 55751.08, 66143.59, 0.00, 0.00, 0.00, 0.00, 106998.24, 17266.52, 0.000, 0.000, 0.000, 13:48:12.414, 1552240092414
228, 55863.71, 66240.47, 0.00, 0.00, 0.00, 0.00, 107081.37, 17299.29, 0.000, 0.000, 0.000, 13:48:12.414, 1552240092414
229, 55870.89, 66247.28, 0.00, 0.00, 0.00, 0.00, 107089.84, 17303.87, 0.000, 0.000, 0.000, 13:48:12.414, 1552240092414
230, 55726.50, 66122.56, 0.00, 0.00, 0.00, 0.00, 106977.52, 17246.14, 0.000, 0.000, 0.000, 13:48:12.414, 1552240092414
231, 55725.16, 66117.87, 0.00, 0.00, 0.00, 0.00, 106976.80, 17246.61, 0.000, 0.000, 0.000, 13:48:12.414, 1552240092414
232, 55827.75, 66206.67, 0.00, 0.00, 0.00, 0.00, 107064.38, 17301.79, 0.000, 0.000, 0.000, 13:48:12.414, 1552240092414
233, 55882.85, 66255.20, 0.00, 0.00, 0.00, 0.00, 107117.34, 17341.69, 0.000, 0.000, 0.000, 13:48:12.414, 1552240092414
234, 55751.24, 66141.56, 0.00, 0.00, 0.00, 0.00, 106999.70, 17263.75, 0.000, 0.000, 0.000, 13:48:12.414, 1552240092414
235, 55715.95, 66110.84, 0.00, 0.00, 0.00, 0.00, 106972.56, 17246.14, 0.206, 0.026, 0.996, 13:48:12.414, 1552240092414
236, 55810.45, 66192.43, 0.00, 0.00, 0.00, 0.00, 107036.87, 17269.85, 0.000, 0.000, 0.000, 13:48:12.414, 1552240092414
237, 55892.39, 66261.68, 0.00, 0.00, 0.00, 0.00, 107120.38, 17335.63, 0.000, 0.000, 0.000, 13:48:12.414, 1552240092414
238, 55763.91, 66154.84, 0.00, 0.00, 0.00, 0.00, 107017.91, 17272.38, 0.000, 0.000, 0.000, 13:48:12.414, 1552240092414
239, 55707.50, 66102.45, 0.00, 0.00, 0.00, 0.00, 106970.08, 17249.82, 0.000, 0.000, 0.000, 13:48:12.415, 1552240092415
240, 55792.61, 66174.08, 0.00, 0.00, 0.00, 0.00, 107031.30, 17276.51, 0.000, 0.000, 0.000, 13:48:12.415, 1552240092415
241, 55897.35, 66264.56, 0.00, 0.00, 0.00, 0.00, 107117.40, 17324.46, 0.000, 0.000, 0.000, 13:48:12.876, 1552240092876
242, 55807.63, 66191.07, 0.00, 0.00, 0.00, 0.00, 107045.65, 17282.50, 0.000, 0.000, 0.000, 13:48:12.876, 1552240092876
243, 55707.88, 66107.98, 0.00, 0.00, 0.00, 0.00, 106981.16, 17262.10, 0.000, 0.000, 0.000, 13:48:12.876, 1552240092876
244, 55787.52, 66169.45, 0.00, 0.00, 0.00, 0.00, 107022.79, 17272.22, 0.000, 0.000, 0.000, 13:48:12.877, 1552240092877
245, 55912.42, 66274.24, 0.00, 0.00, 0.00, 0.00, 107126.05, 17339.03, 0.202, 0.024, 1.002, 13:48:12.877, 1552240092877
246, 55851.13, 66225.34, 0.00, 0.00, 0.00, 0.00, 107083.76, 17322.54, 0.000, 0.000, 0.000, 13:48:12.877, 1552240092877
247, 55728.84, 66120.81, 0.00, 0.00, 0.00, 0.00, 106988.45, 17266.52, 0.000, 0.000, 0.000, 13:48:12.877, 1552240092877
248, 55771.69, 66152.35, 0.00, 0.00, 0.00, 0.00, 107004.19, 17254.41, 0.000, 0.000, 0.000, 13:48:12.877, 1552240092877
249, 55888.77, 66248.91, 0.00, 0.00, 0.00, 0.00, 107098.65, 17320.16, 0.000, 0.000, 0.000, 13:48:12.877, 1552240092877
250, 55854.62, 66225.40, 0.00, 0.00, 0.00, 0.00, 107091.63, 17328.79, 0.000, 0.000, 0.000, 13:48:12.877, 1552240092877
251, 55721.33, 66110.84, 0.00, 0.00, 0.00, 0.00, 106971.84, 17248.44, 0.000, 0.000, 0.000, 13:48:12.878, 1552240092878
252, 55749.07, 66132.23, 0.00, 0.00, 0.00, 0.00, 106985.86, 17254.00, 0.000, 0.000, 0.000, 13:48:12.878, 1552240092878
253, 55865.05, 66233.83, 0.00, 0.00, 0.00, 0.00, 107076.95, 17296.34, 0.000, 0.000, 0.000, 13:48:12.878, 1552240092878
254, 55883.74, 66253.88, 0.00, 0.00, 0.00, 0.00, 107104.91, 17321.53, 0.000, 0.000, 0.000, 13:48:12.878, 1552240092878
255, 55743.68, 66135.32, 0.00, 0.00, 0.00, 0.00, 106988.95, 17251.54, 0.208, 0.028, 1.000, 13:48:12.878, 1552240092878
0, 55756.52, 66141.23, 0.00, 0.00, 0.00, 0.00, 106992.79, 17265.25, 0.000, 0.000, 0.000, 13:48:12.878, 1552240092878
1, 55856.09, 66227.05, 0.00, 0.00, 0.00, 0.00, 107072.90, 17307.78, 0.000, 0.000, 0.000, 13:48:12.878, 1552240092878
2, 55909.87, 66273.88, 0.00, 0.00, 0.00, 0.00, 107120.80, 17340.84, 0.000, 0.000, 0.000, 13:48:12.878, 1552240092878
3, 55769.70, 66155.66, 0.00, 0.00, 0.00, 0.00, 107011.30, 17282.39, 0.000, 0.000, 0.000, 13:48:12.878, 1552240092878
4, 55734.54, 66120.99, 0.00, 0.00, 0.00, 0.00, 106982.60, 17264.55, 0.000, 0.000, 0.000, 13:48:12.878, 1552240092878
5, 55819.46, 66196.43, 0.00, 0.00, 0.00, 0.00, 107050.62, 17290.59, 0.000, 0.000, 0.000, 13:48:12.879, 1552240092879
6, 55892.68, 66262.17, 0.00, 0.00, 0.00, 0.00, 107122.14, 17338.11, 0.000, 0.000, 0.000, 13:48:12.879, 1552240092879
7, 55803.52, 66179.31, 0.00, 0.00, 0.00, 0.00, 107035.98, 17294.84, 0.000, 0.000, 0.000, 13:48:12.879, 1552240092879
8, 55735.68, 66117.33, 0.00, 0.00, 0.00, 0.00, 106978.95, 17261.04, 0.000, 0.000, 0.000, 13:48:12.879, 1552240092879
9, 55805.80, 66176.98, 0.00, 0.00, 0.00, 0.00, 107035.10, 17290.53, 0.208, 0.026, 0.998, 13:48:12.879, 1552240092879
10, 55905.29, 66261.84, 0.00, 0.00, 0.00, 0.00, 107125.56, 17347.77, 0.000, 0.000, 0.000, 13:48:12.879, 1552240092879
11, 55818.76, 66190.51, 0.00, 0.00, 0.00, 0.00, 107057.23, 17310.71, 0.000, 0.000, 0.000, 13:48:12.879, 1552240092879
12, 55722.90, 66107.80, 0.00, 0.00, 0.00, 0.00, 106979.09, 17264.40, 0.000, 0.000, 0.000, 13:48:12.879, 1552240092879
13, 55772.65, 66150.37, 0.00, 0.00, 0.00, 0.00, 107014.25, 17275.82, 0.000, 0.000, 0.000, 13:48:12.879, 1552240092879
14, 55891.00, 66251.22, 0.00, 0.00, 0.00, 0.00, 107109.09, 17331.36, 0.000, 0.000, 0.000, 13:48:12.879, 1552240092879
15, 55828.20, 66203.25, 0.00, 0.00, 0.00, 0.00, 107072.25, 17315.02, 0.000, 0.000, 0.000, 13:48:12.880, 1552240092880
16, 55718.80, 66106.20, 0.00, 0.00, 0.00, 0.00, 106977.52, 17258.97, 0.000, 0.000, 0.000, 13:48:12.881, 1552240092881
17, 55772.83, 66144.82, 0.00, 0.00, 0.00, 0.00, 107002.22, 17266.63, 0.000, 0.000, 0.000, 13:48:12.881, 1552240092881
18, 55879.76, 66240.58, 0.00, 0.00, 0.00, 0.00, 107099.92, 17328.44, 0.000, 0.000, 0.000, 13:48:12.881, 1552240092881
19, 55868.16, 66230.59, 0.00, 0.00, 0.00, 0.00, 107097.33, 17334.20, 0.204, 0.028, 0.994, 13:48:12.881, 1552240092881
20, 55736.22, 66113.46, 0.00, 0.00, 0.00, 0.00, 106981.37, 17259.99, 0.000, 0.000, 0.000, 13:48:12.881, 1552240092881
21, 55748.69, 66122.07, 0.00, 0.00, 0.00, 0.00, 106990.29, 17265.13, 0.000, 0.000, 0.000, 13:48:12.881, 1552240092881
22, 55853.97, 66214.60, 0.00, 0.00, 0.00, 0.00, 107075.31, 17304.63, 0.000, 0.000, 0.000, 13:48:12.881, 1552240092881
23, 55874.98, 66238.30, 0.00, 0.00, 0.00, 0.00, 107107.74, 17331.61, 0.000, 0.000, 0.000, 13:48:12.881, 1552240092881
24, 55747.66, 66129.87, 0.00, 0.00, 0.00, 0.00, 107000.97, 17273.65, 0.000, 0.000, 0.000, 13:48:12.882, 1552240092882
25, 55746.23, 66125.33, 0.00, 0.00, 0.00, 0.00, 106993.05, 17269.20, 0.000, 0.000, 0.000, 13:48:12.882, 1552240092882
26, 55845.45, 66213.55, 0.00, 0.00, 0.00, 0.00, 107067.63, 17304.09, 0.000, 0.000, 0.000, 13:48:12.882, 1552240092882
27, 55906.74, 66266.95, 0.00, 0.00, 0.00, 0.00, 107122.84, 17343.14, 0.000, 0.000, 0.000, 13:48:12.882, 1552240092882
28, 55770.15, 66152.73, 0.00, 0.00, 0.00, 0.00, 107011.74, 17276.62, 0.000, 0.000, 0.000, 13:48:12.882, 1552240092882
29, 55738.52, 66118.02, 0.00, 0.00, 0.00, 0.00, 106978.64, 17258.36, 0.200, 0.028, 0.994, 13:48:12.882, 1552240092882
30, 55826.25, 66190.24, 0.00, 0.00, 0.00, 0.00, 107041.74, 17286.15, 0.000, 0.000, 0.000, 13:48:12.882, 1552240092882
31, 55915.23, 66268.20, 0.00, 0.00, 0.00, 0.00, 107130.79, 17355.86, 0.000, 0.000, 0.000, 13:48:12.882, 1552240092882
32, 55800.93, 66175.16, 0.00, 0.00, 0.00, 0.00, 107040.73, 17300.58, 0.000, 0.000, 0.000, 13:48:12.882, 1552240092882
33, 55735.14, 66115.83, 0.00, 0.00, 0.00, 0.00, 106983.85, 17265.92, 0.000, 0.000, 0.000, 13:48:12.882, 1552240092882
34, 55800.79, 66173.70, 0.00, 0.00, 0.00, 0.00, 107036.33, 17292.16, 0.000, 0.000, 0.000, 13:48:12.883, 1552240092883
35, 55907.39, 66265.12, 0.00, 0.00, 0.00, 0.00, 107124.35, 17345.20, 0.000, 0.000, 0.000, 13:48:12.883, 1552240092883
36, 55828.80, 66199.83, 0.00, 0.00, 0.00, 0.00, 107060.45, 17311.96, 0.000, 0.000, 0.000, 13:48:12.883, 1552240092883
37, 55726.41, 66109.26, 0.00, 0.00, 0.00, 0.00, 106976.92, 17261.87, 0.000, 0.000, 0.000, 13:48:12.883, 1552240092883
38, 55795.70, 66163.44, 0.00, 0.00, 0.00, 0.00, 107016.26, 17274.39, 0.000, 0.000, 0.000, 13:48:12.883, 1552240092883
39, 55904.35, 66258.59, 0.00, 0.00, 0.00, 0.00, 107119.21, 17338.72, 0.204, 0.024, 0.996, 13:48:12.883, 1552240092883
40, 55852.61, 66217.38, 0.00, 0.00, 0.00, 0.00, 107083.29, 17319.25, 0.000, 0.000, 0.000, 13:48:12.883, 1552240092883
41, 55728.46, 66112.57, 0.00, 0.00, 0.00, 0.00, 106985.05, 17266.59, 0.000, 0.000, 0.000, 13:48:12.883, 1552240092883
42, 55777.08, 66148.66, 0.00, 0.00, 0.00, 0.00, 107011.72, 17282.17, 0.000, 0.000, 0.000, 13:48:12.883, 1552240092883
43, 55884.19, 66243.57, 0.00, 0.00, 0.00, 0.00, 107102.98, 17332.37, 0.000, 0.000, 0.000, 13:48:12.883, 1552240092883
44, 55877.19, 66240.91, 0.00, 0.00, 0.00, 0.00, 107097.77, 17328.97, 0.000, 0.000, 0.000, 13:48:12.884, 1552240092884
45, 55729.85, 66117.44, 0.00, 0.00, 0.00, 0.00, 106979.49, 17256.06, 0.000, 0.000, 0.000, 13:48:12.884, 1552240092884
46, 55753.88, 66130.85, 0.00, 0.00, 0.00, 0.00, 106991.38, 17268.44, 0.000, 0.000, 0.000, 13:48:12.884, 1552240092884
47, 55875.83, 66233.16, 0.00, 0.00, 0.00, 0.00, 107083.54, 17320.50, 0.000, 0.000, 0.000, 13:48:12.884, 1552240092884
48, 55912.95, 66266.39, 0.00, 0.00, 0.00, 0.00, 107121.55, 17352.08, 0.000, 0.000, 0.000, 13:48:12.884, 1552240092884
49, 55768.70, 66145.25, 0.00, 0.00, 0.00, 0.00, 107004.48, 17279.82, 0.204, 0.022, 0.998, 13:48:12.884, 1552240092884
50, 55744.38, 66123.05, 0.00, 0.00, 0.00, 0.00, 106988.77, 17269.54, 0.000, 0.000, 0.000, 13:48:12.885, 1552240092885
51, 55848.34, 66210.02, 0.00, 0.00, 0.00, 0.00, 107063.96, 17304.92, 0.000, 0.000, 0.000, 13:48:12.885, 1552240092885
52, 55918.12, 66268.65, 0.00, 0.00, 0.00, 0.00, 107126.32, 17349.27, 0.000, 0.000, 0.000, 13:48:12.885, 1552240092885
53, 55782.53, 66154.70, 0.00, 0.00, 0.00, 0.00, 107016.08, 17280.29, 0.000, 0.000, 0.000, 13:48:12.885, 1552240092885
54, 55728.69, 66106.35, 0.00, 0.00, 0.00, 0.00, 106980.20, 17265.34, 0.000, 0.000, 0.000, 13:48:12.886, 1552240092886
55, 55808.26, 66180.98, 0.00, 0.00, 0.00, 0.00, 107049.90, 17301.03, 0.000, 0.000, 0.000, 13:48:12.886, 1552240092886
56, 55909.67, 66265.97, 0.00, 0.00, 0.00, 0.00, 107129.85, 17347.03, 0.000, 0.000, 0.000, 13:48:12.886, 1552240092886
57, 55814.88, 66181.37, 0.00, 0.00, 0.00, 0.00, 107045.72, 17304.29, 0.000, 0.000, 0.000, 13:48:12.886, 1552240092886
58, 55740.20, 66113.71, 0.00, 0.00, 0.00, 0.00, 106981.34, 17265.47, 0.000, 0.000, 0.000, 13:48:12.886, 1552240092886
59, 55811.25, 66176.67, 0.00, 0.00, 0.00, 0.00, 107036.42, 17291.17, 0.200, 0.032, 0.998, 13:48:12.886, 1552240092886
60, 55918.86, 66271.47, 0.00, 0.00, 0.00, 0.00, 107132.60, 17352.73, 0.000, 0.000, 0.000, 13:48:12.886, 1552240092886
61, 55836.69, 66203.88, 0.00, 0.00, 0.00, 0.00, 107067.34, 17312.79, 0.000, 0.000, 0.000, 13:48:12.887, 1552240092887
62, 55728.44, 66106.69, 0.00, 0.00, 0.00, 0.00, 106975.42, 17257.42, 0.000, 0.000, 0.000, 13:48:12.887, 1552240092887
63, 55770.91, 66143.41, 0.00, 0.00, 0.00, 0.00, 107007.66, 17275.06, 0.000, 0.000, 0.000, 13:48:12.887, 1552240092887
64, 55904.15, 66253.77, 0.00, 0.00, 0.00, 0.00, 107109.94, 17339.88, 0.000, 0.000, 0.000, 13:48:12.887, 1552240092887
65, 55859.82, 66219.74, 0.00, 0.00, 0.00, 0.00, 107082.09, 17324.30, 0.000, 0.000, 0.000, 13:48:12.887, 1552240092887
66, 55727.59, 66107.27, 0.00, 0.00, 0.00, 0.00, 106975.38, 17259.10, 0.000, 0.000, 0.000, 13:48:12.887, 1552240092887
67, 55757.95, 66130.90, 0.00, 0.00, 0.00, 0.00, 106997.82, 17269.87, 0.000, 0.000, 0.000, 13:48:12.888, 1552240092888
68, 55883.32, 66234.32, 0.00, 0.00, 0.00, 0.00, 107091.70, 17324.79, 0.000, 0.000, 0.000, 13:48:12.888, 1552240092888
69, 55881.55, 66234.99, 0.00, 0.00, 0.00, 0.00, 107101.46, 17345.91, 0.204, 0.030, 0.998, 13:48:12.888, 1552240092888
70, 55737.18, 66111.12, 0.00, 0.00, 0.00, 0.00, 106978.89, 17266.74, 0.000, 0.000, 0.000, 13:48:12.888, 1552240092888
71, 55737.18, 66109.88, 0.00, 0.00, 0.00, 0.00, 106978.20, 17261.58, 0.000, 0.000, 0.000, 13:48:12.888, 1552240092888
72, 55846.30, 66204.37, 0.00, 0.00, 0.00, 0.00, 107063.49, 17303.56, 0.000, 0.000, 0.000, 13:48:12.888, 1552240092888
73, 55897.66, 66243.62, 0.00, 0.00, 0.00, 0.00, 107103.86, 17335.50, 0.000, 0.000, 0.000, 13:48:12.888, 1552240092888
74, 55748.80, 66121.45, 0.00, 0.00, 0.00, 0.00, 106990.04, 17274.59, 0.000, 0.000, 0.000, 13:48:12.888, 1552240092888
75, 55723.48, 66096.99, 0.00, 0.00, 0.00, 0.00, 106966.48, 17254.45, 0.000, 0.000, 0.000, 13:48:12.888, 1552240092888
76, 55829.70, 66187.52, 0.00, 0.00, 0.00, 0.00, 107047.93, 17295.42, 0.000, 0.000, 0.000, 13:48:12.888, 1552240092888
77, 55897.73, 66246.73, 0.00, 0.00, 0.00, 0.00, 107112.15, 17338.65, 0.000, 0.000, 0.000, 13:48:12.890, 1552240092890
78, 55764.11, 66134.48, 0.00, 0.00, 0.00, 0.00, 106996.14, 17260.93, 0.000, 0.000, 0.000, 13:48:12.890, 1552240092890
79, 55708.59, 66086.40, 0.00, 0.00, 0.00, 0.00, 106955.84, 17242.76, 0.206, 0.024, 0.994, 13:48:12.890, 1552240092890
80, 55781.13, 66152.29, 0.00, 0.00, 0.00, 0.00, 107022.36, 17281.03, 0.000, 0.000, 0.000, 13:48:12.890, 1552240092890
81, 55889.29, 66240.63, 0.00, 0.00, 0.00, 0.00, 107103.79, 17333.13, 0.000, 0.000, 0.000, 13:48:12.891, 1552240092891
82, 55799.23, 66161.48, 0.00, 0.00, 0.00, 0.00, 107026.74, 17297.77, 0.000, 0.000, 0.000, 13:48:12.891, 1552240092891
83, 55717.29, 66089.01, 0.00, 0.00, 0.00, 0.00, 106964.76, 17262.34, 0.000, 0.000, 0.000, 13:48:12.891, 1552240092891
84, 55785.35, 66145.67, 0.00, 0.00, 0.00, 0.00, 107011.90, 17278.81, 0.000, 0.000, 0.000, 13:48:12.891, 1552240092891
85, 55892.95, 66238.21, 0.00, 0.00, 0.00, 0.00, 107105.95, 17336.06, 0.000, 0.000, 0.000, 13:48:12.891, 1552240092891
86, 55818.41, 66175.89, 0.00, 0.00, 0.00, 0.00, 107051.53, 17305.23, 0.000, 0.000, 0.000, 13:48:12.891, 1552240092891
87, 55717.55, 66085.41, 0.00, 0.00, 0.00, 0.00, 106967.53, 17260.13, 0.000, 0.000, 0.000, 13:48:12.891, 1552240092891
88, 55768.79, 66128.98, 0.00, 0.00, 0.00, 0.00, 107003.20, 17277.76, 0.204, 0.024, 0.994, 13:48:12.891, 1552240092891
89, 55881.32, 66222.88, 0.00, 0.00, 0.00, 0.00, 107095.18, 17330.60, 0.000, 0.000, 0.000, 13:48:12.891, 1552240092891
90, 55841.83, 66189.77, 0.00, 0.00, 0.00, 0.00, 107065.59, 17316.41, 0.000, 0.000, 0.000, 13:48:12.892, 1552240092892
91, 55702.24, 66076.00, 0.00, 0.00, 0.00, 0.00, 106951.17, 17240.08, 0.000, 0.000, 0.000, 13:48:12.892, 1552240092892
92, 55736.51, 66105.15, 0.00, 0.00, 0.00, 0.00, 106972.54, 17251.75, 0.000, 0.000, 0.000, 13:48:12.892, 1552240092892
93, 55873.12, 66216.08, 0.00, 0.00, 0.00, 0.00, 107081.08, 17327.70, 0.000, 0.000, 0.000, 13:48:12.892, 1552240092892
94, 55876.41, 66222.27, 0.00, 0.00, 0.00, 0.00, 107095.67, 17344.42, 0.000, 0.000, 0.000, 13:48:12.892, 1552240092892
95, 55740.49, 66106.55, 0.00, 0.00, 0.00, 0.00, 106977.66, 17268.82, 0.000, 0.000, 0.000, 13:48:12.892, 1552240092892
96, 55743.21, 66107.20, 0.00, 0.00, 0.00, 0.00, 106977.70, 17266.97, 0.000, 0.000, 0.000, 13:48:12.892, 1552240092892
97, 55851.66, 66199.88, 0.00, 0.00, 0.00, 0.00, 107060.88, 17309.46, 0.000, 0.000, 0.000, 13:48:12.892, 1552240092892
98, 55880.28, 66228.40, 0.00, 0.00, 0.00, 0.00, 107101.89, 17342.14, 0.204, 0.024, 1.004, 13:48:12.892, 1552240092892
99, 55754.84, 66114.65, 0.00, 0.00, 0.00, 0.00, 106986.46, 17273.56, 0.000, 0.000, 0.000, 13:48:12.893, 1552240092893
100, 55728.51, 66087.47, 0.00, 0.00, 0.00, 0.00, 106963.33, 17262.23, 0.000, 0.000, 0.000, 13:48:12.893, 1552240092893
101, 55817.02, 66163.24, 0.00, 0.00, 0.00, 0.00, 107028.40, 17286.46, 0.000, 0.000, 0.000, 13:48:12.893, 1552240092893
102, 55885.53, 66225.60, 0.00, 0.00, 0.00, 0.00, 107102.25, 17343.48, 0.000, 0.000, 0.000, 13:48:12.893, 1552240092893
103, 55771.78, 66127.95, 0.00, 0.00, 0.00, 0.00, 107010.88, 17295.22, 0.000, 0.000, 0.000, 13:48:12.893, 1552240092893
104, 55716.50, 66077.39, 0.00, 0.00, 0.00, 0.00, 106964.27, 17267.84, 0.000, 0.000, 0.000, 13:48:12.893, 1552240092893
105, 55801.71, 66150.79, 0.00, 0.00, 0.00, 0.00, 107026.74, 17297.70, 0.000, 0.000, 0.000, 13:48:13.354, 1552240093354
106, 55901.06, 66237.63, 0.00, 0.00, 0.00, 0.00, 107112.41, 17352.08, 0.000, 0.000, 0.000, 13:48:13.355, 1552240093355
107, 55799.14, 66151.95, 0.00, 0.00, 0.00, 0.00, 107026.88, 17298.53, 0.000, 0.000, 0.000, 13:48:13.355, 1552240093355
108, 55717.96, 66077.52, 0.00, 0.00, 0.00, 0.00, 106957.99, 17261.04, 0.206, 0.026, 1.002, 13:48:13.355, 1552240093355
109, 55783.49, 66131.68, 0.00, 0.00, 0.00, 0.00, 106999.43, 17275.53, 0.000, 0.000, 0.000, 13:48:13.355, 1552240093355
110, 55885.62, 66220.77, 0.00, 0.00, 0.00, 0.00, 107094.24, 17334.94, 0.000, 0.000, 0.000, 13:48:13.355, 1552240093355
111, 55816.24, 66163.40, 0.00, 0.00, 0.00, 0.00, 107044.55, 17310.82, 0.000, 0.000, 0.000, 13:48:13.355, 1552240093355
112, 55712.75, 66070.73, 0.00, 0.00, 0.00, 0.00, 106952.38, 17249.89, 0.000, 0.000, 0.000, 13:48:13.355, 1552240093355
113, 55769.46, 66115.97, 0.00, 0.00, 0.00, 0.00, 106994.94, 17275.62, 0.000, 0.000, 0.000, 13:48:13.356, 1552240093356
114, 55881.77, 66215.34, 0.00, 0.00, 0.00, 0.00, 107100.08, 17341.24, 0.000, 0.000, 0.000, 13:48:13.356, 1552240093356
115, 55852.45, 66192.66, 0.00, 0.00, 0.00, 0.00, 107081.48, 17331.50, 0.000, 0.000, 0.000, 13:48:13.356, 1552240093356
116, 55729.94, 66086.06, 0.00, 0.00, 0.00, 0.00, 106971.78, 17263.48, 0.000, 0.000, 0.000, 13:48:13.356, 1552240093356
117, 55761.01, 66108.14, 0.00, 0.00, 0.00, 0.00, 106985.15, 17270.14, 0.000, 0.000, 0.000, 13:48:13.356, 1552240093356
118, 55876.36, 66207.90, 0.00, 0.00, 0.00, 0.00, 107072.36, 17317.82, 0.204, 0.022, 0.994, 13:48:13.356, 1552240093356
119, 55884.34, 66218.23, 0.00, 0.00, 0.00, 0.00, 107084.92, 17327.81, 0.000, 0.000, 0.000, 13:48:13.356, 1552240093356
120, 55755.66, 66106.80, 0.00, 0.00, 0.00, 0.00, 106976.59, 17265.02, 0.000, 0.000, 0.000, 13:48:13.356, 1552240093356
121, 55753.83, 66103.07, 0.00, 0.00, 0.00, 0.00, 106976.97, 17265.83, 0.000, 0.000, 0.000, 13:48:13.356, 1552240093356
122, 55856.52, 66191.16, 0.00, 0.00, 0.00, 0.00, 107056.16, 17298.57, 0.000, 0.000, 0.000, 13:48:13.357, 1552240093357
123, 55893.73, 66227.84, 0.00, 0.00, 0.00, 0.00, 107112.53, 17347.10, 0.000, 0.000, 0.000, 13:48:13.357, 1552240093357
124, 55749.72, 66105.20, 0.00, 0.00, 0.00, 0.00, 107003.02, 17282.05, 0.000, 0.000, 0.000, 13:48:13.357, 1552240093357
125, 55738.92, 66084.96, 0.00, 0.00, 0.00, 0.00, 106981.95, 17272.42, 0.000, 0.000, 0.000, 13:48:13.357, 1552240093357
126, 55826.00, 66160.36, 0.00, 0.00, 0.00, 0.00, 107049.38, 17305.32, 0.000, 0.000, 0.000, 13:48:13.357, 1552240093357
127, 55910.63, 66233.31, 0.00, 0.00, 0.00, 0.00, 107120.20, 17351.53, 0.000, 0.000, 0.000, 13:48:13.357, 1552240093357
128, 55787.29, 66130.45, 0.00, 0.00, 0.00, 0.00, 107014.85, 17282.21, 0.200, 0.022, 0.992, 13:48:13.357, 1552240093357
129, 55725.45, 66075.80, 0.00, 0.00, 0.00, 0.00, 106965.14, 17255.75, 0.000, 0.000, 0.000, 13:48:13.357, 1552240093357
130, 55816.33, 66150.05, 0.00, 0.00, 0.00, 0.00, 107021.34, 17280.04, 0.000, 0.000, 0.000, 13:48:13.357, 1552240093357
131, 55917.78, 66235.59, 0.00, 0.00, 0.00, 0.00, 107104.59, 17329.53, 0.000, 0.000, 0.000, 13:48:13.358, 1552240093358
132, 55806.89, 66146.27, 0.00, 0.00, 0.00, 0.00, 107018.63, 17274.77, 0.000, 0.000, 0.000, 13:48:13.358, 1552240093358
133, 55699.67, 66056.20, 0.00, 0.00, 0.00, 0.00, 106936.64, 17222.42, 0.000, 0.000, 0.000, 13:48:13.358, 1552240093358
134, 55804.01, 66134.14, 0.00, 0.00, 0.00, 0.00, 107001.44, 17264.29, 0.000, 0.000, 0.000, 13:48:13.358, 1552240093358
135, 55914.47, 66228.53, 0.00, 0.00, 0.00, 0.00, 107103.34, 17323.41, 0.000, 0.000, 0.000, 13:48:13.359, 1552240093359
136, 55841.43, 66166.93, 0.00, 0.00, 0.00, 0.00, 107057.32, 17303.96, 0.000, 0.000, 0.000, 13:48:13.359, 1552240093359
137, 55739.23, 66076.56, 0.00, 0.00, 0.00, 0.00, 106969.41, 17259.10, 0.000, 0.000, 0.000, 13:48:13.360, 1552240093360
138, 55789.75, 66119.20, 0.00, 0.00, 0.00, 0.00, 106995.59, 17264.42, 0.202, 0.024, 0.992, 13:48:13.360, 1552240093360
139, 55896.66, 66212.97, 0.00, 0.00, 0.00, 0.00, 107085.59, 17314.91, 0.000, 0.000, 0.000, 13:48:13.360, 1552240093360
140, 55870.57, 66195.09, 0.00, 0.00, 0.00, 0.00, 107072.32, 17312.03, 0.000, 0.000, 0.000, 13:48:13.360, 1552240093360
141, 55744.82, 66083.87, 0.00, 0.00, 0.00, 0.00, 106957.52, 17238.09, 0.000, 0.000, 0.000, 13:48:13.360, 1552240093360
142, 55758.01, 66092.85, 0.00, 0.00, 0.00, 0.00, 106960.98, 17233.62, 0.000, 0.000, 0.000, 13:48:13.360, 1552240093360
143, 55859.20, 66179.80, 0.00, 0.00, 0.00, 0.00, 107043.73, 17278.93, 0.000, 0.000, 0.000, 13:48:13.360, 1552240093360
144, 55886.00, 66201.98, 0.00, 0.00, 0.00, 0.00, 107071.09, 17303.09, 0.000, 0.000, 0.000, 13:48:13.360, 1552240093360
145, 55746.12, 66084.79, 0.00, 0.00, 0.00, 0.00, 106957.48, 17231.79, 0.000, 0.000, 0.000, 13:48:13.360, 1552240093360
146, 55748.64, 66085.37, 0.00, 0.00, 0.00, 0.00, 106958.03, 17233.89, 0.000, 0.000, 0.000, 13:48:13.360, 1552240093360
147, 55848.16, 66174.04, 0.00, 0.00, 0.00, 0.00, 107040.96, 17277.27, 0.000, 0.000, 0.000, 13:48:13.360, 1552240093360
148, 55898.25, 66217.02, 0.00, 0.00, 0.00, 0.00, 107090.31, 17313.17, 0.198, 0.024, 0.992, 13:48:13.360, 1552240093360
149, 55769.48, 66108.21, 0.00, 0.00, 0.00, 0.00, 106984.54, 17253.87, 0.000, 0.000, 0.000, 13:48:13.360, 1552240093360
150, 55748.80, 66086.80, 0.00, 0.00, 0.00, 0.00, 106959.77, 17239.70, 0.000, 0.000, 0.000, 13:48:13.361, 1552240093361
151, 55847.22, 66170.28, 0.00, 0.00, 0.00, 0.00, 107028.80, 17270.59, 0.000, 0.000, 0.000, 13:48:13.361, 1552240093361
152, 55920.55, 66235.50, 0.00, 0.00, 0.00, 0.00, 107105.38, 17323.32, 0.000, 0.000, 0.000, 13:48:13.361, 1552240093361
153, 55796.66, 66133.96, 0.00, 0.00, 0.00, 0.00, 107012.91, 17270.79, 0.000, 0.000, 0.000, 13:48:13.361, 1552240093361
154, 55757.95, 66087.96, 0.00, 0.00, 0.00, 0.00, 106961.52, 17239.56, 0.000, 0.000, 0.000, 13:48:13.361, 1552240093361
155, 55821.98, 66145.60, 0.00, 0.00, 0.00, 0.00, 107014.20, 17262.21, 0.000, 0.000, 0.000, 13:48:13.361, 1552240093361
156, 55919.35, 66232.35, 0.00, 0.00, 0.00, 0.00, 107100.37, 17308.70, 0.000, 0.000, 0.000, 13:48:13.361, 1552240093361
157, 55839.66, 66163.77, 0.00, 0.00, 0.00, 0.00, 107030.23, 17268.42, 0.000, 0.000, 0.000, 13:48:13.361, 1552240093361
158, 55746.28, 66082.23, 0.00, 0.00, 0.00, 0.00, 106955.51, 17230.06, 0.208, 0.024, 0.990, 13:48:13.362, 1552240093362
159, 55798.51, 66132.44, 0.00, 0.00, 0.00, 0.00, 106996.52, 17245.33, 0.000, 0.000, 0.000, 13:48:13.362, 1552240093362
160, 55927.28, 66240.82, 0.00, 0.00, 0.00, 0.00, 107099.70, 17312.30, 0.000, 0.000, 0.000, 13:48:13.362, 1552240093362
161, 55882.15, 66201.35, 0.00, 0.00, 0.00, 0.00, 107059.22, 17293.07, 0.000, 0.000, 0.000, 13:48:13.362, 1552240093362
162, 55764.61, 66098.89, 0.00, 0.00, 0.00, 0.00, 106958.03, 17229.89, 0.000, 0.000, 0.000, 13:48:13.362, 1552240093362
163, 55802.78, 66129.40, 0.00, 0.00, 0.00, 0.00, 106985.93, 17243.32, 0.000, 0.000, 0.000, 13:48:13.362, 1552240093362
164, 55923.46, 66232.66, 0.00, 0.00, 0.00, 0.00, 107090.22, 17308.45, 0.000, 0.000, 0.000, 13:48:13.362, 1552240093362
165, 55895.03, 66214.27, 0.00, 0.00, 0.00, 0.00, 107086.60, 17313.71, 0.000, 0.000, 0.000, 13:48:13.362, 1552240093362
166, 55763.24, 66097.77, 0.00, 0.00, 0.00, 0.00, 106975.34, 17242.38, 0.000, 0.000, 0.000, 13:48:13.362, 1552240093362
167, 55794.22, 66117.98, 0.00, 0.00, 0.00, 0.00, 106992.86, 17248.91, 0.000, 0.000, 0.000, 13:48:13.362, 1552240093362
168, 55885.80, 66205.82, 0.00, 0.00, 0.00, 0.00, 107084.84, 17301.01, 0.206, 0.020, 0.996, 13:48:13.362, 1552240093362
169, 55926.07, 66233.89, 0.00, 0.00, 0.00, 0.00, 107110.65, 17325.93, 0.000, 0.000, 0.000, 13:48:13.362, 1552240093362
170, 55788.75, 66114.38, 0.00, 0.00, 0.00, 0.00, 106991.16, 17251.99, 0.000, 0.000, 0.000, 13:48:13.363, 1552240093363
171, 55767.42, 66098.91, 0.00, 0.00, 0.00, 0.00, 106977.91, 17244.10, 0.000, 0.000, 0.000, 13:48:13.363, 1552240093363
172, 55873.75, 66187.78, 0.00, 0.00, 0.00, 0.00, 107050.97, 17278.93, 0.000, 0.000, 0.000, 13:48:13.363, 1552240093363
173, 55933.92, 66239.02, 0.00, 0.00, 0.00, 0.00, 107107.27, 17319.38, 0.000, 0.000, 0.000, 13:48:13.363, 1552240093363
174, 55797.24, 66123.81, 0.00, 0.00, 0.00, 0.00, 106992.86, 17248.68, 0.000, 0.000, 0.000, 13:48:13.363, 1552240093363
175, 55775.54, 66095.49, 0.00, 0.00, 0.00, 0.00, 106957.77, 17226.94, 0.000, 0.000, 0.000, 13:48:13.363, 1552240093363
176, 55872.14, 66176.95, 0.00, 0.00, 0.00, 0.00, 107027.03, 17258.34, 0.000, 0.000, 0.000, 13:48:13.363, 1552240093363
177, 55952.49, 66246.97, 0.00, 0.00, 0.00, 0.00, 107110.88, 17318.76, 0.000, 0.000, 0.000, 13:48:13.364, 1552240093364
178, 55830.90, 66146.16, 0.00, 0.00, 0.00, 0.00, 107017.20, 17263.48, 0.210, 0.026, 0.996, 13:48:13.364, 1552240093364
179, 55761.14, 66086.04, 0.00, 0.00, 0.00, 0.00, 106964.80, 17233.84, 0.000, 0.000, 0.000, 13:48:13.364, 1552240093364
180, 55835.30, 66153.27, 0.00, 0.00, 0.00, 0.00, 107028.89, 17269.54, 0.000, 0.000, 0.000, 13:48:13.364, 1552240093364
181, 55937.29, 66244.51, 0.00, 0.00, 0.00, 0.00, 107126.01, 17331.83, 0.000, 0.000, 0.000, 13:48:13.364, 1552240093364
182, 55858.80, 66178.59, 0.00, 0.00, 0.00, 0.00, 107061.19, 17293.43, 0.000, 0.000, 0.000, 13:48:13.364, 1552240093364
183, 55760.98, 66094.15, 0.00, 0.00, 0.00, 0.00, 106984.74, 17249.33, 0.000, 0.000, 0.000, 13:48:13.364, 1552240093364
184, 55830.70, 66150.68, 0.00, 0.00, 0.00, 0.00, 107031.73, 17267.44, 0.000, 0.000, 0.000, 13:48:13.364, 1552240093364
185, 55932.89, 66242.16, 0.00, 0.00, 0.00, 0.00, 107123.15, 17320.16, 0.000, 0.000, 0.000, 13:48:13.365, 1552240093365
186, 55885.64, 66205.38, 0.00, 0.00, 0.00, 0.00, 107090.34, 17313.46, 0.000, 0.000, 0.000, 13:48:13.365, 1552240093365
187, 55778.51, 66106.27, 0.00, 0.00, 0.00, 0.00, 106986.51, 17248.84, 0.000, 0.000, 0.000, 13:48:13.365, 1552240093365
188, 55807.14, 66132.28, 0.00, 0.00, 0.00, 0.00, 107012.73, 17261.65, 0.210, 0.030, 0.992, 13:48:13.365, 1552240093365
189, 55930.66, 66234.81, 0.00, 0.00, 0.00, 0.00, 107106.41, 17314.69, 0.000, 0.000, 0.000, 13:48:13.365, 1552240093365
190, 55924.18, 66230.92, 0.00, 0.00, 0.00, 0.00, 107102.65, 17317.04, 0.000, 0.000, 0.000, 13:48:13.365, 1552240093365
191, 55783.98, 66114.31, 0.00, 0.00, 0.00, 0.00, 106987.94, 17245.29, 0.000, 0.000, 0.000, 13:48:13.366, 1552240093366
192, 55785.01, 66117.64, 0.00, 0.00, 0.00, 0.00, 106996.43, 17249.49, 0.000, 0.000, 0.000, 13:48:13.366, 1552240093366
193, 55905.24, 66219.41, 0.00, 0.00, 0.00, 0.00, 107089.22, 17298.04, 0.000, 0.000, 0.000, 13:48:13.366, 1552240093366
194, 55938.90, 66247.98, 0.00, 0.00, 0.00, 0.00, 107123.21, 17324.37, 0.000, 0.000, 0.000, 13:48:13.366, 1552240093366
195, 55792.03, 66125.69, 0.00, 0.00, 0.00, 0.00, 107009.29, 17257.45, 0.000, 0.000, 0.000, 13:48:13.366, 1552240093366
196, 55785.04, 66115.74, 0.00, 0.00, 0.00, 0.00, 107001.04, 17256.66, 0.000, 0.000, 0.000, 13:48:13.367, 1552240093367
197, 55885.15, 66200.52, 0.00, 0.00, 0.00, 0.00, 107077.80, 17295.62, 0.208, 0.030, 0.992, 13:48:13.367, 1552240093367
198, 55939.13, 66249.70, 0.00, 0.00, 0.00, 0.00, 107135.62, 17335.81, 0.000, 0.000, 0.000, 13:48:13.367, 1552240093367
199, 55812.57, 66137.55, 0.00, 0.00, 0.00, 0.00, 107019.68, 17261.42, 0.000, 0.000, 0.000, 13:48:13.367, 1552240093367
200, 55780.83, 66104.19, 0.00, 0.00, 0.00, 0.00, 106985.64, 17242.72, 0.000, 0.000, 0.000, 13:48:13.367, 1552240093367
201, 55873.68, 66184.50, 0.00, 0.00, 0.00, 0.00, 107054.23, 17275.06, 0.000, 0.000, 0.000, 13:48:13.367, 1552240093367
202, 55958.42, 66262.23, 0.00, 0.00, 0.00, 0.00, 107134.45, 17328.66, 0.000, 0.000, 0.000, 13:48:13.368, 1552240093368
203, 55844.31, 66168.36, 0.00, 0.00, 0.00, 0.00, 107044.27, 17277.47, 0.000, 0.000, 0.000, 13:48:13.368, 1552240093368
204, 55770.57, 66102.91, 0.00, 0.00, 0.00, 0.00, 106985.98, 17244.24, 0.000, 0.000, 0.000, 13:48:13.368, 1552240093368
205, 55839.86, 66162.05, 0.00, 0.00, 0.00, 0.00, 107042.26, 17269.94, 0.000, 0.000, 0.000, 13:48:13.368, 1552240093368
206, 55949.07, 66253.34, 0.00, 0.00, 0.00, 0.00, 107136.40, 17330.60, 0.000, 0.000, 0.000, 13:48:13.368, 1552240093368
207, 55875.31, 66192.61, 0.00, 0.00, 0.00, 0.00, 107074.93, 17297.01, 0.204, 0.028, 0.994, 13:48:13.368, 1552240093368
208, 55782.11, 66111.38, 0.00, 0.00, 0.00, 0.00, 106992.92, 17249.20, 0.000, 0.000, 0.000, 13:48:13.369, 1552240093369
209, 55836.27, 66161.74, 0.00, 0.00, 0.00, 0.00, 107034.74, 17270.34, 0.000, 0.000, 0.000, 13:48:13.369, 1552240093369
210, 55946.46, 66260.70, 0.00, 0.00, 0.00, 0.00, 107132.00, 17327.45, 0.000, 0.000, 0.000, 13:48:13.369, 1552240093369
211, 55917.69, 66230.32, 0.00, 0.00, 0.00, 0.00, 107100.39, 17316.21, 0.000, 0.000, 0.000, 13:48:13.369, 1552240093369
212, 55800.59, 66125.31, 0.00, 0.00, 0.00, 0.00, 106994.69, 17249.58, 0.000, 0.000, 0.000, 13:48:13.369, 1552240093369
213, 55828.20, 66147.33, 0.00, 0.00, 0.00, 0.00, 107019.05, 17261.25, 0.000, 0.000, 0.000, 13:48:13.369, 1552240093369
214, 55943.42, 66245.78, 0.00, 0.00, 0.00, 0.00, 107114.20, 17314.02, 0.000, 0.000, 0.000, 13:48:13.370, 1552240093370
215, 55936.65, 66241.47, 0.00, 0.00, 0.00, 0.00, 107118.01, 17323.74, 0.000, 0.000, 0.000, 13:48:13.370, 1552240093370
216, 55797.51, 66123.74, 0.00, 0.00, 0.00, 0.00, 107004.99, 17259.41, 0.000, 0.000, 0.000, 13:48:13.370, 1552240093370
217, 55816.37, 66135.55, 0.00, 0.00, 0.00, 0.00, 107013.66, 17266.63, 0.204, 0.028, 0.992, 13:48:13.370, 1552240093370
218, 55917.36, 66222.74, 0.00, 0.00, 0.00, 0.00, 107096.55, 17308.03, 0.000, 0.000, 0.000, 13:48:13.370, 1552240093370
219, 55938.70, 66245.27, 0.00, 0.00, 0.00, 0.00, 107133.85, 17339.90, 0.000, 0.000, 0.000, 13:48:13.371, 1552240093371
220, 55810.94, 66132.30, 0.00, 0.00, 0.00, 0.00, 107013.98, 17263.10, 0.000, 0.000, 0.000, 13:48:13.371, 1552240093371
221, 55805.57, 66121.29, 0.00, 0.00, 0.00, 0.00, 106997.30, 17252.71, 0.000, 0.000, 0.000, 13:48:13.371, 1552240093371
222, 55899.74, 66202.78, 0.00, 0.00, 0.00, 0.00, 107069.10, 17286.53, 0.000, 0.000, 0.000, 13:48:13.371, 1552240093371
223, 55959.71, 66255.48, 0.00, 0.00, 0.00, 0.00, 107132.27, 17333.87, 0.000, 0.000, 0.000, 13:48:13.371, 1552240093371
224, 55827.86, 66145.02, 0.00, 0.00, 0.00, 0.00, 107025.83, 17266.65, 0.000, 0.000, 0.000, 13:48:13.371, 1552240093371
225, 55789.30, 66106.69, 0.00, 0.00, 0.00, 0.00, 106986.46, 17242.22, 0.000, 0.000, 0.000, 13:48:13.838, 1552240093838
226, 55875.92, 66183.96, 0.00, 0.00, 0.00, 0.00, 107053.01, 17277.21, 0.000, 0.000, 0.000, 13:48:13.838, 1552240093838
227, 55975.18, 66267.63, 0.00, 0.00, 0.00, 0.00, 107136.94, 17330.89, 0.202, 0.028, 0.994, 13:48:13.839, 1552240093839
228, 55859.64, 66173.27, 0.00, 0.00, 0.00, 0.00, 107050.95, 17284.58, 0.000, 0.000, 0.000, 13:48:13.839, 1552240093839
229, 55769.52, 66094.38, 0.00, 0.00, 0.00, 0.00, 106983.67, 17250.03, 0.000, 0.000, 0.000, 13:48:13.839, 1552240093839
230, 55849.36, 66157.18, 0.00, 0.00, 0.00, 0.00, 107036.66, 17272.51, 0.000, 0.000, 0.000, 13:48:13.839, 1552240093839
231, 55950.04, 66251.41, 0.00, 0.00, 0.00, 0.00, 107137.63, 17335.36, 0.000, 0.000, 0.000, 13:48:13.839, 1552240093839
232, 55874.57, 66191.80, 0.00, 0.00, 0.00, 0.00, 107081.91, 17304.41, 0.000, 0.000, 0.000, 13:48:13.839, 1552240093839
233, 55791.56, 66110.67, 0.00, 0.00, 0.00, 0.00, 106995.30, 17252.15, 0.000, 0.000, 0.000, 13:48:13.839, 1552240093839
234, 55844.47, 66157.27, 0.00, 0.00, 0.00, 0.00, 107034.66, 17272.20, 0.000, 0.000, 0.000, 13:48:13.839, 1552240093839
235, 55953.25, 66252.96, 0.00, 0.00, 0.00, 0.00, 107126.34, 17325.17, 0.000, 0.000, 0.000, 13:48:13.840, 1552240093840
236, 55921.61, 66225.40, 0.00, 0.00, 0.00, 0.00, 107096.13, 17307.02, 0.000, 0.000, 0.000, 13:48:13.840, 1552240093840
237, 55799.74, 66116.77, 0.00, 0.00, 0.00, 0.00, 106989.05, 17241.78, 0.208, 0.022, 0.992, 13:48:13.840, 1552240093840
238, 55826.21, 66136.30, 0.00, 0.00, 0.00, 0.00, 107006.85, 17247.30, 0.000, 0.000, 0.000, 13:48:13.840, 1552240093840
239, 55934.86, 66230.43, 0.00, 0.00, 0.00, 0.00, 107099.12, 17295.69, 0.000, 0.000, 0.000, 13:48:13.840, 1552240093840
240, 55932.40, 66232.53, 0.00, 0.00, 0.00, 0.00, 107111.08, 17310.71, 0.000, 0.000, 0.000, 13:48:13.841, 1552240093841
241, 55794.78, 66116.63, 0.00, 0.00, 0.00, 0.00, 107001.35, 17250.20, 0.000, 0.000, 0.000, 13:48:13.841, 1552240093841
242, 55805.22, 66123.39, 0.00, 0.00, 0.00, 0.00, 107006.13, 17249.80, 0.000, 0.000, 0.000, 13:48:13.841, 1552240093841
243, 55916.38, 66215.92, 0.00, 0.00, 0.00, 0.00, 107091.48, 17292.78, 0.000, 0.000, 0.000, 13:48:13.841, 1552240093841
244, 55949.86, 66249.38, 0.00, 0.00, 0.00, 0.00, 107134.30, 17325.42, 0.000, 0.000, 0.000, 13:48:13.841, 1552240093841
245, 55796.37, 66120.48, 0.00, 0.00, 0.00, 0.00, 107012.17, 17249.40, 0.000, 0.000, 0.000, 13:48:13.841, 1552240093841
246, 55806.98, 66118.42, 0.00, 0.00, 0.00, 0.00, 107000.50, 17249.09, 0.000, 0.000, 0.000, 13:48:13.841, 1552240093841
247, 55909.29, 66208.62, 0.00, 0.00, 0.00, 0.00, 107078.35, 17286.86, 0.206, 0.028, 0.992, 13:48:13.841, 1552240093841
248, 55958.21, 66261.81, 0.00, 0.00, 0.00, 0.00, 107146.34, 17333.11, 0.000, 0.000, 0.000, 13:48:13.842, 1552240093842
249, 55826.81, 66152.84, 0.00, 0.00, 0.00, 0.00, 107043.59, 17273.52, 0.000, 0.000, 0.000, 13:48:13.842, 1552240093842
250, 55797.77, 66120.01, 0.00, 0.00, 0.00, 0.00, 107007.14, 17254.25, 0.000, 0.000, 0.000, 13:48:13.842, 1552240093842
251, 55891.23, 66197.82, 0.00, 0.00, 0.00, 0.00, 107074.89, 17288.83, 0.000, 0.000, 0.000, 13:48:13.842, 1552240093842
252, 55975.25, 66273.61, 0.00, 0.00, 0.00, 0.00, 107159.98, 17341.62, 0.000, 0.000, 0.000, 13:48:13.842, 1552240093842
253, 55870.89, 66182.41, 0.00, 0.00, 0.00, 0.00, 107068.98, 17283.53, 0.000, 0.000, 0.000, 13:48:13.842, 1552240093842
254, 55792.90, 66111.00, 0.00, 0.00, 0.00, 0.00, 106997.66, 17241.49, 0.000, 0.000, 0.000, 13:48:13.842, 1552240093842
255, 55851.22, 66161.66, 0.00, 0.00, 0.00, 0.00, 107049.05, 17280.65, 0.000, 0.000, 0.000, 13:48:13.842, 1552240093842
0, 55969.01, 66259.46, 0.00, 0.00, 0.00, 0.00, 107139.53, 17331.79, 0.000, 0.000, 0.000, 13:48:13.842, 1552240093842
1, 55886.24, 66196.39, 0.00, 0.00, 0.00, 0.00, 107081.55, 17296.03, 0.204, 0.030, 0.992, 13:48:13.842, 1552240093842
2, 55790.94, 66108.27, 0.00, 0.00, 0.00, 0.00, 106993.95, 17243.10, 0.000, 0.000, 0.000, 13:48:13.842, 1552240093842
3, 55836.53, 66148.55, 0.00, 0.00, 0.00, 0.00, 107027.99, 17255.30, 0.000, 0.000, 0.000, 13:48:13.842, 1552240093842
4, 55946.10, 66247.28, 0.00, 0.00, 0.00, 0.00, 107128.73, 17318.64, 0.000, 0.000, 0.000, 13:48:13.843, 1552240093843
5, 55934.77, 66234.45, 0.00, 0.00, 0.00, 0.00, 107116.17, 17319.34, 0.000, 0.000, 0.000, 13:48:13.843, 1552240093843
6, 55809.13, 66124.23, 0.00, 0.00, 0.00, 0.00, 107009.60, 17253.45, 0.000, 0.000, 0.000, 13:48:13.843, 1552240093843
7, 55832.33, 66146.09, 0.00, 0.00, 0.00, 0.00, 107033.58, 17263.77, 0.000, 0.000, 0.000, 13:48:13.843, 1552240093843
8, 55946.32, 66246.27, 0.00, 0.00, 0.00, 0.00, 107128.04, 17318.64, 0.000, 0.000, 0.000, 13:48:13.843, 1552240093843
9, 55931.06, 66240.47, 0.00, 0.00, 0.00, 0.00, 107132.11, 17326.42, 0.000, 0.000, 0.000, 13:48:13.843, 1552240093843
10, 55801.62, 66128.48, 0.00, 0.00, 0.00, 0.00, 107015.19, 17250.92, 0.000, 0.000, 0.000, 13:48:13.843, 1552240093843
11, 55828.98, 66139.70, 0.00, 0.00, 0.00, 0.00, 107022.36, 17267.59, 0.208, 0.032, 0.998, 13:48:13.843, 1552240093843
12, 55932.89, 66225.20, 0.00, 0.00, 0.00, 0.00, 107104.41, 17306.75, 0.000, 0.000, 0.000, 13:48:13.844, 1552240093844
13, 55974.69, 66264.12, 0.00, 0.00, 0.00, 0.00, 107150.93, 17341.33, 0.000, 0.000, 0.000, 13:48:13.844, 1552240093844
14, 55813.89, 66135.91, 0.00, 0.00, 0.00, 0.00, 107029.38, 17262.01, 0.000, 0.000, 0.000, 13:48:13.844, 1552240093844
15, 55800.64, 66121.09, 0.00, 0.00, 0.00, 0.00, 107013.53, 17254.23, 0.000, 0.000, 0.000, 13:48:13.844, 1552240093844
16, 55908.55, 66214.54, 0.00, 0.00, 0.00, 0.00, 107094.38, 17301.99, 0.000, 0.000, 0.000, 13:48:13.844, 1552240093844
17, 55976.72, 66277.68, 0.00, 0.00, 0.00, 0.00, 107161.34, 17345.49, 0.000, 0.000, 0.000, 13:48:13.844, 1552240093844
18, 55852.74, 66177.32, 0.00, 0.00, 0.00, 0.00, 107058.88, 17284.27, 0.000, 0.000, 0.000, 13:48:13.844, 1552240093844
19, 55803.61, 66131.01, 0.00, 0.00, 0.00, 0.00, 107014.13, 17263.95, 0.000, 0.000, 0.000, 13:48:13.844, 1552240093844
20, 55912.21, 66214.42, 0.00, 0.00, 0.00, 0.00, 107072.54, 17283.98, 0.000, 0.000, 0.000, 13:48:13.844, 1552240093844
21, 55996.57, 66289.51, 0.00, 0.00, 0.00, 0.00, 107157.66, 17336.91, 0.200, 0.028, 0.994, 13:48:13.844, 1552240093844
22, 55874.87, 66191.98, 0.00, 0.00, 0.00, 0.00, 107080.72, 17303.60, 0.000, 0.000, 0.000, 13:48:13.844, 1552240093844
23, 55790.89, 66115.32, 0.00, 0.00, 0.00, 0.00, 107005.11, 17255.59, 0.000, 0.000, 0.000, 13:48:13.845, 1552240093845
24, 55868.14, 66174.62, 0.00, 0.00, 0.00, 0.00, 107043.66, 17263.59, 0.000, 0.000, 0.000, 13:48:13.845, 1552240093845
25, 55981.13, 66271.65, 0.00, 0.00, 0.00, 0.00, 107152.41, 17339.59, 0.000, 0.000, 0.000, 13:48:13.845, 1552240093845
26, 55906.07, 66213.60, 0.00, 0.00, 0.00, 0.00, 107102.80, 17309.28, 0.000, 0.000, 0.000, 13:48:13.845, 1552240093845
27, 55788.14, 66112.63, 0.00, 0.00, 0.00, 0.00, 107009.22, 17257.18, 0.000, 0.000, 0.000, 13:48:13.845, 1552240093845
28, 55836.36, 66155.84, 0.00, 0.00, 0.00, 0.00, 107047.98, 17280.67, 0.000, 0.000, 0.000, 13:48:13.845, 1552240093845
29, 55961.79, 66267.02, 0.00, 0.00, 0.00, 0.00, 107151.64, 17345.31, 0.000, 0.000, 0.000, 13:48:13.845, 1552240093845
30, 55934.61, 66250.01, 0.00, 0.00, 0.00, 0.00, 107139.57, 17343.43, 0.000, 0.000, 0.000, 13:48:13.845, 1552240093845
31, 55808.50, 66140.64, 0.00, 0.00, 0.00, 0.00, 107029.05, 17274.01, 0.204, 0.030, 1.004, 13:48:13.845, 1552240093845
32, 55857.79, 66168.18, 0.00, 0.00, 0.00, 0.00, 107038.05, 17271.88, 0.000, 0.000, 0.000, 13:48:13.845, 1552240093845
33, 55949.01, 66249.72, 0.00, 0.00, 0.00, 0.00, 107116.46, 17306.06, 0.000, 0.000, 0.000, 13:48:13.845, 1552240093845
34, 55956.27, 66255.58, 0.00, 0.00, 0.00, 0.00, 107132.53, 17324.59, 0.000, 0.000, 0.000, 13:48:13.846, 1552240093846
35, 55821.78, 66135.88, 0.00, 0.00, 0.00, 0.00, 107015.14, 17254.56, 0.000, 0.000, 0.000, 13:48:13.846, 1552240093846
36, 55818.09, 66129.76, 0.00, 0.00, 0.00, 0.00, 107013.09, 17250.54, 0.000, 0.000, 0.000, 13:48:13.847, 1552240093847
37, 55917.56, 66213.69, 0.00, 0.00, 0.00, 0.00, 107094.52, 17289.39, 0.000, 0.000, 0.000, 13:48:13.847, 1552240093847
38, 55974.18, 66261.27, 0.00, 0.00, 0.00, 0.00, 107144.55, 17327.94, 0.000, 0.000, 0.000, 13:48:13.847, 1552240093847
39, 55824.17, 66138.32, 0.00, 0.00, 0.00, 0.00, 107032.24, 17265.56, 0.000, 0.000, 0.000, 13:48:13.847, 1552240093847
40, 55795.56, 66112.79, 0.00, 0.00, 0.00, 0.00, 107012.13, 17254.61, 0.000, 0.000, 0.000, 13:48:13.847, 1552240093847
41, 55904.30, 66202.98, 0.00, 0.00, 0.00, 0.00, 107087.30, 17289.83, 0.206, 0.030, 0.994, 13:48:13.847, 1552240093847
42, 55975.45, 66268.61, 0.00, 0.00, 0.00, 0.00, 107159.35, 17340.46, 0.000, 0.000, 0.000, 13:48:13.847, 1552240093847
43, 55843.46, 66162.86, 0.00, 0.00, 0.00, 0.00, 107053.81, 17275.06, 0.000, 0.000, 0.000, 13:48:13.847, 1552240093847
44, 55800.75, 66116.84, 0.00, 0.00, 0.00, 0.00, 107000.44, 17240.46, 0.000, 0.000, 0.000, 13:48:13.847, 1552240093847
45, 55869.14, 66182.66, 0.00, 0.00, 0.00, 0.00, 107068.07, 17285.21, 0.000, 0.000, 0.000, 13:48:13.847, 1552240093847
46, 55966.42, 66269.16, 0.00, 0.00, 0.00, 0.00, 107155.66, 17339.46, 0.000, 0.000, 0.000, 13:48:13.848, 1552240093848
47, 55897.46, 66203.70, 0.00, 0.00, 0.00, 0.00, 107081.08, 17294.10, 0.000, 0.000, 0.000, 13:48:13.848, 1552240093848
48, 55803.88, 66123.70, 0.00, 0.00, 0.00, 0.00, 107005.98, 17250.65, 0.000, 0.000, 0.000, 13:48:13.848, 1552240093848
49, 55858.86, 66175.38, 0.00, 0.00, 0.00, 0.00, 107050.84, 17267.59, 0.000, 0.000, 0.000, 13:48:13.848, 1552240093848
50, 55978.45, 66275.91, 0.00, 0.00, 0.00, 0.00, 107151.04, 17332.35, 0.208, 0.032, 0.996, 13:48:13.848, 1552240093848
51, 55903.30, 66217.31, 0.00, 0.00, 0.00, 0.00, 107105.17, 17311.60, 0.000, 0.000, 0.000, 13:48:13.848, 1552240093848
52, 55784.12, 66115.36, 0.00, 0.00, 0.00, 0.00, 107011.48, 17253.94, 0.000, 0.000, 0.000, 13:48:13.848, 1552240093848
53, 55842.32, 66157.95, 0.00, 0.00, 0.00, 0.00, 107046.03, 17270.83, 0.000, 0.000, 0.000, 13:48:13.849, 1552240093849
54, 55961.75, 66256.83, 0.00, 0.00, 0.00, 0.00, 107138.81, 17322.45, 0.000, 0.000, 0.000, 13:48:13.849, 1552240093849
55, 55935.51, 66236.13, 0.00, 0.00, 0.00, 0.00, 107124.33, 17317.39, 0.000, 0.000, 0.000, 13:48:13.849, 1552240093849
56, 55792.75, 66116.48, 0.00, 0.00, 0.00, 0.00, 107005.98, 17236.73, 0.000, 0.000, 0.000, 13:48:13.849, 1552240093849
57, 55806.58, 66127.61, 0.00, 0.00, 0.00, 0.00, 107017.94, 17243.90, 0.000, 0.000, 0.000, 13:48:13.849, 1552240093849
58, 55923.41, 66227.57, 0.00, 0.00, 0.00, 0.00, 107116.91, 17308.54, 0.000, 0.000, 0.000, 13:48:13.849, 1552240093849
59, 55961.97, 66260.29, 0.00, 0.00, 0.00, 0.00, 107147.09, 17335.48, 0.000, 0.000, 0.000, 13:48:13.850, 1552240093850
60, 55808.35, 66136.33, 0.00, 0.00, 0.00, 0.00, 107025.71, 17256.80, 0.202, 0.030, 0.998, 13:48:13.850, 1552240093850
61, 55828.04, 66144.60, 0.00, 0.00, 0.00, 0.00, 107029.96, 17264.84, 0.000, 0.000, 0.000, 13:48:13.850, 1552240093850
62, 55935.86, 66236.77, 0.00, 0.00, 0.00, 0.00, 107108.73, 17302.17, 0.000, 0.000, 0.000, 13:48:13.850, 1552240093850
63, 55975.09, 66278.71, 0.00, 0.00, 0.00, 0.00, 107157.63, 17335.88, 0.000, 0.000, 0.000, 13:48:13.850, 1552240093850
64, 55828.51, 66158.99, 0.00, 0.00, 0.00, 0.00, 107041.70, 17265.85, 0.000, 0.000, 0.000, 13:48:13.850, 1552240093850
65, 55821.56, 66142.20, 0.00, 0.00, 0.00, 0.00, 107018.36, 17257.40, 0.000, 0.000, 0.000, 13:48:13.850, 1552240093850
66, 55901.06, 66212.44, 0.00, 0.00, 0.00, 0.00, 107085.62, 17289.39, 0.000, 0.000, 0.000, 13:48:13.850, 1552240093850
67, 55968.61, 66274.06, 0.00, 0.00, 0.00, 0.00, 107154.91, 17331.56, 0.000, 0.000, 0.000, 13:48:13.850, 1552240093850
68, 55868.61, 66183.38, 0.00, 0.00, 0.00, 0.00, 107062.69, 17276.40, 0.000, 0.000, 0.000, 13:48:13.850, 1552240093850
69, 55804.88, 66127.32, 0.00, 0.00, 0.00, 0.00, 107016.33, 17251.86, 0.000, 0.000, 0.000, 13:48:13.850, 1552240093850
70, 55872.86, 66187.85, 0.00, 0.00, 0.00, 0.00, 107074.64, 17280.74, 0.206, 0.026, 0.996, 13:48:13.850, 1552240093850
71, 55972.25, 66272.49, 0.00, 0.00, 0.00, 0.00, 107162.20, 17336.77, 0.000, 0.000, 0.000, 13:48:13.851, 1552240093851
72, 55874.53, 66190.73, 0.00, 0.00, 0.00, 0.00, 107085.66, 17289.45, 0.000, 0.000, 0.000, 13:48:13.851, 1552240093851
73, 55777.52, 66106.11, 0.00, 0.00, 0.00, 0.00, 107005.53, 17233.87, 0.000, 0.000, 0.000, 13:48:13.851, 1552240093851
74, 55863.73, 66172.63, 0.00, 0.00, 0.00, 0.00, 107059.22, 17268.60, 0.000, 0.000, 0.000, 13:48:13.851, 1552240093851
75, 55982.80, 66273.59, 0.00, 0.00, 0.00, 0.00, 107155.65, 17328.17, 0.000, 0.000, 0.000, 13:48:13.851, 1552240093851
76, 55922.66, 66225.78, 0.00, 0.00, 0.00, 0.00, 107114.18, 17305.66, 0.000, 0.000, 0.000, 13:48:13.852, 1552240093852
77, 55808.23, 66125.22, 0.00, 0.00, 0.00, 0.00, 107016.20, 17246.52, 0.000, 0.000, 0.000, 13:48:13.852, 1552240093852
78, 55839.44, 66155.06, 0.00, 0.00, 0.00, 0.00, 107046.16, 17264.53, 0.000, 0.000, 0.000, 13:48:13.852, 1552240093852
79, 55943.31, 66247.80, 0.00, 0.00, 0.00, 0.00, 107136.58, 17312.72, 0.000, 0.000, 0.000, 13:48:13.853, 1552240093853
80, 55941.00, 66243.73, 0.00, 0.00, 0.00, 0.00, 107131.26, 17312.25, 0.208, 0.022, 0.994, 13:48:13.853, 1552240093853
81, 55809.84, 66129.20, 0.00, 0.00, 0.00, 0.00, 107022.61, 17253.29, 0.000, 0.000, 0.000, 13:48:13.853, 1552240093853
82, 55827.37, 66141.11, 0.00, 0.00, 0.00, 0.00, 107028.93, 17250.81, 0.000, 0.000, 0.000, 13:48:13.853, 1552240093853
83, 55941.68, 66236.91, 0.00, 0.00, 0.00, 0.00, 107115.68, 17298.48, 0.000, 0.000, 0.000, 13:48:13.853, 1552240093853
84, 55971.02, 66262.46, 0.00, 0.00, 0.00, 0.00, 107141.63, 17318.76, 0.000, 0.000, 0.000, 13:48:13.853, 1552240093853
85, 55815.75, 66134.48, 0.00, 0.00, 0.00, 0.00, 107019.52, 17239.77, 0.000, 0.000, 0.000, 13:48:13.854, 1552240093854
86, 55808.88, 66125.38, 0.00, 0.00, 0.00, 0.00, 107011.30, 17235.23, 0.000, 0.000, 0.000, 13:48:13.854, 1552240093854
87, 55914.96, 66218.18, 0.00, 0.00, 0.00, 0.00, 107092.48, 17272.22, 0.000, 0.000, 0.000, 13:48:13.854, 1552240093854
88, 55970.31, 66268.94, 0.00, 0.00, 0.00, 0.00, 107155.80, 17320.50, 0.000, 0.000, 0.000, 13:48:13.854, 1552240093854
89, 55831.19, 66155.39, 0.00, 0.00, 0.00, 0.00, 107052.63, 17263.32, 0.000, 0.000, 0.000, 13:48:13.854, 1552240093854
90, 55800.21, 66121.24, 0.00, 0.00, 0.00, 0.00, 107017.96, 17242.43, 0.212, 0.022, 0.988, 13:48:14.342, 1552240094342
91, 55879.00, 66189.88, 0.00, 0.00, 0.00, 0.00, 107083.16, 17273.90, 0.000, 0.000, 0.000, 13:48:14.342, 1552240094342
92, 55987.81, 66277.84, 0.00, 0.00, 0.00, 0.00, 107168.16, 17336.24, 0.000, 0.000, 0.000, 13:48:14.342, 1552240094342
93, 55866.24, 66182.10, 0.00, 0.00, 0.00, 0.00, 107074.24, 17282.21, 0.000, 0.000, 0.000, 13:48:14.343, 1552240094343
94, 55807.81, 66128.70, 0.00, 0.00, 0.00, 0.00, 107017.53, 17246.61, 0.000, 0.000, 0.000, 13:48:14.343, 1552240094343
95, 55890.04, 66196.16, 0.00, 0.00, 0.00, 0.00, 107072.77, 17270.83, 0.000, 0.000, 0.000, 13:48:14.343, 1552240094343
96, 55974.04, 66275.65, 0.00, 0.00, 0.00, 0.00, 107161.81, 17326.33, 0.000, 0.000, 0.000, 13:48:14.343, 1552240094343
97, 55913.76, 66218.60, 0.00, 0.00, 0.00, 0.00, 107097.46, 17287.62, 0.000, 0.000, 0.000, 13:48:14.343, 1552240094343
98, 55813.91, 66129.51, 0.00, 0.00, 0.00, 0.00, 107020.39, 17255.70, 0.000, 0.000, 0.000, 13:48:14.343, 1552240094343
99, 55866.29, 66172.13, 0.00, 0.00, 0.00, 0.00, 107059.11, 17271.28, 0.000, 0.000, 0.000, 13:48:14.343, 1552240094343
100, 55971.80, 66263.20, 0.00, 0.00, 0.00, 0.00, 107151.78, 17322.18, 0.210, 0.026, 0.992, 13:48:14.343, 1552240094343
101, 55921.56, 66224.22, 0.00, 0.00, 0.00, 0.00, 107115.03, 17302.75, 0.000, 0.000, 0.000, 13:48:14.343, 1552240094343
102, 55810.23, 66127.55, 0.00, 0.00, 0.00, 0.00, 107017.78, 17243.90, 0.000, 0.000, 0.000, 13:48:14.344, 1552240094344
103, 55850.50, 66164.42, 0.00, 0.00, 0.00, 0.00, 107049.50, 17260.73, 0.000, 0.000, 0.000, 13:48:14.344, 1552240094344
104, 55959.65, 66265.48, 0.00, 0.00, 0.00, 0.00, 107140.13, 17306.73, 0.000, 0.000, 0.000, 13:48:14.344, 1552240094344
105, 55938.79, 66255.30, 0.00, 0.00, 0.00, 0.00, 107139.46, 17314.02, 0.000, 0.000, 0.000, 13:48:14.344, 1552240094344
106, 55814.85, 66142.63, 0.00, 0.00, 0.00, 0.00, 107027.05, 17250.07, 0.000, 0.000, 0.000, 13:48:14.344, 1552240094344
107, 55843.53, 66157.92, 0.00, 0.00, 0.00, 0.00, 107037.31, 17252.62, 0.000, 0.000, 0.000, 13:48:14.344, 1552240094344
108, 55945.25, 66243.62, 0.00, 0.00, 0.00, 0.00, 107114.61, 17289.48, 0.000, 0.000, 0.000, 13:48:14.344, 1552240094344
109, 55953.37, 66257.45, 0.00, 0.00, 0.00, 0.00, 107142.26, 17316.81, 0.000, 0.000, 0.000, 13:48:14.344, 1552240094344
110, 55815.46, 66134.88, 0.00, 0.00, 0.00, 0.00, 107021.38, 17236.95, 0.208, 0.026, 0.994, 13:48:14.344, 1552240094344
111, 55812.89, 66125.47, 0.00, 0.00, 0.00, 0.00, 107014.88, 17237.58, 0.000, 0.000, 0.000, 13:48:14.344, 1552240094344
112, 55897.38, 66204.73, 0.00, 0.00, 0.00, 0.00, 107090.20, 17275.84, 0.000, 0.000, 0.000, 13:48:14.345, 1552240094345
113, 55944.49, 66251.84, 0.00, 0.00, 0.00, 0.00, 107144.52, 17311.36, 0.000, 0.000, 0.000, 13:48:14.345, 1552240094345
114, 55833.74, 66154.10, 0.00, 0.00, 0.00, 0.00, 107039.26, 17247.63, 0.000, 0.000, 0.000, 13:48:14.345, 1552240094345
115, 55831.50, 66139.30, 0.00, 0.00, 0.00, 0.00, 107014.43, 17240.21, 0.000, 0.000, 0.000, 13:48:14.345, 1552240094345
116, 55912.42, 66210.29, 0.00, 0.00, 0.00, 0.00, 107080.61, 17274.05, 0.000, 0.000, 0.000, 13:48:14.345, 1552240094345
117, 55989.08, 66278.87, 0.00, 0.00, 0.00, 0.00, 107156.20, 17319.29, 0.000, 0.000, 0.000, 13:48:14.345, 1552240094345
118, 55871.78, 66182.64, 0.00, 0.00, 0.00, 0.00, 107063.98, 17264.17, 0.000, 0.000, 0.000, 13:48:14.345, 1552240094345
119, 55799.30, 66116.59, 0.00, 0.00, 0.00, 0.00, 107005.55, 17234.11, 0.000, 0.000, 0.000, 13:48:14.345, 1552240094345
120, 55868.70, 66175.42, 0.00, 0.00, 0.00, 0.00, 107058.37, 17256.02, 0.204, 0.032, 0.998, 13:48:14.345, 1552240094345
121, 55989.06, 66279.11, 0.00, 0.00, 0.00, 0.00, 107163.45, 17326.98, 0.000, 0.000, 0.000, 13:48:14.346, 1552240094346
122, 55903.45, 66211.90, 0.00, 0.00, 0.00, 0.00, 107099.12, 17290.88, 0.000, 0.000, 0.000, 13:48:14.346, 1552240094346
123, 55809.53, 66131.05, 0.00, 0.00, 0.00, 0.00, 107013.16, 17236.32, 0.000, 0.000, 0.000, 13:48:14.346, 1552240094346
124, 55860.34, 66175.16, 0.00, 0.00, 0.00, 0.00, 107045.48, 17246.52, 0.000, 0.000, 0.000, 13:48:14.346, 1552240094346
125, 55973.93, 66271.16, 0.00, 0.00, 0.00, 0.00, 107145.48, 17316.75, 0.000, 0.000, 0.000, 13:48:14.346, 1552240094346
126, 55938.66, 66241.13, 0.00, 0.00, 0.00, 0.00, 107118.81, 17311.38, 0.000, 0.000, 0.000, 13:48:14.346, 1552240094346
127, 55822.83, 66138.50, 0.00, 0.00, 0.00, 0.00, 107011.61, 17242.11, 0.000, 0.000, 0.000, 13:48:14.346, 1552240094346
128, 55851.93, 66163.27, 0.00, 0.00, 0.00, 0.00, 107029.16, 17245.51, 0.000, 0.000, 0.000, 13:48:14.346, 1552240094346
129, 55958.95, 66258.34, 0.00, 0.00, 0.00, 0.00, 107128.24, 17306.02, 0.000, 0.000, 0.000, 13:48:14.346, 1552240094346
130, 55953.57, 66256.18, 0.00, 0.00, 0.00, 0.00, 107137.07, 17317.53, 0.202, 0.030, 0.996, 13:48:14.346, 1552240094346
131, 55801.20, 66129.34, 0.00, 0.00, 0.00, 0.00, 107017.09, 17239.52, 0.000, 0.000, 0.000, 13:48:14.347, 1552240094347
132, 55827.13, 66144.42, 0.00, 0.00, 0.00, 0.00, 107026.38, 17243.83, 0.000, 0.000, 0.000, 13:48:14.347, 1552240094347
133, 55929.72, 66232.62, 0.00, 0.00, 0.00, 0.00, 107107.61, 17283.55, 0.000, 0.000, 0.000, 13:48:14.347, 1552240094347
134, 55963.09, 66259.30, 0.00, 0.00, 0.00, 0.00, 107144.98, 17320.88, 0.000, 0.000, 0.000, 13:48:14.347, 1552240094347
135, 55823.32, 66138.38, 0.00, 0.00, 0.00, 0.00, 107022.12, 17242.80, 0.000, 0.000, 0.000, 13:48:14.347, 1552240094347
136, 55813.96, 66123.95, 0.00, 0.00, 0.00, 0.00, 107003.09, 17228.08, 0.000, 0.000, 0.000, 13:48:14.347, 1552240094347
137, 55907.88, 66209.64, 0.00, 0.00, 0.00, 0.00, 107082.95, 17271.71, 0.000, 0.000, 0.000, 13:48:14.350, 1552240094350
138, 55968.83, 66266.98, 0.00, 0.00, 0.00, 0.00, 107140.31, 17303.92, 0.000, 0.000, 0.000, 13:48:14.350, 1552240094350
139, 55840.78, 66161.34, 0.00, 0.00, 0.00, 0.00, 107042.03, 17253.82, 0.000, 0.000, 0.000, 13:48:14.350, 1552240094350
140, 55809.80, 66127.79, 0.00, 0.00, 0.00, 0.00, 107011.30, 17238.83, 0.200, 0.026, 0.994, 13:48:14.350, 1552240094350
141, 55901.60, 66207.66, 0.00, 0.00, 0.00, 0.00, 107080.12, 17272.29, 0.000, 0.000, 0.000, 13:48:14.350, 1552240094350
142, 55997.06, 66289.55, 0.00, 0.00, 0.00, 0.00, 107162.04, 17326.15, 0.000, 0.000, 0.000, 13:48:14.350, 1552240094350
143, 55886.22, 66198.73, 0.00, 0.00, 0.00, 0.00, 107074.20, 17273.18, 0.000, 0.000, 0.000, 13:48:14.350, 1552240094350
144, 55803.83, 66126.70, 0.00, 0.00, 0.00, 0.00, 107005.11, 17229.71, 0.000, 0.000, 0.000, 13:48:14.351, 1552240094351
145, 55877.35, 66186.71, 0.00, 0.00, 0.00, 0.00, 107055.62, 17253.09, 0.000, 0.000, 0.000, 13:48:14.351, 1552240094351
146, 55986.94, 66282.42, 0.00, 0.00, 0.00, 0.00, 107156.59, 17319.32, 0.000, 0.000, 0.000, 13:48:14.351, 1552240094351
147, 55912.93, 66222.09, 0.00, 0.00, 0.00, 0.00, 107100.37, 17288.16, 0.000, 0.000, 0.000, 13:48:14.351, 1552240094351
148, 55812.68, 66135.52, 0.00, 0.00, 0.00, 0.00, 107016.20, 17236.73, 0.000, 0.000, 0.000, 13:48:14.351, 1552240094351
149, 55860.11, 66174.88, 0.00, 0.00, 0.00, 0.00, 107051.48, 17254.61, 0.000, 0.000, 0.000, 13:48:14.351, 1552240094351
150, 55980.97, 66280.95, 0.00, 0.00, 0.00, 0.00, 107150.46, 17316.52, 0.200, 0.030, 0.996, 13:48:14.351, 1552240094351
151, 55936.67, 66249.05, 0.00, 0.00, 0.00, 0.00, 107123.57, 17307.54, 0.000, 0.000, 0.000, 13:48:14.351, 1552240094351
152, 55818.56, 66141.11, 0.00, 0.00, 0.00, 0.00, 107015.88, 17242.83, 0.000, 0.000, 0.000, 13:48:14.351, 1552240094351
153, 55847.64, 66163.30, 0.00, 0.00, 0.00, 0.00, 107035.44, 17253.31, 0.000, 0.000, 0.000, 13:48:14.352, 1552240094352
154, 55953.77, 66258.13, 0.00, 0.00, 0.00, 0.00, 107127.13, 17303.83, 0.000, 0.000, 0.000, 13:48:14.352, 1552240094352
155, 55951.64, 66259.93, 0.00, 0.00, 0.00, 0.00, 107132.94, 17309.41, 0.000, 0.000, 0.000, 13:48:14.352, 1552240094352
156, 55806.31, 66142.32, 0.00, 0.00, 0.00, 0.00, 107020.23, 17238.40, 0.000, 0.000, 0.000, 13:48:14.352, 1552240094352
157, 55837.52, 66161.30, 0.00, 0.00, 0.00, 0.00, 107033.13, 17249.20, 0.000, 0.000, 0.000, 13:48:14.352, 1552240094352
158, 55933.52, 66246.12, 0.00, 0.00, 0.00, 0.00, 107114.20, 17286.82, 0.000, 0.000, 0.000, 13:48:14.352, 1552240094352
159, 55971.94, 66281.21, 0.00, 0.00, 0.00, 0.00, 107156.85, 17319.27, 0.200, 0.024, 0.998, 13:48:14.352, 1552240094352
160, 55838.97, 66169.32, 0.00, 0.00, 0.00, 0.00, 107043.06, 17246.45, 0.000, 0.000, 0.000, 13:48:14.352, 1552240094352
161, 55814.94, 66148.80, 0.00, 0.00, 0.00, 0.00, 107026.83, 17245.51, 0.000, 0.000, 0.000, 13:48:14.352, 1552240094352
162, 55908.04, 66233.76, 0.00, 0.00, 0.00, 0.00, 107105.55, 17285.77, 0.000, 0.000, 0.000, 13:48:14.353, 1552240094353
163, 55991.95, 66301.33, 0.00, 0.00, 0.00, 0.00, 107178.87, 17340.95, 0.000, 0.000, 0.000, 13:48:14.353, 1552240094353
164, 55857.81, 66191.05, 0.00, 0.00, 0.00, 0.00, 107070.87, 17275.30, 0.000, 0.000, 0.000, 13:48:14.353, 1552240094353
165, 55813.71, 66147.80, 0.00, 0.00, 0.00, 0.00, 107028.02, 17250.96, 0.000, 0.000, 0.000, 13:48:14.353, 1552240094353
166, 55910.76, 66226.25, 0.00, 0.00, 0.00, 0.00, 107094.31, 17282.66, 0.000, 0.000, 0.000, 13:48:14.353, 1552240094353
167, 56007.93, 66310.54, 0.00, 0.00, 0.00, 0.00, 107181.98, 17342.56, 0.000, 0.000, 0.000, 13:48:14.353, 1552240094353
168, 55894.43, 66218.49, 0.00, 0.00, 0.00, 0.00, 107090.87, 17286.01, 0.000, 0.000, 0.000, 13:48:14.353, 1552240094353
169, 55808.23, 66143.77, 0.00, 0.00, 0.00, 0.00, 107019.68, 17242.20, 0.198, 0.022, 0.996, 13:48:14.353, 1552240094353
170, 55874.44, 66199.47, 0.00, 0.00, 0.00, 0.00, 107069.01, 17261.54, 0.000, 0.000, 0.000, 13:48:14.353, 1552240094353
171, 56003.75, 66303.72, 0.00, 0.00, 0.00, 0.00, 107170.93, 17326.60, 0.000, 0.000, 0.000, 13:48:14.354, 1552240094354
172, 55933.32, 66247.51, 0.00, 0.00, 0.00, 0.00, 107119.81, 17305.01, 0.000, 0.000, 0.000, 13:48:14.354, 1552240094354
173, 55813.22, 66147.99, 0.00, 0.00, 0.00, 0.00, 107027.37, 17248.48, 0.000, 0.000, 0.000, 13:48:14.354, 1552240094354
174, 55865.77, 66187.72, 0.00, 0.00, 0.00, 0.00, 107061.59, 17264.84, 0.000, 0.000, 0.000, 13:48:14.354, 1552240094354
175, 55991.63, 66291.54, 0.00, 0.00, 0.00, 0.00, 107163.18, 17325.93, 0.000, 0.000, 0.000, 13:48:14.354, 1552240094354
176, 55957.88, 66267.47, 0.00, 0.00, 0.00, 0.00, 107148.13, 17323.88, 0.000, 0.000, 0.000, 13:48:14.354, 1552240094354
177, 55835.35, 66160.73, 0.00, 0.00, 0.00, 0.00, 107040.63, 17258.56, 0.000, 0.000, 0.000, 13:48:14.354, 1552240094354
178, 55858.30, 66177.95, 0.00, 0.00, 0.00, 0.00, 107056.56, 17263.19, 0.000, 0.000, 0.000, 13:48:14.354, 1552240094354
179, 55967.20, 66271.94, 0.00, 0.00, 0.00, 0.00, 107144.80, 17307.76, 0.196, 0.024, 0.998, 13:48:14.354, 1552240094354
180, 55976.48, 66280.32, 0.00, 0.00, 0.00, 0.00, 107156.09, 17322.96, 0.000, 0.000, 0.000, 13:48:14.354, 1552240094354
181, 55823.17, 66153.74, 0.00, 0.00, 0.00, 0.00, 107037.00, 17254.67, 0.000, 0.000, 0.000, 13:48:14.355, 1552240094355
182, 55815.30, 66144.53, 0.00, 0.00, 0.00, 0.00, 107030.77, 17245.64, 0.000, 0.000, 0.000, 13:48:14.355, 1552240094355
183, 55941.92, 66246.63, 0.00, 0.00, 0.00, 0.00, 107118.36, 17290.95, 0.000, 0.000, 0.000, 13:48:14.355, 1552240094355
184, 55996.06, 66293.13, 0.00, 0.00, 0.00, 0.00, 107167.58, 17330.85, 0.000, 0.000, 0.000, 13:48:14.355, 1552240094355
185, 55856.94, 66175.60, 0.00, 0.00, 0.00, 0.00, 107051.46, 17257.58, 0.000, 0.000, 0.000, 13:48:14.355, 1552240094355
186, 55829.20, 66149.49, 0.00, 0.00, 0.00, 0.00, 107030.90, 17248.13, 0.000, 0.000, 0.000, 13:48:14.355, 1552240094355
187, 55922.48, 66231.23, 0.00, 0.00, 0.00, 0.00, 107107.27, 17293.14, 0.000, 0.000, 0.000, 13:48:14.355, 1552240094355
188, 56008.08, 66303.85, 0.00, 0.00, 0.00, 0.00, 107175.91, 17339.77, 0.000, 0.000, 0.000, 13:48:14.355, 1552240094355
189, 55877.55, 66196.56, 0.00, 0.00, 0.00, 0.00, 107071.94, 17275.06, 0.202, 0.028, 0.996, 13:48:14.355, 1552240094355
190, 55830.39, 66153.41, 0.00, 0.00, 0.00, 0.00, 107028.40, 17248.13, 0.000, 0.000, 0.000, 13:48:14.356, 1552240094356
191, 55915.88, 66227.05, 0.00, 0.00, 0.00, 0.00, 107093.24, 17281.23, 0.000, 0.000, 0.000, 13:48:14.356, 1552240094356
192, 56018.01, 66315.88, 0.00, 0.00, 0.00, 0.00, 107186.70, 17347.23, 0.000, 0.000, 0.000, 13:48:14.356, 1552240094356
193, 55915.37, 66229.29, 0.00, 0.00, 0.00, 0.00, 107104.33, 17294.37, 0.000, 0.000, 0.000, 13:48:14.356, 1552240094356
194, 55833.61, 66154.03, 0.00, 0.00, 0.00, 0.00, 107035.70, 17255.63, 0.000, 0.000, 0.000, 13:48:14.356, 1552240094356
195, 55895.43, 66205.77, 0.00, 0.00, 0.00, 0.00, 107081.46, 17277.85, 0.000, 0.000, 0.000, 13:48:14.356, 1552240094356
196, 56004.66, 66301.02, 0.00, 0.00, 0.00, 0.00, 107174.51, 17334.87, 0.000, 0.000, 0.000, 13:48:14.356, 1552240094356
197, 55929.07, 66241.45, 0.00, 0.00, 0.00, 0.00, 107119.77, 17307.20, 0.000, 0.000, 0.000, 13:48:14.356, 1552240094356
198, 55814.83, 66141.89, 0.00, 0.00, 0.00, 0.00, 107021.06, 17245.18, 0.000, 0.000, 0.000, 13:48:14.356, 1552240094356
199, 55875.31, 66187.56, 0.00, 0.00, 0.00, 0.00, 107052.38, 17254.45, 0.204, 0.030, 0.996, 13:48:14.357, 1552240094357
200, 55993.29, 66293.64, 0.00, 0.00, 0.00, 0.00, 107157.23, 17319.29, 0.000, 0.000, 0.000, 13:48:14.357, 1552240094357
201, 55962.38, 66272.88, 0.00, 0.00, 0.00, 0.00, 107146.62, 17316.10, 0.000, 0.000, 0.000, 13:48:14.357, 1552240094357
202, 55831.82, 66159.41, 0.00, 0.00, 0.00, 0.00, 107040.73, 17253.67, 0.000, 0.000, 0.000, 13:48:14.357, 1552240094357
203, 55864.61, 66181.14, 0.00, 0.00, 0.00, 0.00, 107058.57, 17262.90, 0.000, 0.000, 0.000, 13:48:14.357, 1552240094357
204, 55972.07, 66275.47, 0.00, 0.00, 0.00, 0.00, 107148.58, 17322.02, 0.000, 0.000, 0.000, 13:48:14.357, 1552240094357
205, 55981.26, 66286.94, 0.00, 0.00, 0.00, 0.00, 107163.73, 17338.49, 0.000, 0.000, 0.000, 13:48:14.357, 1552240094357
206, 55848.34, 66174.41, 0.00, 0.00, 0.00, 0.00, 107049.20, 17266.10, 0.000, 0.000, 0.000, 13:48:14.357, 1552240094357
207, 55854.64, 66176.95, 0.00, 0.00, 0.00, 0.00, 107051.38, 17264.73, 0.000, 0.000, 0.000, 13:48:14.357, 1552240094357
208, 55945.43, 66259.53, 0.00, 0.00, 0.00, 0.00, 107130.21, 17306.04, 0.000, 0.000, 0.000, 13:48:14.357, 1552240094357
209, 56002.41, 66305.91, 0.00, 0.00, 0.00, 0.00, 107178.76, 17345.18, 0.204, 0.028, 0.994, 13:48:14.358, 1552240094358
210, 55873.28, 66194.53, 0.00, 0.00, 0.00, 0.00, 107065.10, 17275.10, 0.000, 0.000, 0.000, 13:48:14.798, 1552240094798
211, 55846.64, 66169.23, 0.00, 0.00, 0.00, 0.00, 107042.81, 17265.40, 0.000, 0.000, 0.000, 13:48:14.798, 1552240094798
212, 55942.68, 66250.88, 0.00, 0.00, 0.00, 0.00, 107114.88, 17301.70, 0.000, 0.000, 0.000, 13:48:14.798, 1552240094798
213, 56020.51, 66318.61, 0.00, 0.00, 0.00, 0.00, 107189.55, 17351.95, 0.000, 0.000, 0.000, 13:48:14.799, 1552240094799
214, 55900.01, 66217.82, 0.00, 0.00, 0.00, 0.00, 107088.63, 17290.79, 0.000, 0.000, 0.000, 13:48:14.799, 1552240094799
215, 55848.69, 66170.51, 0.00, 0.00, 0.00, 0.00, 107042.26, 17262.03, 0.000, 0.000, 0.000, 13:48:14.800, 1552240094800
216, 55925.36, 66235.64, 0.00, 0.00, 0.00, 0.00, 107096.70, 17280.22, 0.000, 0.000, 0.000, 13:48:14.800, 1552240094800
217, 56025.29, 66323.77, 0.00, 0.00, 0.00, 0.00, 107192.13, 17350.18, 0.000, 0.000, 0.000, 13:48:14.800, 1552240094800
218, 55915.88, 66234.88, 0.00, 0.00, 0.00, 0.00, 107108.91, 17302.60, 0.000, 0.000, 0.000, 13:48:14.800, 1552240094800
219, 55837.76, 66162.15, 0.00, 0.00, 0.00, 0.00, 107037.07, 17263.82, 0.200, 0.024, 0.996, 13:48:14.800, 1552240094800
220, 55909.63, 66220.82, 0.00, 0.00, 0.00, 0.00, 107084.23, 17285.63, 0.000, 0.000, 0.000, 13:48:14.800, 1552240094800
221, 56016.18, 66314.18, 0.00, 0.00, 0.00, 0.00, 107177.69, 17340.24, 0.000, 0.000, 0.000, 13:48:14.800, 1552240094800
222, 55944.52, 66260.02, 0.00, 0.00, 0.00, 0.00, 107131.17, 17317.26, 0.000, 0.000, 0.000, 13:48:14.801, 1552240094801
223, 55827.14, 66157.95, 0.00, 0.00, 0.00, 0.00, 107034.77, 17259.79, 0.000, 0.000, 0.000, 13:48:14.801, 1552240094801
224, 55885.75, 66201.02, 0.00, 0.00, 0.00, 0.00, 107067.96, 17276.02, 0.000, 0.000, 0.000, 13:48:14.801, 1552240094801
225, 55990.38, 66296.73, 0.00, 0.00, 0.00, 0.00, 107161.50, 17330.25, 0.000, 0.000, 0.000, 13:48:14.801, 1552240094801
226, 55962.98, 66278.91, 0.00, 0.00, 0.00, 0.00, 107150.99, 17331.23, 0.000, 0.000, 0.000, 13:48:14.802, 1552240094802
227, 55851.35, 66173.68, 0.00, 0.00, 0.00, 0.00, 107042.91, 17266.79, 0.000, 0.000, 0.000, 13:48:14.802, 1552240094802
228, 55864.41, 66186.28, 0.00, 0.00, 0.00, 0.00, 107055.77, 17269.43, 0.000, 0.000, 0.000, 13:48:14.802, 1552240094802
229, 55976.84, 66285.34, 0.00, 0.00, 0.00, 0.00, 107149.66, 17316.66, 0.200, 0.026, 0.996, 13:48:14.802, 1552240094802
230, 55996.97, 66305.29, 0.00, 0.00, 0.00, 0.00, 107175.80, 17342.52, 0.000, 0.000, 0.000, 13:48:14.802, 1552240094802
231, 55854.84, 66182.93, 0.00, 0.00, 0.00, 0.00, 107057.77, 17275.91, 0.000, 0.000, 0.000, 13:48:14.802, 1552240094802
232, 55856.49, 66179.45, 0.00, 0.00, 0.00, 0.00, 107050.84, 17268.94, 0.000, 0.000, 0.000, 13:48:14.803, 1552240094803
233, 55959.47, 66266.77, 0.00, 0.00, 0.00, 0.00, 107130.81, 17309.93, 0.000, 0.000, 0.000, 13:48:14.803, 1552240094803
234, 56014.97, 66316.48, 0.00, 0.00, 0.00, 0.00, 107184.63, 17350.27, 0.000, 0.000, 0.000, 13:48:14.803, 1552240094803
235, 55876.54, 66201.53, 0.00, 0.00, 0.00, 0.00, 107069.95, 17280.65, 0.000, 0.000, 0.000, 13:48:14.803, 1552240094803
236, 55847.15, 66173.61, 0.00, 0.00, 0.00, 0.00, 107042.95, 17263.28, 0.000, 0.000, 0.000, 13:48:14.803, 1552240094803
237, 55941.07, 66254.37, 0.00, 0.00, 0.00, 0.00, 107115.95, 17299.60, 0.000, 0.000, 0.000, 13:48:14.803, 1552240094803
238, 56028.58, 66331.98, 0.00, 0.00, 0.00, 0.00, 107204.57, 17365.70, 0.000, 0.000, 0.000, 13:48:14.803, 1552240094803
239, 55905.82, 66231.97, 0.00, 0.00, 0.00, 0.00, 107100.84, 17302.06, 0.200, 0.026, 0.990, 13:48:14.803, 1552240094803
240, 55839.30, 66170.86, 0.00, 0.00, 0.00, 0.00, 107033.31, 17256.84, 0.000, 0.000, 0.000, 13:48:14.803, 1552240094803
241, 55921.63, 66241.00, 0.00, 0.00, 0.00, 0.00, 107093.59, 17288.38, 0.000, 0.000, 0.000, 13:48:14.803, 1552240094803
242, 56031.51, 66336.55, 0.00, 0.00, 0.00, 0.00, 107194.52, 17351.46, 0.000, 0.000, 0.000, 13:48:14.804, 1552240094804
243, 55937.79, 66257.68, 0.00, 0.00, 0.00, 0.00, 107119.86, 17312.07, 0.000, 0.000, 0.000, 13:48:14.804, 1552240094804
244, 55837.02, 66167.22, 0.00, 0.00, 0.00, 0.00, 107028.64, 17250.83, 0.000, 0.000, 0.000, 13:48:14.804, 1552240094804
245, 55898.45, 66218.12, 0.00, 0.00, 0.00, 0.00, 107074.44, 17273.70, 0.000, 0.000, 0.000, 13:48:14.804, 1552240094804
246, 56026.97, 66329.58, 0.00, 0.00, 0.00, 0.00, 107183.30, 17340.73, 0.000, 0.000, 0.000, 13:48:14.804, 1552240094804
247, 55968.79, 66285.62, 0.00, 0.00, 0.00, 0.00, 107145.81, 17325.08, 0.000, 0.000, 0.000, 13:48:14.804, 1552240094804
248, 55837.07, 66171.31, 0.00, 0.00, 0.00, 0.00, 107035.52, 17259.57, 0.000, 0.000, 0.000, 13:48:14.804, 1552240094804
249, 55876.45, 66206.71, 0.00, 0.00, 0.00, 0.00, 107067.34, 17274.84, 0.194, 0.030, 0.984, 13:48:14.804, 1552240094804
250, 56002.94, 66315.68, 0.00, 0.00, 0.00, 0.00, 107173.34, 17338.54, 0.000, 0.000, 0.000, 13:48:14.804, 1552240094804
251, 56007.01, 66312.77, 0.00, 0.00, 0.00, 0.00, 107172.48, 17342.74, 0.000, 0.000, 0.000, 13:48:14.805, 1552240094805
252, 55858.04, 66184.81, 0.00, 0.00, 0.00, 0.00, 107048.42, 17262.81, 0.000, 0.000, 0.000, 13:48:14.805, 1552240094805
253, 55877.48, 66199.05, 0.00, 0.00, 0.00, 0.00, 107063.22, 17275.73, 0.000, 0.000, 0.000, 13:48:14.805, 1552240094805
254, 55988.05, 66294.11, 0.00, 0.00, 0.00, 0.00, 107151.60, 17323.50, 0.000, 0.000, 0.000, 13:48:14.806, 1552240094806
255, 56015.37, 66318.72, 0.00, 0.00, 0.00, 0.00, 107182.06, 17347.52, 0.000, 0.000, 0.000, 13:48:14.806, 1552240094806
0, 55872.00, 66196.32, 0.00, 0.00, 0.00, 0.00, 107059.78, 17274.12, 0.000, 0.000, 0.000, 13:48:14.806, 1552240094806
1, 55864.54, 66187.49, 0.00, 0.00, 0.00, 0.00, 107052.07, 17271.84, 0.000, 0.000, 0.000, 13:48:14.806, 1552240094806
2, 55968.59, 66278.02, 0.00, 0.00, 0.00, 0.00, 107131.44, 17311.49, 0.000, 0.000, 0.000, 13:48:14.806, 1552240094806
3, 56035.62, 66338.95, 0.00, 0.00, 0.00, 0.00, 107196.88, 17361.63, 0.202, 0.028, 0.982, 13:48:14.806, 1552240094806
4, 55892.32, 66219.25, 0.00, 0.00, 0.00, 0.00, 107077.97, 17286.97, 0.000, 0.000, 0.000, 13:48:14.806, 1552240094806
5, 55848.92, 66178.06, 0.00, 0.00, 0.00, 0.00, 107039.57, 17262.16, 0.000, 0.000, 0.000, 13:48:14.806, 1552240094806
6, 55943.57, 66257.09, 0.00, 0.00, 0.00, 0.00, 107110.31, 17298.19, 0.000, 0.000, 0.000, 13:48:14.807, 1552240094807
7, 56037.41, 66341.63, 0.00, 0.00, 0.00, 0.00, 107206.65, 17370.12, 0.000, 0.000, 0.000, 13:48:14.807, 1552240094807
8, 55911.30, 66235.68, 0.00, 0.00, 0.00, 0.00, 107097.77, 17302.78, 0.000, 0.000, 0.000, 13:48:14.807, 1552240094807
9, 55835.17, 66167.42, 0.00, 0.00, 0.00, 0.00, 107025.83, 17255.43, 0.000, 0.000, 0.000, 13:48:14.807, 1552240094807
10, 55924.46, 66243.28, 0.00, 0.00, 0.00, 0.00, 107092.97, 17291.94, 0.000, 0.000, 0.000, 13:48:14.807, 1552240094807
11, 56059.40, 66360.07, 0.00, 0.00, 0.00, 0.00, 107214.07, 17376.33, 0.000, 0.000, 0.000, 13:48:14.807, 1552240094807
12, 55957.95, 66279.36, 0.00, 0.00, 0.00, 0.00, 107134.50, 17326.92, 0.202, 0.026, 0.988, 13:48:14.807, 1552240094807
13, 55845.07, 66176.77, 0.00, 0.00, 0.00, 0.00, 107032.76, 17266.39, 0.000, 0.000, 0.000, 13:48:14.807, 1552240094807
14, 55909.73, 66229.29, 0.00, 0.00, 0.00, 0.00, 107081.59, 17294.68, 0.000, 0.000, 0.000, 13:48:14.808, 1552240094808
15, 56051.91, 66352.58, 0.00, 0.00, 0.00, 0.00, 107205.89, 17369.16, 0.000, 0.000, 0.000, 13:48:14.808, 1552240094808
16, 55995.19, 66309.24, 0.00, 0.00, 0.00, 0.00, 107164.32, 17343.25, 0.000, 0.000, 0.000, 13:48:14.808, 1552240094808
17, 55835.08, 66171.76, 0.00, 0.00, 0.00, 0.00, 107028.59, 17258.47, 0.000, 0.000, 0.000, 13:48:14.808, 1552240094808
18, 55880.72, 66208.46, 0.00, 0.00, 0.00, 0.00, 107062.02, 17275.19, 0.000, 0.000, 0.000, 13:48:14.808, 1552240094808
19, 56021.76, 66331.10, 0.00, 0.00, 0.00, 0.00, 107182.84, 17347.39, 0.000, 0.000, 0.000, 13:48:14.808, 1552240094808
20, 56027.86, 66334.77, 0.00, 0.00, 0.00, 0.00, 107191.99, 17361.43, 0.000, 0.000, 0.000, 13:48:14.808, 1552240094808
21, 55852.76, 66184.25, 0.00, 0.00, 0.00, 0.00, 107040.42, 17262.88, 0.000, 0.000, 0.000, 13:48:14.808, 1552240094808
22, 55871.63, 66199.56, 0.00, 0.00, 0.00, 0.00, 107052.16, 17266.79, 0.206, 0.026, 0.992, 13:48:14.809, 1552240094809
23, 55999.48, 66309.40, 0.00, 0.00, 0.00, 0.00, 107156.47, 17325.53, 0.000, 0.000, 0.000, 13:48:14.809, 1552240094809
24, 56055.22, 66356.49, 0.00, 0.00, 0.00, 0.00, 107211.73, 17370.70, 0.000, 0.000, 0.000, 13:48:14.809, 1552240094809
25, 55871.83, 66202.16, 0.00, 0.00, 0.00, 0.00, 107059.55, 17271.10, 0.000, 0.000, 0.000, 13:48:14.809, 1552240094809
26, 55853.74, 66178.95, 0.00, 0.00, 0.00, 0.00, 107037.49, 17256.84, 0.000, 0.000, 0.000, 13:48:14.809, 1552240094809
27, 55974.13, 66281.28, 0.00, 0.00, 0.00, 0.00, 107134.01, 17309.28, 0.000, 0.000, 0.000, 13:48:14.809, 1552240094809
28, 56067.43, 66363.69, 0.00, 0.00, 0.00, 0.00, 107230.95, 17390.35, 0.000, 0.000, 0.000, 13:48:14.809, 1552240094809
29, 55897.78, 66223.08, 0.00, 0.00, 0.00, 0.00, 107085.62, 17295.78, 0.000, 0.000, 0.000, 13:48:14.809, 1552240094809
30, 55845.83, 66176.78, 0.00, 0.00, 0.00, 0.00, 107039.10, 17265.43, 0.000, 0.000, 0.000, 13:48:14.810, 1552240094810
31, 55948.25, 66265.55, 0.00, 0.00, 0.00, 0.00, 107116.46, 17301.99, 0.000, 0.000, 0.000, 13:48:14.810, 1552240094810
32, 56063.52, 66365.99, 0.00, 0.00, 0.00, 0.00, 107226.88, 17376.69, 0.204, 0.030, 0.990, 13:48:14.810, 1552240094810
33, 55928.51, 66249.18, 0.00, 0.00, 0.00, 0.00, 107111.14, 17304.14, 0.000, 0.000, 0.000, 13:48:14.810, 1552240094810
34, 55838.63, 66166.28, 0.00, 0.00, 0.00, 0.00, 107033.78, 17259.68, 0.000, 0.000, 0.000, 13:48:14.810, 1552240094810
35, 55921.74, 66236.27, 0.00, 0.00, 0.00, 0.00, 107095.97, 17291.71, 0.000, 0.000, 0.000, 13:48:14.810, 1552240094810
36, 56051.63, 66350.10, 0.00, 0.00, 0.00, 0.00, 107217.58, 17370.95, 0.000, 0.000, 0.000, 13:48:14.810, 1552240094810
37, 55959.29, 66273.34, 0.00, 0.00, 0.00, 0.00, 107143.98, 17327.03, 0.000, 0.000, 0.000, 13:48:14.810, 1552240094810
38, 55834.16, 66161.20, 0.00, 0.00, 0.00, 0.00, 107030.81, 17254.79, 0.000, 0.000, 0.000, 13:48:14.810, 1552240094810
39, 55892.64, 66211.09, 0.00, 0.00, 0.00, 0.00, 107074.64, 17274.61, 0.000, 0.000, 0.000, 13:48:14.811, 1552240094811
40, 56025.83, 66326.99, 0.00, 0.00, 0.00, 0.00, 107185.95, 17341.58, 0.000, 0.000, 0.000, 13:48:14.811, 1552240094811
41, 55989.06, 66299.14, 0.00, 0.00, 0.00, 0.00, 107159.63, 17330.07, 0.000, 0.000, 0.000, 13:48:14.811, 1552240094811
42, 55855.13, 66179.65, 0.00, 0.00, 0.00, 0.00, 107045.32, 17260.15, 0.204, 0.026, 0.996, 13:48:14.811, 1552240094811
43, 55890.18, 66206.78, 0.00, 0.00, 0.00, 0.00, 107068.14, 17271.62, 0.000, 0.000, 0.000, 13:48:14.811, 1552240094811
44, 56011.95, 66315.03, 0.00, 0.00, 0.00, 0.00, 107168.77, 17326.20, 0.000, 0.000, 0.000, 13:48:14.811, 1552240094811
45, 56012.69, 66321.24, 0.00, 0.00, 0.00, 0.00, 107180.37, 17341.60, 0.000, 0.000, 0.000, 13:48:14.811, 1552240094811
46, 55856.89, 66192.55, 0.00, 0.00, 0.00, 0.00, 107054.34, 17263.66, 0.000, 0.000, 0.000, 13:48:14.811, 1552240094811
47, 55875.70, 66203.92, 0.00, 0.00, 0.00, 0.00, 107065.01, 17275.62, 0.000, 0.000, 0.000, 13:48:14.812, 1552240094812
48, 55997.89, 66303.23, 0.00, 0.00, 0.00, 0.00, 107156.23, 17327.25, 0.000, 0.000, 0.000, 13:48:14.812, 1552240094812
49, 56033.00, 66337.72, 0.00, 0.00, 0.00, 0.00, 107198.65, 17359.19, 0.000, 0.000, 0.000, 13:48:14.812, 1552240094812
50, 55887.56, 66212.08, 0.00, 0.00, 0.00, 0.00, 107067.83, 17276.09, 0.000, 0.000, 0.000, 13:48:14.812, 1552240094812
51, 55867.54, 66191.65, 0.00, 0.00, 0.00, 0.00, 107045.90, 17261.07, 0.000, 0.000, 0.000, 13:48:14.812, 1552240094812
52, 55970.71, 66282.27, 0.00, 0.00, 0.00, 0.00, 107125.73, 17300.21, 0.200, 0.028, 0.998, 13:48:14.812, 1552240094812
53, 56051.96, 66355.06, 0.00, 0.00, 0.00, 0.00, 107202.74, 17354.47, 0.000, 0.000, 0.000, 13:48:14.812, 1552240094812
54, 55907.21, 66234.56, 0.00, 0.00, 0.00, 0.00, 107083.98, 17278.97, 0.000, 0.000, 0.000, 13:48:14.812, 1552240094812
55, 55860.74, 66188.84, 0.00, 0.00, 0.00, 0.00, 107043.80, 17263.91, 0.000, 0.000, 0.000, 13:48:14.813, 1552240094813
56, 55953.63, 66266.69, 0.00, 0.00, 0.00, 0.00, 107112.30, 17300.58, 0.000, 0.000, 0.000, 13:48:14.813, 1552240094813
57, 56052.81, 66351.95, 0.00, 0.00, 0.00, 0.00, 107202.43, 17356.93, 0.000, 0.000, 0.000, 13:48:14.813, 1552240094813
58, 55935.86, 66253.45, 0.00, 0.00, 0.00, 0.00, 107109.24, 17300.38, 0.000, 0.000, 0.000, 13:48:14.813, 1552240094813
59, 55852.43, 66179.00, 0.00, 0.00, 0.00, 0.00, 107037.20, 17252.69, 0.000, 0.000, 0.000, 13:48:14.813, 1552240094813
60, 55924.35, 66241.96, 0.00, 0.00, 0.00, 0.00, 107091.83, 17276.22, 0.000, 0.000, 0.000, 13:48:14.813, 1552240094813
61, 56051.76, 66351.91, 0.00, 0.00, 0.00, 0.00, 107202.49, 17351.95, 0.000, 0.000, 0.000, 13:48:14.813, 1552240094813
62, 55975.23, 66291.16, 0.00, 0.00, 0.00, 0.00, 107143.27, 17323.00, 0.204, 0.024, 1.004, 13:48:14.813, 1552240094813
63, 55860.70, 66190.46, 0.00, 0.00, 0.00, 0.00, 107046.44, 17262.95, 0.000, 0.000, 0.000, 13:48:14.814, 1552240094814
64, 55915.14, 66234.36, 0.00, 0.00, 0.00, 0.00, 107085.66, 17282.57, 0.000, 0.000, 0.000, 13:48:14.814, 1552240094814
65, 56034.84, 66339.44, 0.00, 0.00, 0.00, 0.00, 107193.24, 17351.64, 0.000, 0.000, 0.000, 13:48:14.814, 1552240094814
66, 56004.86, 66315.88, 0.00, 0.00, 0.00, 0.00, 107175.56, 17347.26, 0.000, 0.000, 0.000, 13:48:14.814, 1552240094814
67, 55869.14, 66199.67, 0.00, 0.00, 0.00, 0.00, 107060.43, 17273.40, 0.000, 0.000, 0.000, 13:48:14.814, 1552240094814
68, 55896.77, 66221.71, 0.00, 0.00, 0.00, 0.00, 107079.94, 17281.45, 0.000, 0.000, 0.000, 13:48:14.814, 1552240094814
69, 56019.32, 66326.88, 0.00, 0.00, 0.00, 0.00, 107185.44, 17346.88, 0.000, 0.000, 0.000, 13:48:14.814, 1552240094814
70, 56024.33, 66332.51, 0.00, 0.00, 0.00, 0.00, 107198.00, 17362.99, 0.000, 0.000, 0.000, 13:48:14.814, 1552240094814
71, 55869.88, 66198.71, 0.00, 0.00, 0.00, 0.00, 107061.79, 17273.16, 0.000, 0.000, 0.000, 13:48:14.815, 1552240094815
72, 55875.65, 66198.84, 0.00, 0.00, 0.00, 0.00, 107055.40, 17262.74, 0.204, 0.026, 0.994, 13:48:14.815, 1552240094815
73, 55994.31, 66300.88, 0.00, 0.00, 0.00, 0.00, 107148.78, 17313.53, 0.000, 0.000, 0.000, 13:48:14.815, 1552240094815
74, 56038.01, 66340.60, 0.00, 0.00, 0.00, 0.00, 107195.37, 17349.89, 0.000, 0.000, 0.000, 13:48:15.276, 1552240095276
75, 55885.71, 66212.84, 0.00, 0.00, 0.00, 0.00, 107069.68, 17276.42, 0.000, 0.000, 0.000, 13:48:15.276, 1552240095276
76, 55862.62, 66189.57, 0.00, 0.00, 0.00, 0.00, 107048.22, 17264.20, 0.000, 0.000, 0.000, 13:48:15.276, 1552240095276
77, 55973.13, 66280.74, 0.00, 0.00, 0.00, 0.00, 107126.52, 17299.87, 0.000, 0.000, 0.000, 13:48:15.276, 1552240095276
78, 56059.67, 66357.77, 0.00, 0.00, 0.00, 0.00, 107211.01, 17361.20, 0.000, 0.000, 0.000, 13:48:15.276, 1552240095276
79, 55923.01, 66244.89, 0.00, 0.00, 0.00, 0.00, 107102.05, 17296.47, 0.000, 0.000, 0.000, 13:48:15.276, 1552240095276
80, 55866.29, 66192.55, 0.00, 0.00, 0.00, 0.00, 107050.99, 17265.87, 0.000, 0.000, 0.000, 13:48:15.277, 1552240095277
81, 55944.20, 66262.19, 0.00, 0.00, 0.00, 0.00, 107112.88, 17293.46, 0.000, 0.000, 0.000, 13:48:15.277, 1552240095277
82, 56054.55, 66357.88, 0.00, 0.00, 0.00, 0.00, 107210.67, 17355.82, 0.200, 0.024, 1.000, 13:48:15.277, 1552240095277
83, 55961.21, 66275.58, 0.00, 0.00, 0.00, 0.00, 107126.05, 17311.11, 0.000, 0.000, 0.000, 13:48:15.277, 1552240095277
84, 55866.57, 66192.34, 0.00, 0.00, 0.00, 0.00, 107048.49, 17269.20, 0.000, 0.000, 0.000, 13:48:15.277, 1552240095277
85, 55933.18, 66250.41, 0.00, 0.00, 0.00, 0.00, 107097.84, 17291.17, 0.000, 0.000, 0.000, 13:48:15.277, 1552240095277
86, 56054.89, 66354.77, 0.00, 0.00, 0.00, 0.00, 107203.61, 17356.26, 0.000, 0.000, 0.000, 13:48:15.277, 1552240095277
87, 55986.36, 66299.05, 0.00, 0.00, 0.00, 0.00, 107149.63, 17326.31, 0.000, 0.000, 0.000, 13:48:15.277, 1552240095277
88, 55869.93, 66197.05, 0.00, 0.00, 0.00, 0.00, 107044.49, 17261.31, 0.000, 0.000, 0.000, 13:48:15.278, 1552240095278
89, 55919.68, 66238.14, 0.00, 0.00, 0.00, 0.00, 107080.37, 17276.91, 0.000, 0.000, 0.000, 13:48:15.278, 1552240095278
90, 56041.25, 66342.70, 0.00, 0.00, 0.00, 0.00, 107188.77, 17342.90, 0.000, 0.000, 0.000, 13:48:15.278, 1552240095278
91, 56012.91, 66321.73, 0.00, 0.00, 0.00, 0.00, 107173.34, 17339.12, 0.000, 0.000, 0.000, 13:48:15.278, 1552240095278
92, 55870.78, 66198.42, 0.00, 0.00, 0.00, 0.00, 107055.04, 17270.10, 0.198, 0.024, 0.998, 13:48:15.278, 1552240095278
93, 55899.54, 66220.80, 0.00, 0.00, 0.00, 0.00, 107070.73, 17276.27, 0.000, 0.000, 0.000, 13:48:15.278, 1552240095278
94, 56028.47, 66332.38, 0.00, 0.00, 0.00, 0.00, 107172.59, 17338.00, 0.000, 0.000, 0.000, 13:48:15.278, 1552240095278
95, 56043.93, 66347.15, 0.00, 0.00, 0.00, 0.00, 107194.70, 17360.24, 0.000, 0.000, 0.000, 13:48:15.295, 1552240095295
96, 55896.14, 66218.56, 0.00, 0.00, 0.00, 0.00, 107070.20, 17283.66, 0.000, 0.000, 0.000, 13:48:15.295, 1552240095295
97, 55898.18, 66218.12, 0.00, 0.00, 0.00, 0.00, 107068.90, 17281.00, 0.000, 0.000, 0.000, 13:48:15.295, 1552240095295
98, 56002.72, 66309.87, 0.00, 0.00, 0.00, 0.00, 107154.39, 17321.62, 0.000, 0.000, 0.000, 13:48:15.296, 1552240095296
99, 56064.54, 66363.35, 0.00, 0.00, 0.00, 0.00, 107213.05, 17363.19, 0.000, 0.000, 0.000, 13:48:15.296, 1552240095296
100, 55913.49, 66236.06, 0.00, 0.00, 0.00, 0.00, 107086.89, 17287.06, 0.000, 0.000, 0.000, 13:48:15.296, 1552240095296
101, 55887.03, 66209.91, 0.00, 0.00, 0.00, 0.00, 107061.74, 17272.20, 0.000, 0.000, 0.000, 13:48:15.296, 1552240095296
102, 55980.86, 66294.18, 0.00, 0.00, 0.00, 0.00, 107137.12, 17308.52, 0.208, 0.028, 1.000, 13:48:15.296, 1552240095296
103, 56064.03, 66367.55, 0.00, 0.00, 0.00, 0.00, 107219.57, 17371.22, 0.000, 0.000, 0.000, 13:48:15.296, 1552240095296
104, 55944.89, 66262.59, 0.00, 0.00, 0.00, 0.00, 107108.23, 17302.62, 0.000, 0.000, 0.000, 13:48:15.296, 1552240095296
105, 55888.28, 66209.73, 0.00, 0.00, 0.00, 0.00, 107058.23, 17275.42, 0.000, 0.000, 0.000, 13:48:15.297, 1552240095297
106, 55968.23, 66277.91, 0.00, 0.00, 0.00, 0.00, 107120.59, 17306.42, 0.000, 0.000, 0.000, 13:48:15.297, 1552240095297
107, 56076.30, 66371.45, 0.00, 0.00, 0.00, 0.00, 107219.33, 17370.41, 0.000, 0.000, 0.000, 13:48:15.297, 1552240095297
108, 55968.57, 66282.89, 0.00, 0.00, 0.00, 0.00, 107137.36, 17322.11, 0.000, 0.000, 0.000, 13:48:15.297, 1552240095297
109, 55871.38, 66196.56, 0.00, 0.00, 0.00, 0.00, 107052.76, 17268.76, 0.000, 0.000, 0.000, 13:48:15.297, 1552240095297
110, 55944.34, 66256.18, 0.00, 0.00, 0.00, 0.00, 107098.34, 17286.41, 0.000, 0.000, 0.000, 13:48:15.297, 1552240095297
111, 56068.32, 66364.00, 0.00, 0.00, 0.00, 0.00, 107209.47, 17360.44, 0.000, 0.000, 0.000, 13:48:15.297, 1552240095297
112, 55999.79, 66311.56, 0.00, 0.00, 0.00, 0.00, 107162.57, 17338.56, 0.200, 0.024, 0.996, 13:48:15.298, 1552240095298
113, 55877.32, 66205.59, 0.00, 0.00, 0.00, 0.00, 107057.77, 17273.00, 0.000, 0.000, 0.000, 13:48:15.298, 1552240095298
114, 55917.60, 66237.70, 0.00, 0.00, 0.00, 0.00, 107085.70, 17284.31, 0.000, 0.000, 0.000, 13:48:15.298, 1552240095298
115, 56049.66, 66346.79, 0.00, 0.00, 0.00, 0.00, 107190.89, 17345.20, 0.000, 0.000, 0.000, 13:48:15.298, 1552240095298
116, 56025.67, 66328.82, 0.00, 0.00, 0.00, 0.00, 107179.78, 17342.63, 0.000, 0.000, 0.000, 13:48:15.298, 1552240095298
117, 55882.58, 66207.34, 0.00, 0.00, 0.00, 0.00, 107065.12, 17275.39, 0.000, 0.000, 0.000, 13:48:15.298, 1552240095298
118, 55911.75, 66231.08, 0.00, 0.00, 0.00, 0.00, 107082.40, 17283.29, 0.000, 0.000, 0.000, 13:48:15.298, 1552240095298
119, 56029.99, 66335.48, 0.00, 0.00, 0.00, 0.00, 107181.04, 17337.31, 0.000, 0.000, 0.000, 13:48:15.299, 1552240095299
120, 56052.41, 66358.52, 0.00, 0.00, 0.00, 0.00, 107211.05, 17365.99, 0.000, 0.000, 0.000, 13:48:15.299, 1552240095299
121, 55908.17, 66236.02, 0.00, 0.00, 0.00, 0.00, 107084.25, 17283.84, 0.206, 0.024, 0.994, 13:48:15.299, 1552240095299
122, 55906.38, 66230.98, 0.00, 0.00, 0.00, 0.00, 107078.89, 17283.80, 0.000, 0.000, 0.000, 13:48:15.299, 1552240095299
123, 56013.74, 66323.01, 0.00, 0.00, 0.00, 0.00, 107159.69, 17324.93, 0.000, 0.000, 0.000, 13:48:15.299, 1552240095299
124, 56068.19, 66369.91, 0.00, 0.00, 0.00, 0.00, 107215.50, 17367.95, 0.000, 0.000, 0.000, 13:48:15.300, 1552240095300
125, 55917.74, 66240.94, 0.00, 0.00, 0.00, 0.00, 107088.48, 17286.41, 0.000, 0.000, 0.000, 13:48:15.300, 1552240095300
126, 55884.12, 66206.96, 0.00, 0.00, 0.00, 0.00, 107057.59, 17270.48, 0.000, 0.000, 0.000, 13:48:15.300, 1552240095300
127, 55980.70, 66290.53, 0.00, 0.00, 0.00, 0.00, 107130.59, 17304.56, 0.000, 0.000, 0.000, 13:48:15.300, 1552240095300
128, 56067.05, 66367.38, 0.00, 0.00, 0.00, 0.00, 107217.05, 17365.58, 0.000, 0.000, 0.000, 13:48:15.300, 1552240095300
129, 55941.77, 66262.13, 0.00, 0.00, 0.00, 0.00, 107115.88, 17306.04, 0.000, 0.000, 0.000, 13:48:15.300, 1552240095300
130, 55883.25, 66208.39, 0.00, 0.00, 0.00, 0.00, 107063.60, 17278.17, 0.000, 0.000, 0.000, 13:48:15.300, 1552240095300
131, 55951.45, 66271.06, 0.00, 0.00, 0.00, 0.00, 107119.57, 17302.84, 0.202, 0.024, 1.000, 13:48:15.301, 1552240095301
132, 56072.88, 66369.91, 0.00, 0.00, 0.00, 0.00, 107216.80, 17368.02, 0.000, 0.000, 0.000, 13:48:15.301, 1552240095301
133, 55983.16, 66291.38, 0.00, 0.00, 0.00, 0.00, 107136.80, 17317.42, 0.000, 0.000, 0.000, 13:48:15.301, 1552240095301
134, 55884.59, 66206.11, 0.00, 0.00, 0.00, 0.00, 107059.78, 17276.62, 0.000, 0.000, 0.000, 13:48:15.301, 1552240095301
135, 55946.64, 66259.51, 0.00, 0.00, 0.00, 0.00, 107108.51, 17300.38, 0.000, 0.000, 0.000, 13:48:15.301, 1552240095301
136, 56067.94, 66365.81, 0.00, 0.00, 0.00, 0.00, 107216.04, 17367.84, 0.000, 0.000, 0.000, 13:48:15.301, 1552240095301
137, 56004.13, 66314.92, 0.00, 0.00, 0.00, 0.00, 107167.13, 17340.48, 0.000, 0.000, 0.000, 13:48:15.302, 1552240095302
138, 55876.25, 66203.95, 0.00, 0.00, 0.00, 0.00, 107057.63, 17272.15, 0.000, 0.000, 0.000, 13:48:15.302, 1552240095302
139, 55916.53, 66239.02, 0.00, 0.00, 0.00, 0.00, 107089.55, 17289.70, 0.000, 0.000, 0.000, 13:48:15.302, 1552240095302
140, 56049.63, 66349.97, 0.00, 0.00, 0.00, 0.00, 107194.58, 17351.39, 0.000, 0.000, 0.000, 13:48:15.302, 1552240095302
141, 56035.73, 66338.48, 0.00, 0.00, 0.00, 0.00, 107186.49, 17349.83, 0.202, 0.018, 0.998, 13:48:15.302, 1552240095302
142, 55888.46, 66214.45, 0.00, 0.00, 0.00, 0.00, 107060.88, 17271.13, 0.000, 0.000, 0.000, 13:48:15.302, 1552240095302
143, 55912.46, 66235.23, 0.00, 0.00, 0.00, 0.00, 107079.80, 17285.90, 0.000, 0.000, 0.000, 13:48:15.303, 1552240095303
144, 56031.06, 66338.86, 0.00, 0.00, 0.00, 0.00, 107173.68, 17336.04, 0.000, 0.000, 0.000, 13:48:15.303, 1552240095303
145, 56056.54, 66362.41, 0.00, 0.00, 0.00, 0.00, 107199.19, 17354.47, 0.000, 0.000, 0.000, 13:48:15.303, 1552240095303
146, 55907.77, 66235.21, 0.00, 0.00, 0.00, 0.00, 107075.13, 17280.00, 0.000, 0.000, 0.000, 13:48:15.303, 1552240095303
147, 55896.66, 66225.27, 0.00, 0.00, 0.00, 0.00, 107066.62, 17274.37, 0.000, 0.000, 0.000, 13:48:15.303, 1552240095303
148, 56006.63, 66318.56, 0.00, 0.00, 0.00, 0.00, 107154.28, 17324.43, 0.000, 0.000, 0.000, 13:48:15.303, 1552240095303
149, 56076.68, 66375.94, 0.00, 0.00, 0.00, 0.00, 107219.68, 17376.89, 0.000, 0.000, 0.000, 13:48:15.303, 1552240095303
150, 55931.84, 66251.17, 0.00, 0.00, 0.00, 0.00, 107091.56, 17296.03, 0.000, 0.000, 0.000, 13:48:15.304, 1552240095304
151, 55893.35, 66214.90, 0.00, 0.00, 0.00, 0.00, 107053.84, 17275.42, 0.198, 0.024, 0.994, 13:48:15.304, 1552240095304
152, 55984.99, 66294.55, 0.00, 0.00, 0.00, 0.00, 107122.07, 17307.80, 0.000, 0.000, 0.000, 13:48:15.304, 1552240095304
153, 56076.70, 66376.05, 0.00, 0.00, 0.00, 0.00, 107207.30, 17367.17, 0.000, 0.000, 0.000, 13:48:15.304, 1552240095304
154, 55952.74, 66274.17, 0.00, 0.00, 0.00, 0.00, 107108.33, 17310.38, 0.000, 0.000, 0.000, 13:48:15.304, 1552240095304
155, 55884.86, 66211.36, 0.00, 0.00, 0.00, 0.00, 107048.00, 17272.78, 0.000, 0.000, 0.000, 13:48:15.304, 1552240095304
156, 55963.43, 66276.98, 0.00, 0.00, 0.00, 0.00, 107102.91, 17293.03, 0.000, 0.000, 0.000, 13:48:15.304, 1552240095304
157, 56077.53, 66376.03, 0.00, 0.00, 0.00, 0.00, 107212.91, 17371.55, 0.000, 0.000, 0.000, 13:48:15.304, 1552240095304
158, 55978.54, 66295.52, 0.00, 0.00, 0.00, 0.00, 107141.05, 17331.45, 0.000, 0.000, 0.000, 13:48:15.304, 1552240095304
159, 55879.43, 66204.93, 0.00, 0.00, 0.00, 0.00, 107050.73, 17275.30, 0.000, 0.000, 0.000, 13:48:15.305, 1552240095305
160, 55954.13, 66261.81, 0.00, 0.00, 0.00, 0.00, 107097.58, 17300.34, 0.000, 0.000, 0.000, 13:48:15.305, 1552240095305
161, 56072.48, 66367.34, 0.00, 0.00, 0.00, 0.00, 107200.82, 17360.60, 0.198, 0.022, 0.996, 13:48:15.305, 1552240095305
162, 56019.50, 66328.33, 0.00, 0.00, 0.00, 0.00, 107162.30, 17343.57, 0.000, 0.000, 0.000, 13:48:15.305, 1552240095305
163, 55891.14, 66216.95, 0.00, 0.00, 0.00, 0.00, 107051.40, 17275.24, 0.000, 0.000, 0.000, 13:48:15.305, 1552240095305
164, 55929.96, 66251.24, 0.00, 0.00, 0.00, 0.00, 107079.45, 17286.95, 0.000, 0.000, 0.000, 13:48:15.305, 1552240095305
165, 56059.25, 66361.30, 0.00, 0.00, 0.00, 0.00, 107181.84, 17345.54, 0.000, 0.000, 0.000, 13:48:15.305, 1552240095305
166, 56046.24, 66352.27, 0.00, 0.00, 0.00, 0.00, 107178.60, 17352.02, 0.000, 0.000, 0.000, 13:48:15.305, 1552240095305
167, 55899.43, 66224.04, 0.00, 0.00, 0.00, 0.00, 107052.67, 17273.18, 0.000, 0.000, 0.000, 13:48:15.306, 1552240095306
168, 55917.83, 66235.10, 0.00, 0.00, 0.00, 0.00, 107062.13, 17276.40, 0.000, 0.000, 0.000, 13:48:15.306, 1552240095306
169, 56032.69, 66333.34, 0.00, 0.00, 0.00, 0.00, 107158.38, 17332.64, 0.000, 0.000, 0.000, 13:48:15.306, 1552240095306
170, 56062.53, 66361.08, 0.00, 0.00, 0.00, 0.00, 107191.48, 17358.77, 0.000, 0.000, 0.000, 13:48:15.306, 1552240095306
171, 55907.66, 66228.15, 0.00, 0.00, 0.00, 0.00, 107061.97, 17277.29, 0.202, 0.022, 0.996, 13:48:15.306, 1552240095306
172, 55899.72, 66217.29, 0.00, 0.00, 0.00, 0.00, 107053.54, 17270.72, 0.000, 0.000, 0.000, 13:48:15.306, 1552240095306
173, 56004.37, 66306.60, 0.00, 0.00, 0.00, 0.00, 107134.88, 17312.28, 0.000, 0.000, 0.000, 13:48:15.306, 1552240095306
174, 56076.59, 66369.14, 0.00, 0.00, 0.00, 0.00, 107200.98, 17359.66, 0.000, 0.000, 0.000, 13:48:15.307, 1552240095307
175, 55938.70, 66252.55, 0.00, 0.00, 0.00, 0.00, 107084.39, 17285.45, 0.000, 0.000, 0.000, 13:48:15.307, 1552240095307
176, 55893.53, 66210.00, 0.00, 0.00, 0.00, 0.00, 107044.69, 17258.85, 0.000, 0.000, 0.000, 13:48:15.307, 1552240095307
177, 55987.18, 66291.96, 0.00, 0.00, 0.00, 0.00, 107116.46, 17296.61, 0.000, 0.000, 0.000, 13:48:15.308, 1552240095308
178, 56085.29, 66378.55, 0.00, 0.00, 0.00, 0.00, 107209.05, 17366.43, 0.000, 0.000, 0.000, 13:48:15.308, 1552240095308
179, 55966.93, 66280.50, 0.00, 0.00, 0.00, 0.00, 107113.58, 17311.18, 0.000, 0.000, 0.000, 13:48:15.308, 1552240095308
180, 55892.73, 66216.02, 0.00, 0.00, 0.00, 0.00, 107054.68, 17278.68, 0.000, 0.000, 0.000, 13:48:15.308, 1552240095308
181, 55977.02, 66286.84, 0.00, 0.00, 0.00, 0.00, 107113.42, 17305.81, 0.204, 0.022, 0.992, 13:48:15.308, 1552240095308
182, 56091.59, 66385.84, 0.00, 0.00, 0.00, 0.00, 107209.85, 17365.67, 0.000, 0.000, 0.000, 13:48:15.308, 1552240095308
183, 56003.64, 66313.38, 0.00, 0.00, 0.00, 0.00, 107140.53, 17326.36, 0.000, 0.000, 0.000, 13:48:15.308, 1552240095308
184, 55897.73, 66218.45, 0.00, 0.00, 0.00, 0.00, 107052.73, 17274.90, 0.000, 0.000, 0.000, 13:48:15.308, 1552240095308
185, 55949.66, 66260.36, 0.00, 0.00, 0.00, 0.00, 107091.02, 17290.75, 0.000, 0.000, 0.000, 13:48:15.309, 1552240095309
186, 56065.23, 66360.96, 0.00, 0.00, 0.00, 0.00, 107188.97, 17346.27, 0.000, 0.000, 0.000, 13:48:15.309, 1552240095309
187, 56002.72, 66313.22, 0.00, 0.00, 0.00, 0.00, 107143.84, 17314.35, 0.000, 0.000, 0.000, 13:48:15.309, 1552240095309
188, 55882.73, 66204.28, 0.00, 0.00, 0.00, 0.00, 107038.09, 17255.35, 0.000, 0.000, 0.000, 13:48:15.309, 1552240095309
189, 55940.63, 66246.59, 0.00, 0.00, 0.00, 0.00, 107071.98, 17279.55, 0.000, 0.000, 0.000, 13:48:15.309, 1552240095309
190, 56061.14, 66353.99, 0.00, 0.00, 0.00, 0.00, 107173.86, 17341.22, 0.000, 0.000, 0.000, 13:48:15.309, 1552240095309
191, 56059.98, 66357.05, 0.00, 0.00, 0.00, 0.00, 107180.92, 17352.06, 0.206, 0.028, 0.992, 13:48:15.309, 1552240095309
192, 55915.37, 66233.49, 0.00, 0.00, 0.00, 0.00, 107057.68, 17275.19, 0.000, 0.000, 0.000, 13:48:15.309, 1552240095309
193, 55929.56, 66244.09, 0.00, 0.00, 0.00, 0.00, 107067.94, 17278.39, 0.000, 0.000, 0.000, 13:48:15.309, 1552240095309
194, 56041.12, 66340.69, 0.00, 0.00, 0.00, 0.00, 107162.48, 17330.49, 0.000, 0.000, 0.000, 13:48:15.758, 1552240095758
195, 56073.68, 66370.33, 0.00, 0.00, 0.00, 0.00, 107200.88, 17361.11, 0.000, 0.000, 0.000, 13:48:15.758, 1552240095758
196, 55920.46, 66240.15, 0.00, 0.00, 0.00, 0.00, 107069.84, 17276.54, 0.000, 0.000, 0.000, 13:48:15.758, 1552240095758
197, 55906.09, 66225.71, 0.00, 0.00, 0.00, 0.00, 107055.27, 17270.05, 0.000, 0.000, 0.000, 13:48:15.758, 1552240095758
198, 56016.69, 66319.88, 0.00, 0.00, 0.00, 0.00, 107139.80, 17317.84, 0.000, 0.000, 0.000, 13:48:15.758, 1552240095758
199, 56092.50, 66387.20, 0.00, 0.00, 0.00, 0.00, 107215.64, 17374.28, 0.000, 0.000, 0.000, 13:48:15.759, 1552240095759
200, 55954.30, 66269.86, 0.00, 0.00, 0.00, 0.00, 107100.57, 17305.23, 0.000, 0.000, 0.000, 13:48:15.759, 1552240095759
201, 55912.86, 66229.24, 0.00, 0.00, 0.00, 0.00, 107060.85, 17282.10, 0.208, 0.026, 0.988, 13:48:15.759, 1552240095759
202, 56000.37, 66304.30, 0.00, 0.00, 0.00, 0.00, 107122.70, 17305.61, 0.000, 0.000, 0.000, 13:48:15.759, 1552240095759
203, 56097.04, 66387.30, 0.00, 0.00, 0.00, 0.00, 107211.75, 17368.89, 0.000, 0.000, 0.000, 13:48:15.759, 1552240095759
204, 55985.71, 66294.55, 0.00, 0.00, 0.00, 0.00, 107123.13, 17318.09, 0.000, 0.000, 0.000, 13:48:15.759, 1552240095759
205, 55910.23, 66227.86, 0.00, 0.00, 0.00, 0.00, 107058.51, 17280.74, 0.000, 0.000, 0.000, 13:48:15.759, 1552240095759
206, 55981.39, 66289.44, 0.00, 0.00, 0.00, 0.00, 107111.70, 17307.13, 0.000, 0.000, 0.000, 13:48:15.759, 1552240095759
207, 56090.20, 66383.12, 0.00, 0.00, 0.00, 0.00, 107207.70, 17365.76, 0.000, 0.000, 0.000, 13:48:15.759, 1552240095759
208, 56011.46, 66317.16, 0.00, 0.00, 0.00, 0.00, 107145.79, 17329.49, 0.000, 0.000, 0.000, 13:48:15.760, 1552240095760
209, 55911.19, 66228.40, 0.00, 0.00, 0.00, 0.00, 107062.20, 17284.36, 0.000, 0.000, 0.000, 13:48:15.760, 1552240095760
210, 55969.55, 66277.52, 0.00, 0.00, 0.00, 0.00, 107104.55, 17308.47, 0.000, 0.000, 0.000, 13:48:15.760, 1552240095760
211, 56086.25, 66378.06, 0.00, 0.00, 0.00, 0.00, 107205.71, 17369.25, 0.206, 0.024, 0.988, 13:48:15.760, 1552240095760
212, 56042.32, 66343.73, 0.00, 0.00, 0.00, 0.00, 107177.20, 17353.04, 0.000, 0.000, 0.000, 13:48:15.760, 1552240095760
213, 55907.75, 66230.70, 0.00, 0.00, 0.00, 0.00, 107066.77, 17283.06, 0.000, 0.000, 0.000, 13:48:15.760, 1552240095760
214, 55942.61, 66260.00, 0.00, 0.00, 0.00, 0.00, 107092.08, 17293.95, 0.000, 0.000, 0.000, 13:48:15.761, 1552240095761
215, 56072.12, 66367.20, 0.00, 0.00, 0.00, 0.00, 107192.99, 17353.02, 0.000, 0.000, 0.000, 13:48:15.761, 1552240095761
216, 56078.47, 66374.87, 0.00, 0.00, 0.00, 0.00, 107206.52, 17371.66, 0.000, 0.000, 0.000, 13:48:15.761, 1552240095761
217, 55935.89, 66252.89, 0.00, 0.00, 0.00, 0.00, 107086.89, 17299.67, 0.000, 0.000, 0.000, 13:48:15.761, 1552240095761
218, 55943.35, 66254.91, 0.00, 0.00, 0.00, 0.00, 107087.31, 17300.99, 0.000, 0.000, 0.000, 13:48:15.761, 1552240095761
219, 56050.89, 66346.70, 0.00, 0.00, 0.00, 0.00, 107172.70, 17349.85, 0.000, 0.000, 0.000, 13:48:15.761, 1552240095761
220, 56085.46, 66378.78, 0.00, 0.00, 0.00, 0.00, 107213.85, 17381.97, 0.206, 0.022, 0.992, 13:48:15.761, 1552240095761
221, 55936.54, 66252.60, 0.00, 0.00, 0.00, 0.00, 107087.95, 17299.54, 0.000, 0.000, 0.000, 13:48:15.762, 1552240095762
222, 55912.44, 66227.61, 0.00, 0.00, 0.00, 0.00, 107065.99, 17285.70, 0.000, 0.000, 0.000, 13:48:15.762, 1552240095762
223, 56013.85, 66313.38, 0.00, 0.00, 0.00, 0.00, 107144.89, 17327.90, 0.000, 0.000, 0.000, 13:48:15.762, 1552240095762
224, 56088.23, 66378.71, 0.00, 0.00, 0.00, 0.00, 107218.12, 17379.38, 0.000, 0.000, 0.000, 13:48:15.762, 1552240095762
225, 55954.19, 66266.52, 0.00, 0.00, 0.00, 0.00, 107104.98, 17307.80, 0.000, 0.000, 0.000, 13:48:15.762, 1552240095762
226, 55909.11, 66224.28, 0.00, 0.00, 0.00, 0.00, 107064.96, 17287.46, 0.000, 0.000, 0.000, 13:48:15.762, 1552240095762
227, 55995.16, 66296.92, 0.00, 0.00, 0.00, 0.00, 107128.48, 17315.74, 0.000, 0.000, 0.000, 13:48:15.763, 1552240095763
228, 56092.68, 66378.89, 0.00, 0.00, 0.00, 0.00, 107213.18, 17366.77, 0.000, 0.000, 0.000, 13:48:15.763, 1552240095763
229, 55981.91, 66285.77, 0.00, 0.00, 0.00, 0.00, 107122.25, 17317.06, 0.000, 0.000, 0.000, 13:48:15.763, 1552240095763
230, 55905.80, 66216.82, 0.00, 0.00, 0.00, 0.00, 107060.25, 17291.17, 0.208, 0.022, 0.996, 13:48:15.763, 1552240095763
231, 55978.63, 66278.75, 0.00, 0.00, 0.00, 0.00, 107111.23, 17314.35, 0.000, 0.000, 0.000, 13:48:15.763, 1552240095763
232, 56092.57, 66378.89, 0.00, 0.00, 0.00, 0.00, 107211.84, 17376.92, 0.000, 0.000, 0.000, 13:48:15.763, 1552240095763
