%OpenBCI Raw EEG Data
%Number of channels = 8
%Sample Rate = 250.0 Hz
%First Column = SampleIndex
%Last Column = Timestamp 
%Other Columns = EEG data in microvolts followed by Accel Data (in G) interleaved with Aux Data
2, -30311.45, 0.00, 0.00, 0.00, 0.00, 0.00, 0.00, -9376.22, 0.000, 0.000, 0.000, 14:40:48.973, 1553971248973
3, -30296.94, 0.00, 0.00, 0.00, 0.00, 0.00, 0.00, -9429.66, 0.000, 0.000, 0.000, 14:40:48.973, 1553971248973
4, -30315.47, 0.00, 0.00, 0.00, 0.00, 0.00, 0.00, -9428.46, 0.000, 0.000, 0.000, 14:40:48.973, 1553971248973
5, -30328.23, 0.00, 0.00, 0.00, 0.00, 0.00, 0.00, -9365.47, 0.000, 0.000, 0.000, 14:40:48.973, 1553971248973
6, -30318.89, 0.00, 0.00, 0.00, 0.00, 0.00, 0.00, -9367.10, 0.000, 0.000, 0.000, 14:40:48.973, 1553971248973
7, -30312.70, 0.00, 0.00, 0.00, 0.00, 0.00, 0.00, -9425.98, 0.000, 0.000, 0.000, 14:40:48.973, 1553971248973
8, -30312.63, 0.00, 0.00, 0.00, 0.00, 0.00, 0.00, -9429.02, 0.000, 0.000, 0.000, 14:40:48.973, 1553971248973
9, -30326.58, 0.00, 0.00, 0.00, 0.00, 0.00, 0.00, -9364.08, 0.000, 0.000, 0.000, 14:40:48.973, 1553971248973
10, -30329.15, 0.00, 0.00, 0.00, 0.00, 0.00, 0.00, -9372.15, 0.000, 0.000, 0.000, 14:40:48.973, 1553971248973
11, -30320.72, 0.00, 0.00, 0.00, 0.00, 0.00, 0.00, -9430.29, 0.056, 0.094, -1.028, 14:40:48.973, 1553971248973
12, -30304.76, 0.00, 0.00, 0.00, 0.00, 0.00, 0.00, -9440.28, 0.000, 0.000, 0.000, 14:40:48.973, 1553971248973
13, -30327.40, 0.00, 0.00, 0.00, 0.00, 0.00, 0.00, -9379.66, 0.000, 0.000, 0.000, 14:40:48.973, 1553971248973
14, -30325.55, 0.00, 0.00, 0.00, 0.00, 0.00, 0.00, -9363.86, 0.000, 0.000, 0.000, 14:40:48.973, 1553971248973
15, -30314.93, 0.00, 0.00, 0.00, 0.00, 0.00, 0.00, -9410.08, 0.000, 0.000, 0.000, 14:40:48.974, 1553971248974
16, -30315.42, 0.00, 0.00, 0.00, 0.00, 0.00, 0.00, -9447.32, 0.000, 0.000, 0.000, 14:40:48.974, 1553971248974
17, -30327.65, 0.00, 0.00, 0.00, 0.00, 0.00, 0.00, -9401.41, 0.000, 0.000, 0.000, 14:40:48.974, 1553971248974
18, -30332.19, 0.00, 0.00, 0.00, 0.00, 0.00, 0.00, -9372.24, 0.000, 0.000, 0.000, 14:40:48.974, 1553971248974
19, -30317.39, 0.00, 0.00, 0.00, 0.00, 0.00, 0.00, -9391.98, 0.000, 0.000, 0.000, 14:40:48.974, 1553971248974
20, -30309.30, 0.00, 0.00, 0.00, 0.00, 0.00, 0.00, -9416.23, 0.000, 0.000, 0.000, 14:40:48.974, 1553971248974
21, -30326.40, 0.00, 0.00, 0.00, 0.00, 0.00, 0.00, -9407.00, 0.056, 0.092, -1.028, 14:40:48.974, 1553971248974
22, -30346.27, 0.00, 0.00, 0.00, 0.00, 0.00, 0.00, -9409.30, 0.000, 0.000, 0.000, 14:40:48.974, 1553971248974
23, -30335.96, 0.00, 0.00, 0.00, 0.00, 0.00, 0.00, -9418.78, 0.000, 0.000, 0.000, 14:40:48.974, 1553971248974
24, -30317.50, 0.00, 0.00, 0.00, 0.00, 0.00, 0.00, -9427.79, 0.000, 0.000, 0.000, 14:40:48.974, 1553971248974
25, -30317.59, 0.00, 0.00, 0.00, 0.00, 0.00, 0.00, -9417.33, 0.000, 0.000, 0.000, 14:40:48.974, 1553971248974
26, -30333.33, 0.00, 0.00, 0.00, 0.00, 0.00, 0.00, -9406.91, 0.000, 0.000, 0.000, 14:40:48.974, 1553971248974
27, -30332.01, 0.00, 0.00, 0.00, 0.00, 0.00, 0.00, -9418.33, 0.000, 0.000, 0.000, 14:40:48.974, 1553971248974
28, -30323.87, 0.00, 0.00, 0.00, 0.00, 0.00, 0.00, -9437.22, 0.000, 0.000, 0.000, 14:40:48.974, 1553971248974
29, -30323.56, 0.00, 0.00, 0.00, 0.00, 0.00, 0.00, -9428.73, 0.000, 0.000, 0.000, 14:40:48.974, 1553971248974
30, -30342.04, 0.00, 0.00, 0.00, 0.00, 0.00, 0.00, -9414.62, 0.000, 0.000, 0.000, 14:40:48.974, 1553971248974
31, -30342.09, 0.00, 0.00, 0.00, 0.00, 0.00, 0.00, -9426.78, 0.058, 0.096, -1.026, 14:40:48.974, 1553971248974
32, -30327.20, 0.00, 0.00, 0.00, 0.00, 0.00, 0.00, -9437.67, 0.000, 0.000, 0.000, 14:40:48.975, 1553971248975
33, -30323.67, 0.00, 0.00, 0.00, 0.00, 0.00, 0.00, -9429.13, 0.000, 0.000, 0.000, 14:40:48.975, 1553971248975
34, -30344.50, 0.00, 0.00, 0.00, 0.00, 0.00, 0.00, -9418.26, 0.000, 0.000, 0.000, 14:40:48.975, 1553971248975
35, -30346.16, 0.00, 0.00, 0.00, 0.00, 0.00, 0.00, -9420.34, 0.000, 0.000, 0.000, 14:40:48.975, 1553971248975
36, -30330.78, 0.00, 0.00, 0.00, 0.00, 0.00, 0.00, -9436.37, 0.000, 0.000, 0.000, 14:40:48.975, 1553971248975
37, -30331.79, 0.00, 0.00, 0.00, 0.00, 0.00, 0.00, -9444.55, 0.000, 0.000, 0.000, 14:40:48.975, 1553971248975
38, -30344.44, 0.00, 0.00, 0.00, 0.00, 0.00, 0.00, -9431.25, 0.000, 0.000, 0.000, 14:40:48.975, 1553971248975
39, -30351.43, 0.00, 0.00, 0.00, 0.00, 0.00, 0.00, -9428.48, 0.000, 0.000, 0.000, 14:40:48.975, 1553971248975
40, -30352.26, 0.00, 0.00, 0.00, 0.00, 0.00, 0.00, -9448.91, 0.060, 0.096, -1.030, 14:40:48.976, 1553971248976
41, -30348.55, 0.00, 0.00, 0.00, 0.00, 0.00, 0.00, -9455.70, 0.000, 0.000, 0.000, 14:40:48.976, 1553971248976
42, -30356.55, 0.00, 0.00, 0.00, 0.00, 0.00, 0.00, -9435.23, 0.000, 0.000, 0.000, 14:40:48.976, 1553971248976
43, -30364.40, 0.00, 0.00, 0.00, 0.00, 0.00, 0.00, -9428.01, 0.000, 0.000, 0.000, 14:40:48.976, 1553971248976
44, -30354.90, 0.00, 0.00, 0.00, 0.00, 0.00, 0.00, -9441.96, 0.000, 0.000, 0.000, 14:40:48.976, 1553971248976
45, -30334.38, 0.00, 0.00, 0.00, 0.00, 0.00, 0.00, -9446.12, 0.000, 0.000, 0.000, 14:40:48.976, 1553971248976
46, -30352.97, 0.00, 0.00, 0.00, 0.00, 0.00, 0.00, -9440.88, 0.000, 0.000, 0.000, 14:40:48.976, 1553971248976
47, -30364.66, 0.00, 0.00, 0.00, 0.00, 0.00, 0.00, -9433.11, 0.000, 0.000, 0.000, 14:40:48.976, 1553971248976
48, -30350.70, 0.00, 0.00, 0.00, 0.00, 0.00, 0.00, -9437.62, 0.000, 0.000, 0.000, 14:40:48.976, 1553971248976
49, -30337.37, 0.00, 0.00, 0.00, 0.00, 0.00, 0.00, -9450.83, 0.000, 0.000, 0.000, 14:40:48.976, 1553971248976
50, -30346.05, 0.00, 0.00, 0.00, 0.00, 0.00, 0.00, -9440.91, 0.060, 0.096, -1.026, 14:40:48.976, 1553971248976
51, -30359.72, 0.00, 0.00, 0.00, 0.00, 0.00, 0.00, -9426.78, 0.000, 0.000, 0.000, 14:40:48.976, 1553971248976
52, -30360.13, 0.00, 0.00, 0.00, 0.00, 0.00, 0.00, -9442.99, 0.000, 0.000, 0.000, 14:40:48.976, 1553971248976
53, -30346.94, 0.00, 0.00, 0.00, 0.00, 0.00, 0.00, -9452.55, 0.000, 0.000, 0.000, 14:40:48.976, 1553971248976
54, -30351.41, 0.00, 0.00, 0.00, 0.00, 0.00, 0.00, -9450.70, 0.000, 0.000, 0.000, 14:40:48.976, 1553971248976
55, -30369.09, 0.00, 0.00, 0.00, 0.00, 0.00, 0.00, -9435.34, 0.000, 0.000, 0.000, 14:40:48.976, 1553971248976
56, -30359.64, 0.00, 0.00, 0.00, 0.00, 0.00, 0.00, -9433.87, 0.000, 0.000, 0.000, 14:40:48.976, 1553971248976
57, -30348.13, 0.00, 0.00, 0.00, 0.00, 0.00, 0.00, -9447.79, 0.000, 0.000, 0.000, 14:40:48.976, 1553971248976
58, -30347.74, 0.00, 0.00, 0.00, 0.00, 0.00, 0.00, -9448.24, 0.000, 0.000, 0.000, 14:40:48.976, 1553971248976
59, -30357.06, 0.00, 0.00, 0.00, 0.00, 0.00, 0.00, -9427.76, 0.000, 0.000, 0.000, 14:40:48.976, 1553971248976
60, -30352.91, 0.00, 0.00, 0.00, 0.00, 0.00, 0.00, -9428.61, 0.056, 0.088, -1.024, 14:40:48.976, 1553971248976
61, -30336.35, 0.00, 0.00, 0.00, 0.00, 0.00, 0.00, -9434.80, 0.000, 0.000, 0.000, 14:40:48.977, 1553971248977
62, -30331.45, 0.00, 0.00, 0.00, 0.00, 0.00, 0.00, -9439.68, 0.000, 0.000, 0.000, 14:40:48.977, 1553971248977
63, -30349.73, 0.00, 0.00, 0.00, 0.00, 0.00, 0.00, -9431.25, 0.000, 0.000, 0.000, 14:40:48.977, 1553971248977
64, -30361.13, 0.00, 0.00, 0.00, 0.00, 0.00, 0.00, -9435.34, 0.000, 0.000, 0.000, 14:40:48.977, 1553971248977
65, -30350.47, 0.00, 0.00, 0.00, 0.00, 0.00, 0.00, -9444.06, 0.000, 0.000, 0.000, 14:40:48.977, 1553971248977
66, -30331.70, 0.00, 0.00, 0.00, 0.00, 0.00, 0.00, -9438.05, 0.000, 0.000, 0.000, 14:40:48.977, 1553971248977
67, -30340.77, 0.00, 0.00, 0.00, 0.00, 0.00, 0.00, -9419.99, 0.000, 0.000, 0.000, 14:40:48.977, 1553971248977
68, -30351.68, 0.00, 0.00, 0.00, 0.00, 0.00, 0.00, -9418.96, 0.000, 0.000, 0.000, 14:40:48.977, 1553971248977
69, -30339.18, 0.00, 0.00, 0.00, 0.00, 0.00, 0.00, -9423.79, 0.000, 0.000, 0.000, 14:40:48.977, 1553971248977
70, -30324.54, 0.00, 0.00, 0.00, 0.00, 0.00, 0.00, -9428.57, 0.064, 0.088, -1.026, 14:40:48.978, 1553971248978
71, -30344.84, 0.00, 0.00, 0.00, 0.00, 0.00, 0.00, -9427.23, 0.000, 0.000, 0.000, 14:40:48.978, 1553971248978
72, -30358.21, 0.00, 0.00, 0.00, 0.00, 0.00, 0.00, -9419.29, 0.000, 0.000, 0.000, 14:40:48.978, 1553971248978
73, -30350.03, 0.00, 0.00, 0.00, 0.00, 0.00, 0.00, -9430.56, 0.000, 0.000, 0.000, 14:40:48.978, 1553971248978
74, -30338.38, 0.00, 0.00, 0.00, 0.00, 0.00, 0.00, -9442.58, 0.000, 0.000, 0.000, 14:40:48.978, 1553971248978
75, -30359.52, 0.00, 0.00, 0.00, 0.00, 0.00, 0.00, -9444.30, 0.000, 0.000, 0.000, 14:40:48.978, 1553971248978
76, -30374.61, 0.00, 0.00, 0.00, 0.00, 0.00, 0.00, -9430.76, 0.000, 0.000, 0.000, 14:40:48.978, 1553971248978
77, -30368.33, 0.00, 0.00, 0.00, 0.00, 0.00, 0.00, -9435.63, 0.000, 0.000, 0.000, 14:40:48.978, 1553971248978
78, -30346.58, 0.00, 0.00, 0.00, 0.00, 0.00, 0.00, -9444.08, 0.000, 0.000, 0.000, 14:40:48.978, 1553971248978
79, -30352.30, 0.00, 0.00, 0.00, 0.00, 0.00, 0.00, -9444.26, 0.000, 0.000, 0.000, 14:40:48.978, 1553971248978
80, -30372.49, 0.00, 0.00, 0.00, 0.00, 0.00, 0.00, -9432.75, 0.054, 0.096, -1.028, 14:40:48.978, 1553971248978
81, -30364.82, 0.00, 0.00, 0.00, 0.00, 0.00, 0.00, -9438.27, 0.000, 0.000, 0.000, 14:40:48.978, 1553971248978
82, -30350.49, 0.00, 0.00, 0.00, 0.00, 0.00, 0.00, -9452.22, 0.000, 0.000, 0.000, 14:40:48.978, 1553971248978
83, -30353.71, 0.00, 0.00, 0.00, 0.00, 0.00, 0.00, -9455.88, 0.000, 0.000, 0.000, 14:40:48.978, 1553971248978
84, -30374.05, 0.00, 0.00, 0.00, 0.00, 0.00, 0.00, -9442.27, 0.000, 0.000, 0.000, 14:40:48.978, 1553971248978
85, -30370.10, 0.00, 0.00, 0.00, 0.00, 0.00, 0.00, -9444.89, 0.000, 0.000, 0.000, 14:40:48.978, 1553971248978
86, -30354.92, 0.00, 0.00, 0.00, 0.00, 0.00, 0.00, -9453.87, 0.000, 0.000, 0.000, 14:40:48.978, 1553971248978
87, -30358.88, 0.00, 0.00, 0.00, 0.00, 0.00, 0.00, -9463.97, 0.000, 0.000, 0.000, 14:40:48.978, 1553971248978
88, -30374.05, 0.00, 0.00, 0.00, 0.00, 0.00, 0.00, -9449.96, 0.000, 0.000, 0.000, 14:40:48.978, 1553971248978
89, -30382.63, 0.00, 0.00, 0.00, 0.00, 0.00, 0.00, -9451.99, 0.000, 0.000, 0.000, 14:40:48.978, 1553971248978
90, -30363.44, 0.00, 0.00, 0.00, 0.00, 0.00, 0.00, -9456.82, 0.054, 0.086, -1.022, 14:40:48.978, 1553971248978
91, -30353.58, 0.00, 0.00, 0.00, 0.00, 0.00, 0.00, -9464.82, 0.000, 0.000, 0.000, 14:40:48.978, 1553971248978
92, -30376.09, 0.00, 0.00, 0.00, 0.00, 0.00, 0.00, -9461.36, 0.000, 0.000, 0.000, 14:40:48.979, 1553971248979
93, -30380.18, 0.00, 0.00, 0.00, 0.00, 0.00, 0.00, -9450.90, 0.000, 0.000, 0.000, 14:40:48.979, 1553971248979
94, -30367.86, 0.00, 0.00, 0.00, 0.00, 0.00, 0.00, -9459.68, 0.000, 0.000, 0.000, 14:40:48.979, 1553971248979
95, -30358.05, 0.00, 0.00, 0.00, 0.00, 0.00, 0.00, -9467.66, 0.000, 0.000, 0.000, 14:40:48.979, 1553971248979
96, -30375.26, 0.00, 0.00, 0.00, 0.00, 0.00, 0.00, -9463.77, 0.000, 0.000, 0.000, 14:40:48.979, 1553971248979
97, -30389.19, 0.00, 0.00, 0.00, 0.00, 0.00, 0.00, -9456.78, 0.000, 0.000, 0.000, 14:40:48.979, 1553971248979
98, -30378.52, 0.00, 0.00, 0.00, 0.00, 0.00, 0.00, -9458.68, 0.000, 0.000, 0.000, 14:40:48.979, 1553971248979
99, -30350.25, 0.00, 0.00, 0.00, 0.00, 0.00, 0.00, -9462.16, 0.000, 0.000, 0.000, 14:40:48.979, 1553971248979
100, -30372.35, 0.00, 0.00, 0.00, 0.00, 0.00, 0.00, -9465.49, 0.058, 0.090, -1.028, 14:40:48.979, 1553971248979
101, -30389.61, 0.00, 0.00, 0.00, 0.00, 0.00, 0.00, -9454.43, 0.000, 0.000, 0.000, 14:40:48.979, 1553971248979
102, -30382.61, 0.00, 0.00, 0.00, 0.00, 0.00, 0.00, -9459.53, 0.000, 0.000, 0.000, 14:40:48.979, 1553971248979
103, -30361.94, 0.00, 0.00, 0.00, 0.00, 0.00, 0.00, -9468.56, 0.000, 0.000, 0.000, 14:40:48.979, 1553971248979
104, -30367.66, 0.00, 0.00, 0.00, 0.00, 0.00, 0.00, -9471.64, 0.000, 0.000, 0.000, 14:40:48.980, 1553971248980
105, -30394.84, 0.00, 0.00, 0.00, 0.00, 0.00, 0.00, -9469.58, 0.000, 0.000, 0.000, 14:40:48.980, 1553971248980
106, -30389.97, 0.00, 0.00, 0.00, 0.00, 0.00, 0.00, -9470.81, 0.000, 0.000, 0.000, 14:40:48.980, 1553971248980
107, -30365.49, 0.00, 0.00, 0.00, 0.00, 0.00, 0.00, -9473.14, 0.000, 0.000, 0.000, 14:40:48.980, 1553971248980
108, -30357.06, 0.00, 0.00, 0.00, 0.00, 0.00, 0.00, -9473.29, 0.000, 0.000, 0.000, 14:40:48.980, 1553971248980
109, -30382.19, 0.00, 0.00, 0.00, 0.00, 0.00, 0.00, -9466.90, 0.052, 0.094, -1.028, 14:40:48.980, 1553971248980
110, -30381.99, 0.00, 0.00, 0.00, 0.00, 0.00, 0.00, -9463.30, 0.000, 0.000, 0.000, 14:40:48.980, 1553971248980
111, -30369.34, 0.00, 0.00, 0.00, 0.00, 0.00, 0.00, -9473.72, 0.000, 0.000, 0.000, 14:40:48.980, 1553971248980
112, -30370.95, 0.00, 0.00, 0.00, 0.00, 0.00, 0.00, -9484.98, 0.000, 0.000, 0.000, 14:40:48.980, 1553971248980
113, -30389.95, 0.00, 0.00, 0.00, 0.00, 0.00, 0.00, -9471.19, 0.000, 0.000, 0.000, 14:40:48.980, 1553971248980
114, -30384.11, 0.00, 0.00, 0.00, 0.00, 0.00, 0.00, -9460.96, 0.000, 0.000, 0.000, 14:40:48.980, 1553971248980
115, -30369.45, 0.00, 0.00, 0.00, 0.00, 0.00, 0.00, -9469.65, 0.000, 0.000, 0.000, 14:40:48.980, 1553971248980
116, -30367.50, 0.00, 0.00, 0.00, 0.00, 0.00, 0.00, -9478.53, 0.000, 0.000, 0.000, 14:40:48.980, 1553971248980
117, -30386.30, 0.00, 0.00, 0.00, 0.00, 0.00, 0.00, -9464.26, 0.000, 0.000, 0.000, 14:40:48.980, 1553971248980
118, -30398.88, 0.00, 0.00, 0.00, 0.00, 0.00, 0.00, -9466.37, 0.000, 0.000, 0.000, 14:40:48.980, 1553971248980
119, -30385.18, 0.00, 0.00, 0.00, 0.00, 0.00, 0.00, -9475.96, 0.054, 0.098, -1.030, 14:40:48.980, 1553971248980
120, -30365.51, 0.00, 0.00, 0.00, 0.00, 0.00, 0.00, -9476.00, 0.000, 0.000, 0.000, 14:40:48.980, 1553971248980
121, -30380.85, 0.00, 0.00, 0.00, 0.00, 0.00, 0.00, -9465.63, 0.000, 0.000, 0.000, 14:40:48.980, 1553971248980
122, -30391.24, 0.00, 0.00, 0.00, 0.00, 0.00, 0.00, -9454.79, 0.000, 0.000, 0.000, 14:40:49.267, 1553971249267
123, -30371.30, 0.00, 0.00, 0.00, 0.00, 0.00, 0.00, -9457.18, 0.000, 0.000, 0.000, 14:40:49.267, 1553971249267
124, -30358.65, 0.00, 0.00, 0.00, 0.00, 0.00, 0.00, -9471.37, 0.000, 0.000, 0.000, 14:40:49.267, 1553971249267
125, -30368.20, 0.00, 0.00, 0.00, 0.00, 0.00, 0.00, -9468.87, 0.000, 0.000, 0.000, 14:40:49.267, 1553971249267
126, -30382.39, 0.00, 0.00, 0.00, 0.00, 0.00, 0.00, -9453.04, 0.000, 0.000, 0.000, 14:40:49.267, 1553971249267
127, -30376.49, 0.00, 0.00, 0.00, 0.00, 0.00, 0.00, -9455.19, 0.000, 0.000, 0.000, 14:40:49.267, 1553971249267
128, -30363.21, 0.00, 0.00, 0.00, 0.00, 0.00, 0.00, -9464.33, 0.000, 0.000, 0.000, 14:40:49.268, 1553971249268
129, -30364.46, 0.00, 0.00, 0.00, 0.00, 0.00, 0.00, -9459.97, 0.056, 0.100, -1.024, 14:40:49.268, 1553971249268
130, -30386.95, 0.00, 0.00, 0.00, 0.00, 0.00, 0.00, -9451.52, 0.000, 0.000, 0.000, 14:40:49.268, 1553971249268
131, -30383.51, 0.00, 0.00, 0.00, 0.00, 0.00, 0.00, -9448.10, 0.000, 0.000, 0.000, 14:40:49.268, 1553971249268
132, -30354.49, 0.00, 0.00, 0.00, 0.00, 0.00, 0.00, -9449.07, 0.000, 0.000, 0.000, 14:40:49.268, 1553971249268
133, -30362.50, 0.00, 0.00, 0.00, 0.00, 0.00, 0.00, -9461.74, 0.000, 0.000, 0.000, 14:40:49.268, 1553971249268
134, -30385.81, 0.00, 0.00, 0.00, 0.00, 0.00, 0.00, -9455.84, 0.000, 0.000, 0.000, 14:40:49.268, 1553971249268
135, -30386.84, 0.00, 0.00, 0.00, 0.00, 0.00, 0.00, -9451.64, 0.000, 0.000, 0.000, 14:40:49.268, 1553971249268
136, -30368.46, 0.00, 0.00, 0.00, 0.00, 0.00, 0.00, -9453.56, 0.000, 0.000, 0.000, 14:40:49.268, 1553971249268
137, -30363.93, 0.00, 0.00, 0.00, 0.00, 0.00, 0.00, -9461.07, 0.000, 0.000, 0.000, 14:40:49.268, 1553971249268
138, -30380.65, 0.00, 0.00, 0.00, 0.00, 0.00, 0.00, -9443.59, 0.000, 0.000, 0.000, 14:40:49.268, 1553971249268
139, -30391.89, 0.00, 0.00, 0.00, 0.00, 0.00, 0.00, -9445.33, 0.052, 0.092, -1.026, 14:40:49.268, 1553971249268
140, -30368.29, 0.00, 0.00, 0.00, 0.00, 0.00, 0.00, -9449.92, 0.000, 0.000, 0.000, 14:40:49.268, 1553971249268
141, -30359.79, 0.00, 0.00, 0.00, 0.00, 0.00, 0.00, -9455.32, 0.000, 0.000, 0.000, 14:40:49.268, 1553971249268
142, -30373.49, 0.00, 0.00, 0.00, 0.00, 0.00, 0.00, -9449.29, 0.000, 0.000, 0.000, 14:40:49.268, 1553971249268
143, -30379.15, 0.00, 0.00, 0.00, 0.00, 0.00, 0.00, -9439.05, 0.000, 0.000, 0.000, 14:40:49.268, 1553971249268
144, -30362.47, 0.00, 0.00, 0.00, 0.00, 0.00, 0.00, -9442.32, 0.000, 0.000, 0.000, 14:40:49.268, 1553971249268
145, -30349.71, 0.00, 0.00, 0.00, 0.00, 0.00, 0.00, -9451.08, 0.000, 0.000, 0.000, 14:40:49.269, 1553971249269
146, -30363.55, 0.00, 0.00, 0.00, 0.00, 0.00, 0.00, -9447.61, 0.000, 0.000, 0.000, 14:40:49.269, 1553971249269
147, -30373.54, 0.00, 0.00, 0.00, 0.00, 0.00, 0.00, -9436.39, 0.000, 0.000, 0.000, 14:40:49.269, 1553971249269
148, -30363.19, 0.00, 0.00, 0.00, 0.00, 0.00, 0.00, -9442.87, 0.000, 0.000, 0.000, 14:40:49.269, 1553971249269
149, -30346.13, 0.00, 0.00, 0.00, 0.00, 0.00, 0.00, -9448.10, 0.054, 0.092, -1.032, 14:40:49.269, 1553971249269
150, -30353.91, 0.00, 0.00, 0.00, 0.00, 0.00, 0.00, -9445.38, 0.000, 0.000, 0.000, 14:40:49.269, 1553971249269
151, -30369.20, 0.00, 0.00, 0.00, 0.00, 0.00, 0.00, -9431.77, 0.000, 0.000, 0.000, 14:40:49.269, 1553971249269
152, -30365.18, 0.00, 0.00, 0.00, 0.00, 0.00, 0.00, -9439.92, 0.000, 0.000, 0.000, 14:40:49.269, 1553971249269
153, -30355.01, 0.00, 0.00, 0.00, 0.00, 0.00, 0.00, -9452.06, 0.000, 0.000, 0.000, 14:40:49.270, 1553971249270
154, -30351.59, 0.00, 0.00, 0.00, 0.00, 0.00, 0.00, -9448.28, 0.000, 0.000, 0.000, 14:40:49.271, 1553971249271
155, -30378.79, 0.00, 0.00, 0.00, 0.00, 0.00, 0.00, -9449.24, 0.000, 0.000, 0.000, 14:40:49.271, 1553971249271
156, -30379.57, 0.00, 0.00, 0.00, 0.00, 0.00, 0.00, -9457.67, 0.000, 0.000, 0.000, 14:40:49.271, 1553971249271
157, -30352.55, 0.00, 0.00, 0.00, 0.00, 0.00, 0.00, -9459.68, 0.000, 0.000, 0.000, 14:40:49.271, 1553971249271
158, -30359.66, 0.00, 0.00, 0.00, 0.00, 0.00, 0.00, -9467.37, 0.000, 0.000, 0.000, 14:40:49.271, 1553971249271
159, -30386.77, 0.00, 0.00, 0.00, 0.00, 0.00, 0.00, -9461.14, 0.054, 0.094, -1.026, 14:40:49.271, 1553971249271
160, -30388.25, 0.00, 0.00, 0.00, 0.00, 0.00, 0.00, -9462.50, 0.000, 0.000, 0.000, 14:40:49.271, 1553971249271
161, -30358.81, 0.00, 0.00, 0.00, 0.00, 0.00, 0.00, -9457.83, 0.000, 0.000, 0.000, 14:40:49.271, 1553971249271
162, -30350.76, 0.00, 0.00, 0.00, 0.00, 0.00, 0.00, -9456.33, 0.000, 0.000, 0.000, 14:40:49.271, 1553971249271
163, -30374.19, 0.00, 0.00, 0.00, 0.00, 0.00, 0.00, -9452.80, 0.000, 0.000, 0.000, 14:40:49.271, 1553971249271
164, -30384.33, 0.00, 0.00, 0.00, 0.00, 0.00, 0.00, -9456.11, 0.000, 0.000, 0.000, 14:40:49.271, 1553971249271
165, -30362.79, 0.00, 0.00, 0.00, 0.00, 0.00, 0.00, -9457.22, 0.000, 0.000, 0.000, 14:40:49.271, 1553971249271
166, -30361.60, 0.00, 0.00, 0.00, 0.00, 0.00, 0.00, -9471.06, 0.000, 0.000, 0.000, 14:40:49.271, 1553971249271
167, -30379.28, 0.00, 0.00, 0.00, 0.00, 0.00, 0.00, -9463.77, 0.000, 0.000, 0.000, 14:40:49.271, 1553971249271
168, -30392.16, 0.00, 0.00, 0.00, 0.00, 0.00, 0.00, -9462.28, 0.060, 0.096, -1.018, 14:40:49.271, 1553971249271
169, -30380.20, 0.00, 0.00, 0.00, 0.00, 0.00, 0.00, -9474.17, 0.000, 0.000, 0.000, 14:40:49.271, 1553971249271
170, -30352.21, 0.00, 0.00, 0.00, 0.00, 0.00, 0.00, -9468.00, 0.000, 0.000, 0.000, 14:40:49.271, 1553971249271
171, -30370.97, 0.00, 0.00, 0.00, 0.00, 0.00, 0.00, -9466.92, 0.000, 0.000, 0.000, 14:40:49.272, 1553971249272
172, -30382.97, 0.00, 0.00, 0.00, 0.00, 0.00, 0.00, -9458.61, 0.000, 0.000, 0.000, 14:40:49.272, 1553971249272
173, -30366.68, 0.00, 0.00, 0.00, 0.00, 0.00, 0.00, -9456.24, 0.000, 0.000, 0.000, 14:40:49.272, 1553971249272
174, -30353.91, 0.00, 0.00, 0.00, 0.00, 0.00, 0.00, -9471.06, 0.000, 0.000, 0.000, 14:40:49.272, 1553971249272
175, -30366.79, 0.00, 0.00, 0.00, 0.00, 0.00, 0.00, -9473.83, 0.000, 0.000, 0.000, 14:40:49.272, 1553971249272
176, -30387.06, 0.00, 0.00, 0.00, 0.00, 0.00, 0.00, -9460.04, 0.000, 0.000, 0.000, 14:40:49.272, 1553971249272
177, -30385.63, 0.00, 0.00, 0.00, 0.00, 0.00, 0.00, -9466.79, 0.000, 0.000, 0.000, 14:40:49.272, 1553971249272
178, -30363.41, 0.00, 0.00, 0.00, 0.00, 0.00, 0.00, -9474.46, 0.058, 0.094, -1.022, 14:40:49.272, 1553971249272
179, -30360.73, 0.00, 0.00, 0.00, 0.00, 0.00, 0.00, -9461.45, 0.000, 0.000, 0.000, 14:40:49.272, 1553971249272
180, -30382.95, 0.00, 0.00, 0.00, 0.00, 0.00, 0.00, -9452.58, 0.000, 0.000, 0.000, 14:40:49.272, 1553971249272
181, -30384.78, 0.00, 0.00, 0.00, 0.00, 0.00, 0.00, -9458.10, 0.000, 0.000, 0.000, 14:40:49.272, 1553971249272
182, -30367.26, 0.00, 0.00, 0.00, 0.00, 0.00, 0.00, -9468.58, 0.000, 0.000, 0.000, 14:40:49.272, 1553971249272
183, -30366.47, 0.00, 0.00, 0.00, 0.00, 0.00, 0.00, -9479.96, 0.000, 0.000, 0.000, 14:40:49.272, 1553971249272
184, -30389.07, 0.00, 0.00, 0.00, 0.00, 0.00, 0.00, -9473.50, 0.000, 0.000, 0.000, 14:40:49.272, 1553971249272
185, -30394.55, 0.00, 0.00, 0.00, 0.00, 0.00, 0.00, -9470.30, 0.000, 0.000, 0.000, 14:40:49.273, 1553971249273
186, -30373.70, 0.00, 0.00, 0.00, 0.00, 0.00, 0.00, -9473.47, 0.000, 0.000, 0.000, 14:40:49.273, 1553971249273
187, -30358.92, 0.00, 0.00, 0.00, 0.00, 0.00, 0.00, -9472.27, 0.000, 0.000, 0.000, 14:40:49.273, 1553971249273
188, -30380.29, 0.00, 0.00, 0.00, 0.00, 0.00, 0.00, -9461.76, 0.056, 0.098, -1.024, 14:40:49.273, 1553971249273
189, -30387.78, 0.00, 0.00, 0.00, 0.00, 0.00, 0.00, -9456.04, 0.000, 0.000, 0.000, 14:40:49.273, 1553971249273
190, -30368.67, 0.00, 0.00, 0.00, 0.00, 0.00, 0.00, -9458.59, 0.000, 0.000, 0.000, 14:40:49.273, 1553971249273
191, -30357.29, 0.00, 0.00, 0.00, 0.00, 0.00, 0.00, -9465.65, 0.000, 0.000, 0.000, 14:40:49.273, 1553971249273
192, -30374.05, 0.00, 0.00, 0.00, 0.00, 0.00, 0.00, -9460.60, 0.000, 0.000, 0.000, 14:40:49.737, 1553971249737
193, -30387.26, 0.00, 0.00, 0.00, 0.00, 0.00, 0.00, -9454.94, 0.000, 0.000, 0.000, 14:40:49.737, 1553971249737
194, -30374.97, 0.00, 0.00, 0.00, 0.00, 0.00, 0.00, -9456.38, 0.000, 0.000, 0.000, 14:40:49.737, 1553971249737
195, -30353.80, 0.00, 0.00, 0.00, 0.00, 0.00, 0.00, -9464.56, 0.000, 0.000, 0.000, 14:40:49.737, 1553971249737
196, -30368.35, 0.00, 0.00, 0.00, 0.00, 0.00, 0.00, -9463.86, 0.000, 0.000, 0.000, 14:40:49.737, 1553971249737
197, -30388.67, 0.00, 0.00, 0.00, 0.00, 0.00, 0.00, -9460.49, 0.000, 0.000, 0.000, 14:40:49.737, 1553971249737
198, -30380.98, 0.00, 0.00, 0.00, 0.00, 0.00, 0.00, -9467.44, 0.054, 0.092, -1.022, 14:40:49.737, 1553971249737
199, -30364.91, 0.00, 0.00, 0.00, 0.00, 0.00, 0.00, -9476.42, 0.000, 0.000, 0.000, 14:40:49.737, 1553971249737
200, -30377.07, 0.00, 0.00, 0.00, 0.00, 0.00, 0.00, -9477.81, 0.000, 0.000, 0.000, 14:40:49.737, 1553971249737
201, -30380.69, 0.00, 0.00, 0.00, 0.00, 0.00, 0.00, -9460.08, 0.000, 0.000, 0.000, 14:40:49.737, 1553971249737
202, -30371.24, 0.00, 0.00, 0.00, 0.00, 0.00, 0.00, -9456.84, 0.000, 0.000, 0.000, 14:40:49.737, 1553971249737
203, -30358.85, 0.00, 0.00, 0.00, 0.00, 0.00, 0.00, -9465.63, 0.000, 0.000, 0.000, 14:40:49.737, 1553971249737
204, -30361.69, 0.00, 0.00, 0.00, 0.00, 0.00, 0.00, -9467.95, 0.000, 0.000, 0.000, 14:40:49.737, 1553971249737
205, -30383.08, 0.00, 0.00, 0.00, 0.00, 0.00, 0.00, -9458.50, 0.000, 0.000, 0.000, 14:40:49.737, 1553971249737
206, -30386.28, 0.00, 0.00, 0.00, 0.00, 0.00, 0.00, -9464.76, 0.000, 0.000, 0.000, 14:40:49.737, 1553971249737
207, -30367.77, 0.00, 0.00, 0.00, 0.00, 0.00, 0.00, -9473.50, 0.000, 0.000, 0.000, 14:40:49.737, 1553971249737
208, -30359.37, 0.00, 0.00, 0.00, 0.00, 0.00, 0.00, -9475.06, 0.052, 0.090, -1.020, 14:40:49.737, 1553971249737
209, -30372.51, 0.00, 0.00, 0.00, 0.00, 0.00, 0.00, -9455.70, 0.000, 0.000, 0.000, 14:40:49.737, 1553971249737
210, -30382.32, 0.00, 0.00, 0.00, 0.00, 0.00, 0.00, -9455.68, 0.000, 0.000, 0.000, 14:40:49.737, 1553971249737
211, -30376.58, 0.00, 0.00, 0.00, 0.00, 0.00, 0.00, -9473.34, 0.000, 0.000, 0.000, 14:40:49.737, 1553971249737
212, -30356.75, 0.00, 0.00, 0.00, 0.00, 0.00, 0.00, -9471.80, 0.000, 0.000, 0.000, 14:40:49.737, 1553971249737
213, -30365.65, 0.00, 0.00, 0.00, 0.00, 0.00, 0.00, -9457.63, 0.000, 0.000, 0.000, 14:40:49.737, 1553971249737
214, -30378.17, 0.00, 0.00, 0.00, 0.00, 0.00, 0.00, -9449.98, 0.000, 0.000, 0.000, 14:40:49.738, 1553971249738
215, -30353.27, 0.00, 0.00, 0.00, 0.00, 0.00, 0.00, -9448.95, 0.000, 0.000, 0.000, 14:40:49.738, 1553971249738
216, -30341.60, 0.00, 0.00, 0.00, 0.00, 0.00, 0.00, -9459.15, 0.000, 0.000, 0.000, 14:40:49.738, 1553971249738
217, -30355.61, 0.00, 0.00, 0.00, 0.00, 0.00, 0.00, -9453.78, 0.000, 0.000, 0.000, 14:40:49.738, 1553971249738
218, -30373.96, 0.00, 0.00, 0.00, 0.00, 0.00, 0.00, -9449.62, 0.054, 0.090, -1.024, 14:40:49.738, 1553971249738
219, -30369.27, 0.00, 0.00, 0.00, 0.00, 0.00, 0.00, -9463.08, 0.000, 0.000, 0.000, 14:40:49.738, 1553971249738
220, -30349.33, 0.00, 0.00, 0.00, 0.00, 0.00, 0.00, -9467.73, 0.000, 0.000, 0.000, 14:40:49.738, 1553971249738
221, -30351.10, 0.00, 0.00, 0.00, 0.00, 0.00, 0.00, -9456.53, 0.000, 0.000, 0.000, 14:40:49.738, 1553971249738
222, -30366.88, 0.00, 0.00, 0.00, 0.00, 0.00, 0.00, -9447.59, 0.000, 0.000, 0.000, 14:40:49.738, 1553971249738
223, -30359.48, 0.00, 0.00, 0.00, 0.00, 0.00, 0.00, -9449.80, 0.000, 0.000, 0.000, 14:40:49.738, 1553971249738
224, -30350.05, 0.00, 0.00, 0.00, 0.00, 0.00, 0.00, -9456.26, 0.000, 0.000, 0.000, 14:40:49.738, 1553971249738
225, -30350.94, 0.00, 0.00, 0.00, 0.00, 0.00, 0.00, -9452.04, 0.000, 0.000, 0.000, 14:40:49.738, 1553971249738
226, -30363.44, 0.00, 0.00, 0.00, 0.00, 0.00, 0.00, -9437.44, 0.000, 0.000, 0.000, 14:40:49.739, 1553971249739
227, -30357.85, 0.00, 0.00, 0.00, 0.00, 0.00, 0.00, -9438.78, 0.000, 0.000, 0.000, 14:40:49.739, 1553971249739
228, -30341.15, 0.00, 0.00, 0.00, 0.00, 0.00, 0.00, -9447.55, 0.052, 0.092, -1.028, 14:40:49.739, 1553971249739
229, -30341.60, 0.00, 0.00, 0.00, 0.00, 0.00, 0.00, -9451.37, 0.000, 0.000, 0.000, 14:40:49.739, 1553971249739
230, -30357.94, 0.00, 0.00, 0.00, 0.00, 0.00, 0.00, -9443.30, 0.000, 0.000, 0.000, 14:40:49.739, 1553971249739
231, -30359.41, 0.00, 0.00, 0.00, 0.00, 0.00, 0.00, -9449.04, 0.000, 0.000, 0.000, 14:40:49.739, 1553971249739
232, -30341.42, 0.00, 0.00, 0.00, 0.00, 0.00, 0.00, -9463.37, 0.000, 0.000, 0.000, 14:40:49.739, 1553971249739
233, -30338.40, 0.00, 0.00, 0.00, 0.00, 0.00, 0.00, -9467.06, 0.000, 0.000, 0.000, 14:40:49.739, 1553971249739
234, -30362.65, 0.00, 0.00, 0.00, 0.00, 0.00, 0.00, -9456.64, 0.000, 0.000, 0.000, 14:40:49.739, 1553971249739
235, -30375.06, 0.00, 0.00, 0.00, 0.00, 0.00, 0.00, -9453.65, 0.000, 0.000, 0.000, 14:40:49.739, 1553971249739
236, -30356.60, 0.00, 0.00, 0.00, 0.00, 0.00, 0.00, -9461.52, 0.000, 0.000, 0.000, 14:40:49.739, 1553971249739
237, -30348.46, 0.00, 0.00, 0.00, 0.00, 0.00, 0.00, -9466.77, 0.050, 0.092, -1.026, 14:40:49.739, 1553971249739
238, -30369.78, 0.00, 0.00, 0.00, 0.00, 0.00, 0.00, -9459.24, 0.000, 0.000, 0.000, 14:40:49.739, 1553971249739
239, -30379.62, 0.00, 0.00, 0.00, 0.00, 0.00, 0.00, -9451.68, 0.000, 0.000, 0.000, 14:40:49.739, 1553971249739
240, -30362.23, 0.00, 0.00, 0.00, 0.00, 0.00, 0.00, -9452.42, 0.000, 0.000, 0.000, 14:40:49.739, 1553971249739
241, -30350.27, 0.00, 0.00, 0.00, 0.00, 0.00, 0.00, -9460.51, 0.000, 0.000, 0.000, 14:40:49.739, 1553971249739
242, -30359.12, 0.00, 0.00, 0.00, 0.00, 0.00, 0.00, -9449.27, 0.000, 0.000, 0.000, 14:40:49.739, 1553971249739
243, -30372.60, 0.00, 0.00, 0.00, 0.00, 0.00, 0.00, -9440.10, 0.000, 0.000, 0.000, 14:40:49.739, 1553971249739
244, -30365.78, 0.00, 0.00, 0.00, 0.00, 0.00, 0.00, -9447.28, 0.000, 0.000, 0.000, 14:40:49.740, 1553971249740
245, -30348.10, 0.00, 0.00, 0.00, 0.00, 0.00, 0.00, -9455.61, 0.000, 0.000, 0.000, 14:40:49.740, 1553971249740
246, -30358.70, 0.00, 0.00, 0.00, 0.00, 0.00, 0.00, -9453.20, 0.000, 0.000, 0.000, 14:40:49.740, 1553971249740
247, -30371.19, 0.00, 0.00, 0.00, 0.00, 0.00, 0.00, -9445.40, 0.048, 0.092, -1.028, 14:40:49.740, 1553971249740
248, -30366.61, 0.00, 0.00, 0.00, 0.00, 0.00, 0.00, -9453.22, 0.000, 0.000, 0.000, 14:40:49.740, 1553971249740
249, -30346.61, 0.00, 0.00, 0.00, 0.00, 0.00, 0.00, -9460.11, 0.000, 0.000, 0.000, 14:40:49.740, 1553971249740
250, -30344.82, 0.00, 0.00, 0.00, 0.00, 0.00, 0.00, -9450.47, 0.000, 0.000, 0.000, 14:40:49.740, 1553971249740
251, -30370.90, 0.00, 0.00, 0.00, 0.00, 0.00, 0.00, -9449.07, 0.000, 0.000, 0.000, 14:40:49.740, 1553971249740
252, -30368.87, 0.00, 0.00, 0.00, 0.00, 0.00, 0.00, -9455.75, 0.000, 0.000, 0.000, 14:40:49.740, 1553971249740
253, -30351.97, 0.00, 0.00, 0.00, 0.00, 0.00, 0.00, -9466.39, 0.000, 0.000, 0.000, 14:40:49.740, 1553971249740
254, -30347.23, 0.00, 0.00, 0.00, 0.00, 0.00, 0.00, -9465.87, 0.000, 0.000, 0.000, 14:40:49.740, 1553971249740
255, -30376.78, 0.00, 0.00, 0.00, 0.00, 0.00, 0.00, -9459.77, 0.000, 0.000, 0.000, 14:40:49.740, 1553971249740
0, -30377.72, 0.00, 0.00, 0.00, 0.00, 0.00, 0.00, -9456.15, 0.000, 0.000, 0.000, 14:40:49.741, 1553971249741
1, -30352.30, 0.00, 0.00, 0.00, 0.00, 0.00, 0.00, -9459.71, 0.054, 0.092, -1.026, 14:40:49.741, 1553971249741
2, -30348.59, 0.00, 0.00, 0.00, 0.00, 0.00, 0.00, -9461.69, 0.000, 0.000, 0.000, 14:40:49.741, 1553971249741
3, -30373.76, 0.00, 0.00, 0.00, 0.00, 0.00, 0.00, -9453.45, 0.000, 0.000, 0.000, 14:40:49.741, 1553971249741
4, -30370.70, 0.00, 0.00, 0.00, 0.00, 0.00, 0.00, -9444.93, 0.000, 0.000, 0.000, 14:40:49.741, 1553971249741
5, -30353.53, 0.00, 0.00, 0.00, 0.00, 0.00, 0.00, -9450.54, 0.000, 0.000, 0.000, 14:40:49.741, 1553971249741
6, -30352.88, 0.00, 0.00, 0.00, 0.00, 0.00, 0.00, -9462.92, 0.000, 0.000, 0.000, 14:40:49.741, 1553971249741
7, -30382.44, 0.00, 0.00, 0.00, 0.00, 0.00, 0.00, -9462.97, 0.000, 0.000, 0.000, 14:40:49.741, 1553971249741
8, -30381.74, 0.00, 0.00, 0.00, 0.00, 0.00, 0.00, -9454.61, 0.000, 0.000, 0.000, 14:40:49.741, 1553971249741
9, -30362.68, 0.00, 0.00, 0.00, 0.00, 0.00, 0.00, -9452.66, 0.000, 0.000, 0.000, 14:40:49.741, 1553971249741
10, -30341.35, 0.00, 0.00, 0.00, 0.00, 0.00, 0.00, -9452.04, 0.000, 0.000, 0.000, 14:40:49.741, 1553971249741
11, -30365.04, 0.00, 0.00, 0.00, 0.00, 0.00, 0.00, -9453.33, 0.056, 0.092, -1.028, 14:40:49.741, 1553971249741
12, -30382.17, 0.00, 0.00, 0.00, 0.00, 0.00, 0.00, -9451.81, 0.000, 0.000, 0.000, 14:40:49.741, 1553971249741
13, -30364.38, 0.00, 0.00, 0.00, 0.00, 0.00, 0.00, -9446.54, 0.000, 0.000, 0.000, 14:40:49.741, 1553971249741
14, -30353.40, 0.00, 0.00, 0.00, 0.00, 0.00, 0.00, -9459.35, 0.000, 0.000, 0.000, 14:40:49.741, 1553971249741
15, -30363.70, 0.00, 0.00, 0.00, 0.00, 0.00, 0.00, -9460.49, 0.000, 0.000, 0.000, 14:40:49.741, 1553971249741
16, -30381.76, 0.00, 0.00, 0.00, 0.00, 0.00, 0.00, -9454.79, 0.000, 0.000, 0.000, 14:40:49.741, 1553971249741
17, -30376.82, 0.00, 0.00, 0.00, 0.00, 0.00, 0.00, -9461.58, 0.000, 0.000, 0.000, 14:40:49.741, 1553971249741
18, -30357.85, 0.00, 0.00, 0.00, 0.00, 0.00, 0.00, -9469.70, 0.000, 0.000, 0.000, 14:40:49.741, 1553971249741
19, -30362.03, 0.00, 0.00, 0.00, 0.00, 0.00, 0.00, -9464.11, 0.000, 0.000, 0.000, 14:40:49.741, 1553971249741
20, -30382.44, 0.00, 0.00, 0.00, 0.00, 0.00, 0.00, -9459.08, 0.000, 0.000, 0.000, 14:40:49.741, 1553971249741
21, -30380.40, 0.00, 0.00, 0.00, 0.00, 0.00, 0.00, -9464.85, 0.054, 0.096, -1.022, 14:40:49.741, 1553971249741
22, -30360.11, 0.00, 0.00, 0.00, 0.00, 0.00, 0.00, -9468.22, 0.000, 0.000, 0.000, 14:40:49.741, 1553971249741
23, -30355.88, 0.00, 0.00, 0.00, 0.00, 0.00, 0.00, -9467.77, 0.000, 0.000, 0.000, 14:40:49.741, 1553971249741
24, -30383.04, 0.00, 0.00, 0.00, 0.00, 0.00, 0.00, -9460.58, 0.000, 0.000, 0.000, 14:40:49.741, 1553971249741
25, -30392.27, 0.00, 0.00, 0.00, 0.00, 0.00, 0.00, -9465.02, 0.000, 0.000, 0.000, 14:40:49.742, 1553971249742
26, -30364.17, 0.00, 0.00, 0.00, 0.00, 0.00, 0.00, -9465.23, 0.000, 0.000, 0.000, 14:40:49.742, 1553971249742
27, -30360.62, 0.00, 0.00, 0.00, 0.00, 0.00, 0.00, -9474.50, 0.000, 0.000, 0.000, 14:40:49.742, 1553971249742
28, -30385.56, 0.00, 0.00, 0.00, 0.00, 0.00, 0.00, -9468.00, 0.000, 0.000, 0.000, 14:40:49.742, 1553971249742
29, -30396.52, 0.00, 0.00, 0.00, 0.00, 0.00, 0.00, -9466.32, 0.000, 0.000, 0.000, 14:40:49.742, 1553971249742
30, -30372.46, 0.00, 0.00, 0.00, 0.00, 0.00, 0.00, -9469.50, 0.000, 0.000, 0.000, 14:40:49.742, 1553971249742
31, -30360.20, 0.00, 0.00, 0.00, 0.00, 0.00, 0.00, -9474.03, 0.048, 0.090, -1.028, 14:40:49.742, 1553971249742
32, -30383.64, 0.00, 0.00, 0.00, 0.00, 0.00, 0.00, -9466.39, 0.000, 0.000, 0.000, 14:40:49.742, 1553971249742
33, -30392.94, 0.00, 0.00, 0.00, 0.00, 0.00, 0.00, -9457.45, 0.000, 0.000, 0.000, 14:40:49.742, 1553971249742
34, -30373.27, 0.00, 0.00, 0.00, 0.00, 0.00, 0.00, -9463.82, 0.000, 0.000, 0.000, 14:40:49.742, 1553971249742
35, -30368.49, 0.00, 0.00, 0.00, 0.00, 0.00, 0.00, -9480.92, 0.000, 0.000, 0.000, 14:40:49.742, 1553971249742
36, -30381.79, 0.00, 0.00, 0.00, 0.00, 0.00, 0.00, -9476.49, 0.000, 0.000, 0.000, 14:40:49.742, 1553971249742
37, -30400.65, 0.00, 0.00, 0.00, 0.00, 0.00, 0.00, -9472.20, 0.000, 0.000, 0.000, 14:40:49.742, 1553971249742
38, -30388.47, 0.00, 0.00, 0.00, 0.00, 0.00, 0.00, -9472.20, 0.000, 0.000, 0.000, 14:40:49.742, 1553971249742
39, -30373.34, 0.00, 0.00, 0.00, 0.00, 0.00, 0.00, -9479.26, 0.000, 0.000, 0.000, 14:40:49.742, 1553971249742
40, -30386.23, 0.00, 0.00, 0.00, 0.00, 0.00, 0.00, -9480.67, 0.000, 0.000, 0.000, 14:40:49.742, 1553971249742
41, -30399.53, 0.00, 0.00, 0.00, 0.00, 0.00, 0.00, -9468.74, 0.042, 0.086, -1.028, 14:40:49.743, 1553971249743
42, -30392.78, 0.00, 0.00, 0.00, 0.00, 0.00, 0.00, -9467.21, 0.000, 0.000, 0.000, 14:40:49.743, 1553971249743
43, -30384.49, 0.00, 0.00, 0.00, 0.00, 0.00, 0.00, -9484.11, 0.000, 0.000, 0.000, 14:40:49.743, 1553971249743
44, -30382.86, 0.00, 0.00, 0.00, 0.00, 0.00, 0.00, -9485.03, 0.000, 0.000, 0.000, 14:40:49.743, 1553971249743
45, -30401.10, 0.00, 0.00, 0.00, 0.00, 0.00, 0.00, -9473.88, 0.000, 0.000, 0.000, 14:40:49.743, 1553971249743
46, -30404.38, 0.00, 0.00, 0.00, 0.00, 0.00, 0.00, -9479.44, 0.000, 0.000, 0.000, 14:40:49.743, 1553971249743
47, -30379.02, 0.00, 0.00, 0.00, 0.00, 0.00, 0.00, -9483.26, 0.000, 0.000, 0.000, 14:40:49.743, 1553971249743
48, -30372.91, 0.00, 0.00, 0.00, 0.00, 0.00, 0.00, -9479.53, 0.000, 0.000, 0.000, 14:40:49.743, 1553971249743
49, -30402.91, 0.00, 0.00, 0.00, 0.00, 0.00, 0.00, -9478.30, 0.000, 0.000, 0.000, 14:40:49.743, 1553971249743
50, -30409.48, 0.00, 0.00, 0.00, 0.00, 0.00, 0.00, -9485.50, 0.048, 0.096, -1.024, 14:40:49.743, 1553971249743
51, -30386.59, 0.00, 0.00, 0.00, 0.00, 0.00, 0.00, -9492.74, 0.000, 0.000, 0.000, 14:40:49.743, 1553971249743
52, -30377.83, 0.00, 0.00, 0.00, 0.00, 0.00, 0.00, -9492.65, 0.000, 0.000, 0.000, 14:40:49.743, 1553971249743
53, -30395.55, 0.00, 0.00, 0.00, 0.00, 0.00, 0.00, -9483.73, 0.000, 0.000, 0.000, 14:40:49.743, 1553971249743
54, -30402.02, 0.00, 0.00, 0.00, 0.00, 0.00, 0.00, -9480.89, 0.000, 0.000, 0.000, 14:40:49.743, 1553971249743
55, -30383.11, 0.00, 0.00, 0.00, 0.00, 0.00, 0.00, -9488.09, 0.000, 0.000, 0.000, 14:40:49.743, 1553971249743
56, -30382.63, 0.00, 0.00, 0.00, 0.00, 0.00, 0.00, -9507.00, 0.000, 0.000, 0.000, 14:40:50.212, 1553971250212
57, -30397.77, 0.00, 0.00, 0.00, 0.00, 0.00, 0.00, -9501.57, 0.000, 0.000, 0.000, 14:40:50.212, 1553971250212
58, -30411.71, 0.00, 0.00, 0.00, 0.00, 0.00, 0.00, -9499.33, 0.000, 0.000, 0.000, 14:40:50.212, 1553971250212
59, -30405.28, 0.00, 0.00, 0.00, 0.00, 0.00, 0.00, -9512.95, 0.000, 0.000, 0.000, 14:40:50.212, 1553971250212
60, -30390.75, 0.00, 0.00, 0.00, 0.00, 0.00, 0.00, -9520.26, 0.050, 0.094, -1.028, 14:40:50.212, 1553971250212
61, -30398.17, 0.00, 0.00, 0.00, 0.00, 0.00, 0.00, -9507.87, 0.000, 0.000, 0.000, 14:40:50.212, 1553971250212
62, -30410.87, 0.00, 0.00, 0.00, 0.00, 0.00, 0.00, -9497.21, 0.000, 0.000, 0.000, 14:40:50.212, 1553971250212
63, -30405.28, 0.00, 0.00, 0.00, 0.00, 0.00, 0.00, -9504.56, 0.000, 0.000, 0.000, 14:40:50.212, 1553971250212
64, -30386.05, 0.00, 0.00, 0.00, 0.00, 0.00, 0.00, -9512.16, 0.000, 0.000, 0.000, 14:40:50.212, 1553971250212
65, -30384.65, 0.00, 0.00, 0.00, 0.00, 0.00, 0.00, -9499.83, 0.000, 0.000, 0.000, 14:40:50.212, 1553971250212
66, -30402.73, 0.00, 0.00, 0.00, 0.00, 0.00, 0.00, -9489.50, 0.000, 0.000, 0.000, 14:40:50.212, 1553971250212
67, -30402.42, 0.00, 0.00, 0.00, 0.00, 0.00, 0.00, -9494.66, 0.000, 0.000, 0.000, 14:40:50.212, 1553971250212
68, -30381.76, 0.00, 0.00, 0.00, 0.00, 0.00, 0.00, -9504.68, 0.000, 0.000, 0.000, 14:40:50.212, 1553971250212
69, -30373.27, 0.00, 0.00, 0.00, 0.00, 0.00, 0.00, -9495.92, 0.000, 0.000, 0.000, 14:40:50.212, 1553971250212
70, -30391.46, 0.00, 0.00, 0.00, 0.00, 0.00, 0.00, -9478.46, 0.050, 0.090, -1.026, 14:40:50.212, 1553971250212
71, -30390.82, 0.00, 0.00, 0.00, 0.00, 0.00, 0.00, -9478.12, 0.000, 0.000, 0.000, 14:40:50.212, 1553971250212
72, -30371.59, 0.00, 0.00, 0.00, 0.00, 0.00, 0.00, -9481.74, 0.000, 0.000, 0.000, 14:40:50.212, 1553971250212
73, -30370.77, 0.00, 0.00, 0.00, 0.00, 0.00, 0.00, -9482.75, 0.000, 0.000, 0.000, 14:40:50.212, 1553971250212
74, -30398.88, 0.00, 0.00, 0.00, 0.00, 0.00, 0.00, -9477.09, 0.000, 0.000, 0.000, 14:40:50.212, 1553971250212
75, -30399.85, 0.00, 0.00, 0.00, 0.00, 0.00, 0.00, -9473.09, 0.000, 0.000, 0.000, 14:40:50.212, 1553971250212
76, -30378.93, 0.00, 0.00, 0.00, 0.00, 0.00, 0.00, -9474.43, 0.000, 0.000, 0.000, 14:40:50.212, 1553971250212
77, -30373.23, 0.00, 0.00, 0.00, 0.00, 0.00, 0.00, -9480.76, 0.000, 0.000, 0.000, 14:40:50.212, 1553971250212
78, -30389.63, 0.00, 0.00, 0.00, 0.00, 0.00, 0.00, -9472.13, 0.000, 0.000, 0.000, 14:40:50.213, 1553971250213
79, -30399.20, 0.00, 0.00, 0.00, 0.00, 0.00, 0.00, -9472.80, 0.000, 0.000, 0.000, 14:40:50.213, 1553971250213
80, -30385.12, 0.00, 0.00, 0.00, 0.00, 0.00, 0.00, -9481.45, 0.054, 0.088, -1.020, 14:40:50.213, 1553971250213
81, -30371.55, 0.00, 0.00, 0.00, 0.00, 0.00, 0.00, -9489.48, 0.000, 0.000, 0.000, 14:40:50.213, 1553971250213
82, -30383.44, 0.00, 0.00, 0.00, 0.00, 0.00, 0.00, -9475.66, 0.000, 0.000, 0.000, 14:40:50.213, 1553971250213
83, -30395.85, 0.00, 0.00, 0.00, 0.00, 0.00, 0.00, -9464.60, 0.000, 0.000, 0.000, 14:40:50.213, 1553971250213
84, -30382.08, 0.00, 0.00, 0.00, 0.00, 0.00, 0.00, -9469.52, 0.000, 0.000, 0.000, 14:40:50.213, 1553971250213
85, -30367.21, 0.00, 0.00, 0.00, 0.00, 0.00, 0.00, -9481.68, 0.000, 0.000, 0.000, 14:40:50.213, 1553971250213
86, -30379.91, 0.00, 0.00, 0.00, 0.00, 0.00, 0.00, -9474.05, 0.000, 0.000, 0.000, 14:40:50.213, 1553971250213
87, -30393.52, 0.00, 0.00, 0.00, 0.00, 0.00, 0.00, -9464.67, 0.000, 0.000, 0.000, 14:40:50.214, 1553971250214
88, -30385.01, 0.00, 0.00, 0.00, 0.00, 0.00, 0.00, -9472.92, 0.000, 0.000, 0.000, 14:40:50.214, 1553971250214
89, -30365.16, 0.00, 0.00, 0.00, 0.00, 0.00, 0.00, -9473.94, 0.000, 0.000, 0.000, 14:40:50.214, 1553971250214
90, -30374.66, 0.00, 0.00, 0.00, 0.00, 0.00, 0.00, -9474.70, 0.056, 0.092, -1.022, 14:40:50.214, 1553971250214
91, -30399.60, 0.00, 0.00, 0.00, 0.00, 0.00, 0.00, -9471.28, 0.000, 0.000, 0.000, 14:40:50.214, 1553971250214
92, -30392.07, 0.00, 0.00, 0.00, 0.00, 0.00, 0.00, -9473.94, 0.000, 0.000, 0.000, 14:40:50.214, 1553971250214
93, -30360.15, 0.00, 0.00, 0.00, 0.00, 0.00, 0.00, -9475.40, 0.000, 0.000, 0.000, 14:40:50.214, 1553971250214
94, -30362.09, 0.00, 0.00, 0.00, 0.00, 0.00, 0.00, -9478.79, 0.000, 0.000, 0.000, 14:40:50.214, 1553971250214
95, -30383.42, 0.00, 0.00, 0.00, 0.00, 0.00, 0.00, -9472.62, 0.000, 0.000, 0.000, 14:40:50.214, 1553971250214
96, -30382.79, 0.00, 0.00, 0.00, 0.00, 0.00, 0.00, -9467.80, 0.000, 0.000, 0.000, 14:40:50.214, 1553971250214
97, -30367.44, 0.00, 0.00, 0.00, 0.00, 0.00, 0.00, -9478.82, 0.000, 0.000, 0.000, 14:40:50.214, 1553971250214
98, -30365.43, 0.00, 0.00, 0.00, 0.00, 0.00, 0.00, -9485.88, 0.000, 0.000, 0.000, 14:40:50.214, 1553971250214
99, -30382.95, 0.00, 0.00, 0.00, 0.00, 0.00, 0.00, -9476.38, 0.000, 0.000, 0.000, 14:40:50.214, 1553971250214
100, -30386.10, 0.00, 0.00, 0.00, 0.00, 0.00, 0.00, -9470.52, 0.052, 0.092, -1.024, 14:40:50.214, 1553971250214
101, -30370.83, 0.00, 0.00, 0.00, 0.00, 0.00, 0.00, -9476.49, 0.000, 0.000, 0.000, 14:40:50.215, 1553971250215
102, -30368.29, 0.00, 0.00, 0.00, 0.00, 0.00, 0.00, -9488.02, 0.000, 0.000, 0.000, 14:40:50.215, 1553971250215
103, -30387.11, 0.00, 0.00, 0.00, 0.00, 0.00, 0.00, -9475.89, 0.000, 0.000, 0.000, 14:40:50.215, 1553971250215
104, -30395.49, 0.00, 0.00, 0.00, 0.00, 0.00, 0.00, -9471.15, 0.000, 0.000, 0.000, 14:40:50.215, 1553971250215
105, -30380.76, 0.00, 0.00, 0.00, 0.00, 0.00, 0.00, -9475.57, 0.000, 0.000, 0.000, 14:40:50.215, 1553971250215
106, -30367.44, 0.00, 0.00, 0.00, 0.00, 0.00, 0.00, -9482.53, 0.000, 0.000, 0.000, 14:40:50.215, 1553971250215
107, -30387.24, 0.00, 0.00, 0.00, 0.00, 0.00, 0.00, -9475.87, 0.000, 0.000, 0.000, 14:40:50.215, 1553971250215
108, -30391.13, 0.00, 0.00, 0.00, 0.00, 0.00, 0.00, -9464.38, 0.000, 0.000, 0.000, 14:40:50.215, 1553971250215
109, -30375.37, 0.00, 0.00, 0.00, 0.00, 0.00, 0.00, -9466.25, 0.046, 0.092, -1.022, 14:40:50.215, 1553971250215
110, -30361.74, 0.00, 0.00, 0.00, 0.00, 0.00, 0.00, -9473.97, 0.000, 0.000, 0.000, 14:40:50.215, 1553971250215
111, -30376.51, 0.00, 0.00, 0.00, 0.00, 0.00, 0.00, -9472.09, 0.000, 0.000, 0.000, 14:40:50.215, 1553971250215
112, -30390.39, 0.00, 0.00, 0.00, 0.00, 0.00, 0.00, -9462.52, 0.000, 0.000, 0.000, 14:40:50.215, 1553971250215
113, -30383.48, 0.00, 0.00, 0.00, 0.00, 0.00, 0.00, -9468.33, 0.000, 0.000, 0.000, 14:40:50.215, 1553971250215
114, -30365.56, 0.00, 0.00, 0.00, 0.00, 0.00, 0.00, -9476.02, 0.000, 0.000, 0.000, 14:40:50.215, 1553971250215
115, -30367.06, 0.00, 0.00, 0.00, 0.00, 0.00, 0.00, -9469.36, 0.000, 0.000, 0.000, 14:40:50.215, 1553971250215
116, -30388.38, 0.00, 0.00, 0.00, 0.00, 0.00, 0.00, -9465.92, 0.000, 0.000, 0.000, 14:40:50.215, 1553971250215
117, -30390.93, 0.00, 0.00, 0.00, 0.00, 0.00, 0.00, -9473.50, 0.000, 0.000, 0.000, 14:40:50.216, 1553971250216
118, -30366.90, 0.00, 0.00, 0.00, 0.00, 0.00, 0.00, -9473.00, 0.000, 0.000, 0.000, 14:40:50.216, 1553971250216
119, -30367.50, 0.00, 0.00, 0.00, 0.00, 0.00, 0.00, -9473.05, 0.046, 0.096, -1.020, 14:40:50.216, 1553971250216
120, -30381.23, 0.00, 0.00, 0.00, 0.00, 0.00, 0.00, -9457.34, 0.000, 0.000, 0.000, 14:40:50.216, 1553971250216
121, -30380.87, 0.00, 0.00, 0.00, 0.00, 0.00, 0.00, -9460.38, 0.000, 0.000, 0.000, 14:40:50.216, 1553971250216
122, -30365.45, 0.00, 0.00, 0.00, 0.00, 0.00, 0.00, -9473.16, 0.000, 0.000, 0.000, 14:40:50.216, 1553971250216
123, -30359.28, 0.00, 0.00, 0.00, 0.00, 0.00, 0.00, -9478.73, 0.000, 0.000, 0.000, 14:40:50.216, 1553971250216
124, -30381.09, 0.00, 0.00, 0.00, 0.00, 0.00, 0.00, -9471.98, 0.000, 0.000, 0.000, 14:40:50.216, 1553971250216
125, -30388.89, 0.00, 0.00, 0.00, 0.00, 0.00, 0.00, -9474.73, 0.000, 0.000, 0.000, 14:40:50.216, 1553971250216
126, -30365.76, 0.00, 0.00, 0.00, 0.00, 0.00, 0.00, -9477.14, 0.000, 0.000, 0.000, 14:40:50.217, 1553971250217
127, -30359.70, 0.00, 0.00, 0.00, 0.00, 0.00, 0.00, -9483.76, 0.000, 0.000, 0.000, 14:40:50.217, 1553971250217
128, -30381.36, 0.00, 0.00, 0.00, 0.00, 0.00, 0.00, -9478.70, 0.000, 0.000, 0.000, 14:40:50.217, 1553971250217
129, -30388.29, 0.00, 0.00, 0.00, 0.00, 0.00, 0.00, -9472.36, 0.054, 0.094, -1.020, 14:40:50.217, 1553971250217
130, -30375.21, 0.00, 0.00, 0.00, 0.00, 0.00, 0.00, -9478.88, 0.000, 0.000, 0.000, 14:40:50.217, 1553971250217
131, -30355.10, 0.00, 0.00, 0.00, 0.00, 0.00, 0.00, -9481.36, 0.000, 0.000, 0.000, 14:40:50.217, 1553971250217
132, -30372.46, 0.00, 0.00, 0.00, 0.00, 0.00, 0.00, -9478.48, 0.000, 0.000, 0.000, 14:40:50.217, 1553971250217
133, -30380.96, 0.00, 0.00, 0.00, 0.00, 0.00, 0.00, -9464.98, 0.000, 0.000, 0.000, 14:40:50.217, 1553971250217
134, -30362.01, 0.00, 0.00, 0.00, 0.00, 0.00, 0.00, -9463.68, 0.000, 0.000, 0.000, 14:40:50.217, 1553971250217
135, -30344.53, 0.00, 0.00, 0.00, 0.00, 0.00, 0.00, -9467.30, 0.000, 0.000, 0.000, 14:40:50.217, 1553971250217
136, -30363.53, 0.00, 0.00, 0.00, 0.00, 0.00, 0.00, -9465.87, 0.000, 0.000, 0.000, 14:40:50.217, 1553971250217
137, -30380.20, 0.00, 0.00, 0.00, 0.00, 0.00, 0.00, -9462.77, 0.000, 0.000, 0.000, 14:40:50.217, 1553971250217
138, -30369.85, 0.00, 0.00, 0.00, 0.00, 0.00, 0.00, -9464.82, 0.000, 0.000, 0.000, 14:40:50.217, 1553971250217
139, -30349.29, 0.00, 0.00, 0.00, 0.00, 0.00, 0.00, -9471.42, 0.056, 0.094, -1.026, 14:40:50.217, 1553971250217
140, -30354.27, 0.00, 0.00, 0.00, 0.00, 0.00, 0.00, -9467.53, 0.000, 0.000, 0.000, 14:40:50.217, 1553971250217
141, -30375.68, 0.00, 0.00, 0.00, 0.00, 0.00, 0.00, -9457.83, 0.000, 0.000, 0.000, 14:40:50.217, 1553971250217
142, -30372.13, 0.00, 0.00, 0.00, 0.00, 0.00, 0.00, -9456.31, 0.000, 0.000, 0.000, 14:40:50.217, 1553971250217
143, -30356.51, 0.00, 0.00, 0.00, 0.00, 0.00, 0.00, -9468.33, 0.000, 0.000, 0.000, 14:40:50.217, 1553971250217
144, -30353.36, 0.00, 0.00, 0.00, 0.00, 0.00, 0.00, -9468.67, 0.000, 0.000, 0.000, 14:40:50.217, 1553971250217
145, -30369.52, 0.00, 0.00, 0.00, 0.00, 0.00, 0.00, -9451.79, 0.000, 0.000, 0.000, 14:40:50.217, 1553971250217
146, -30379.93, 0.00, 0.00, 0.00, 0.00, 0.00, 0.00, -9457.16, 0.000, 0.000, 0.000, 14:40:50.217, 1553971250217
147, -30353.51, 0.00, 0.00, 0.00, 0.00, 0.00, 0.00, -9465.11, 0.000, 0.000, 0.000, 14:40:50.217, 1553971250217
148, -30349.71, 0.00, 0.00, 0.00, 0.00, 0.00, 0.00, -9470.77, 0.000, 0.000, 0.000, 14:40:50.218, 1553971250218
149, -30378.72, 0.00, 0.00, 0.00, 0.00, 0.00, 0.00, -9469.70, 0.054, 0.092, -1.022, 14:40:50.218, 1553971250218
150, -30388.18, 0.00, 0.00, 0.00, 0.00, 0.00, 0.00, -9465.20, 0.000, 0.000, 0.000, 14:40:50.218, 1553971250218
151, -30361.45, 0.00, 0.00, 0.00, 0.00, 0.00, 0.00, -9463.82, 0.000, 0.000, 0.000, 14:40:50.218, 1553971250218
152, -30350.81, 0.00, 0.00, 0.00, 0.00, 0.00, 0.00, -9472.45, 0.000, 0.000, 0.000, 14:40:50.218, 1553971250218
153, -30368.11, 0.00, 0.00, 0.00, 0.00, 0.00, 0.00, -9464.69, 0.000, 0.000, 0.000, 14:40:50.218, 1553971250218
154, -30373.05, 0.00, 0.00, 0.00, 0.00, 0.00, 0.00, -9458.65, 0.000, 0.000, 0.000, 14:40:50.218, 1553971250218
155, -30360.51, 0.00, 0.00, 0.00, 0.00, 0.00, 0.00, -9467.37, 0.000, 0.000, 0.000, 14:40:50.218, 1553971250218
156, -30350.23, 0.00, 0.00, 0.00, 0.00, 0.00, 0.00, -9478.06, 0.000, 0.000, 0.000, 14:40:50.218, 1553971250218
157, -30362.41, 0.00, 0.00, 0.00, 0.00, 0.00, 0.00, -9468.44, 0.000, 0.000, 0.000, 14:40:50.218, 1553971250218
158, -30379.17, 0.00, 0.00, 0.00, 0.00, 0.00, 0.00, -9463.15, 0.000, 0.000, 0.000, 14:40:50.218, 1553971250218
159, -30374.46, 0.00, 0.00, 0.00, 0.00, 0.00, 0.00, -9475.17, 0.054, 0.094, -1.028, 14:40:50.218, 1553971250218
160, -30360.28, 0.00, 0.00, 0.00, 0.00, 0.00, 0.00, -9489.48, 0.000, 0.000, 0.000, 14:40:50.218, 1553971250218
161, -30368.22, 0.00, 0.00, 0.00, 0.00, 0.00, 0.00, -9480.85, 0.000, 0.000, 0.000, 14:40:50.218, 1553971250218
162, -30381.07, 0.00, 0.00, 0.00, 0.00, 0.00, 0.00, -9471.01, 0.000, 0.000, 0.000, 14:40:50.218, 1553971250218
163, -30371.86, 0.00, 0.00, 0.00, 0.00, 0.00, 0.00, -9476.45, 0.000, 0.000, 0.000, 14:40:50.218, 1553971250218
164, -30347.34, 0.00, 0.00, 0.00, 0.00, 0.00, 0.00, -9478.23, 0.000, 0.000, 0.000, 14:40:50.219, 1553971250219
165, -30355.10, 0.00, 0.00, 0.00, 0.00, 0.00, 0.00, -9477.90, 0.000, 0.000, 0.000, 14:40:50.219, 1553971250219
166, -30387.78, 0.00, 0.00, 0.00, 0.00, 0.00, 0.00, -9480.98, 0.000, 0.000, 0.000, 14:40:50.219, 1553971250219
167, -30383.04, 0.00, 0.00, 0.00, 0.00, 0.00, 0.00, -9482.19, 0.000, 0.000, 0.000, 14:40:50.219, 1553971250219
168, -30358.23, 0.00, 0.00, 0.00, 0.00, 0.00, 0.00, -9480.98, 0.000, 0.000, 0.000, 14:40:50.219, 1553971250219
169, -30357.11, 0.00, 0.00, 0.00, 0.00, 0.00, 0.00, -9481.01, 0.048, 0.092, -1.032, 14:40:50.219, 1553971250219
170, -30377.18, 0.00, 0.00, 0.00, 0.00, 0.00, 0.00, -9470.55, 0.000, 0.000, 0.000, 14:40:50.219, 1553971250219
171, -30373.67, 0.00, 0.00, 0.00, 0.00, 0.00, 0.00, -9467.28, 0.000, 0.000, 0.000, 14:40:50.219, 1553971250219
172, -30357.04, 0.00, 0.00, 0.00, 0.00, 0.00, 0.00, -9476.63, 0.000, 0.000, 0.000, 14:40:50.219, 1553971250219
173, -30355.34, 0.00, 0.00, 0.00, 0.00, 0.00, 0.00, -9480.72, 0.000, 0.000, 0.000, 14:40:50.219, 1553971250219
174, -30372.96, 0.00, 0.00, 0.00, 0.00, 0.00, 0.00, -9466.17, 0.000, 0.000, 0.000, 14:40:50.219, 1553971250219
175, -30379.19, 0.00, 0.00, 0.00, 0.00, 0.00, 0.00, -9466.03, 0.000, 0.000, 0.000, 14:40:50.219, 1553971250219
176, -30361.09, 0.00, 0.00, 0.00, 0.00, 0.00, 0.00, -9473.81, 0.000, 0.000, 0.000, 14:40:50.691, 1553971250691
177, -30351.39, 0.00, 0.00, 0.00, 0.00, 0.00, 0.00, -9486.48, 0.000, 0.000, 0.000, 14:40:50.692, 1553971250692
178, -30368.82, 0.00, 0.00, 0.00, 0.00, 0.00, 0.00, -9481.07, 0.048, 0.096, -1.028, 14:40:50.692, 1553971250692
179, -30377.38, 0.00, 0.00, 0.00, 0.00, 0.00, 0.00, -9474.81, 0.000, 0.000, 0.000, 14:40:50.692, 1553971250692
180, -30371.04, 0.00, 0.00, 0.00, 0.00, 0.00, 0.00, -9486.62, 0.000, 0.000, 0.000, 14:40:50.692, 1553971250692
181, -30361.29, 0.00, 0.00, 0.00, 0.00, 0.00, 0.00, -9489.81, 0.000, 0.000, 0.000, 14:40:50.692, 1553971250692
182, -30375.30, 0.00, 0.00, 0.00, 0.00, 0.00, 0.00, -9480.54, 0.000, 0.000, 0.000, 14:40:50.692, 1553971250692
183, -30380.80, 0.00, 0.00, 0.00, 0.00, 0.00, 0.00, -9472.76, 0.000, 0.000, 0.000, 14:40:50.692, 1553971250692
184, -30369.00, 0.00, 0.00, 0.00, 0.00, 0.00, 0.00, -9476.45, 0.000, 0.000, 0.000, 14:40:50.692, 1553971250692
185, -30360.17, 0.00, 0.00, 0.00, 0.00, 0.00, 0.00, -9489.90, 0.000, 0.000, 0.000, 14:40:50.692, 1553971250692
186, -30365.38, 0.00, 0.00, 0.00, 0.00, 0.00, 0.00, -9482.71, 0.000, 0.000, 0.000, 14:40:50.692, 1553971250692
187, -30378.19, 0.00, 0.00, 0.00, 0.00, 0.00, 0.00, -9468.78, 0.000, 0.000, 0.000, 14:40:50.692, 1553971250692
188, -30374.01, 0.00, 0.00, 0.00, 0.00, 0.00, 0.00, -9477.27, 0.052, 0.096, -1.026, 14:40:50.692, 1553971250692
189, -30352.80, 0.00, 0.00, 0.00, 0.00, 0.00, 0.00, -9485.03, 0.000, 0.000, 0.000, 14:40:50.692, 1553971250692
190, -30356.84, 0.00, 0.00, 0.00, 0.00, 0.00, 0.00, -9481.14, 0.000, 0.000, 0.000, 14:40:50.692, 1553971250692
191, -30375.51, 0.00, 0.00, 0.00, 0.00, 0.00, 0.00, -9470.39, 0.000, 0.000, 0.000, 14:40:50.692, 1553971250692
192, -30369.63, 0.00, 0.00, 0.00, 0.00, 0.00, 0.00, -9470.55, 0.000, 0.000, 0.000, 14:40:50.692, 1553971250692
193, -30352.08, 0.00, 0.00, 0.00, 0.00, 0.00, 0.00, -9481.16, 0.000, 0.000, 0.000, 14:40:50.692, 1553971250692
194, -30349.35, 0.00, 0.00, 0.00, 0.00, 0.00, 0.00, -9479.35, 0.000, 0.000, 0.000, 14:40:50.692, 1553971250692
195, -30367.17, 0.00, 0.00, 0.00, 0.00, 0.00, 0.00, -9465.05, 0.000, 0.000, 0.000, 14:40:50.692, 1553971250692
196, -30373.72, 0.00, 0.00, 0.00, 0.00, 0.00, 0.00, -9466.66, 0.000, 0.000, 0.000, 14:40:50.692, 1553971250692
197, -30356.35, 0.00, 0.00, 0.00, 0.00, 0.00, 0.00, -9476.00, 0.000, 0.000, 0.000, 14:40:50.692, 1553971250692
198, -30341.40, 0.00, 0.00, 0.00, 0.00, 0.00, 0.00, -9477.83, 0.052, 0.094, -1.028, 14:40:50.693, 1553971250693
199, -30364.33, 0.00, 0.00, 0.00, 0.00, 0.00, 0.00, -9469.81, 0.000, 0.000, 0.000, 14:40:50.693, 1553971250693
200, -30377.72, 0.00, 0.00, 0.00, 0.00, 0.00, 0.00, -9466.92, 0.000, 0.000, 0.000, 14:40:50.693, 1553971250693
201, -30353.42, 0.00, 0.00, 0.00, 0.00, 0.00, 0.00, -9468.69, 0.000, 0.000, 0.000, 14:40:50.693, 1553971250693
202, -30345.67, 0.00, 0.00, 0.00, 0.00, 0.00, 0.00, -9473.92, 0.000, 0.000, 0.000, 14:40:50.693, 1553971250693
203, -30358.09, 0.00, 0.00, 0.00, 0.00, 0.00, 0.00, -9461.00, 0.000, 0.000, 0.000, 14:40:50.693, 1553971250693
204, -30369.04, 0.00, 0.00, 0.00, 0.00, 0.00, 0.00, -9455.17, 0.000, 0.000, 0.000, 14:40:50.693, 1553971250693
205, -30355.12, 0.00, 0.00, 0.00, 0.00, 0.00, 0.00, -9457.92, 0.000, 0.000, 0.000, 14:40:50.693, 1553971250693
206, -30337.78, 0.00, 0.00, 0.00, 0.00, 0.00, 0.00, -9461.92, 0.000, 0.000, 0.000, 14:40:50.693, 1553971250693
207, -30355.03, 0.00, 0.00, 0.00, 0.00, 0.00, 0.00, -9463.10, 0.000, 0.000, 0.000, 14:40:50.694, 1553971250694
208, -30374.59, 0.00, 0.00, 0.00, 0.00, 0.00, 0.00, -9456.49, 0.054, 0.092, -1.024, 14:40:50.694, 1553971250694
209, -30365.49, 0.00, 0.00, 0.00, 0.00, 0.00, 0.00, -9462.97, 0.000, 0.000, 0.000, 14:40:50.694, 1553971250694
210, -30345.00, 0.00, 0.00, 0.00, 0.00, 0.00, 0.00, -9469.25, 0.000, 0.000, 0.000, 14:40:50.694, 1553971250694
211, -30349.89, 0.00, 0.00, 0.00, 0.00, 0.00, 0.00, -9459.53, 0.000, 0.000, 0.000, 14:40:50.694, 1553971250694
212, -30375.42, 0.00, 0.00, 0.00, 0.00, 0.00, 0.00, -9458.12, 0.000, 0.000, 0.000, 14:40:50.694, 1553971250694
213, -30373.92, 0.00, 0.00, 0.00, 0.00, 0.00, 0.00, -9463.10, 0.000, 0.000, 0.000, 14:40:50.694, 1553971250694
214, -30353.22, 0.00, 0.00, 0.00, 0.00, 0.00, 0.00, -9475.66, 0.000, 0.000, 0.000, 14:40:50.694, 1553971250694
215, -30348.79, 0.00, 0.00, 0.00, 0.00, 0.00, 0.00, -9467.28, 0.000, 0.000, 0.000, 14:40:50.694, 1553971250694
216, -30370.68, 0.00, 0.00, 0.00, 0.00, 0.00, 0.00, -9458.95, 0.000, 0.000, 0.000, 14:40:50.694, 1553971250694
217, -30365.11, 0.00, 0.00, 0.00, 0.00, 0.00, 0.00, -9462.75, 0.000, 0.000, 0.000, 14:40:50.694, 1553971250694
218, -30345.17, 0.00, 0.00, 0.00, 0.00, 0.00, 0.00, -9467.15, 0.050, 0.094, -1.018, 14:40:50.694, 1553971250694
219, -30350.63, 0.00, 0.00, 0.00, 0.00, 0.00, 0.00, -9472.78, 0.000, 0.000, 0.000, 14:40:50.695, 1553971250695
220, -30367.55, 0.00, 0.00, 0.00, 0.00, 0.00, 0.00, -9460.69, 0.000, 0.000, 0.000, 14:40:50.695, 1553971250695
221, -30365.65, 0.00, 0.00, 0.00, 0.00, 0.00, 0.00, -9454.81, 0.000, 0.000, 0.000, 14:40:50.695, 1553971250695
222, -30346.58, 0.00, 0.00, 0.00, 0.00, 0.00, 0.00, -9460.13, 0.000, 0.000, 0.000, 14:40:50.695, 1553971250695
223, -30336.39, 0.00, 0.00, 0.00, 0.00, 0.00, 0.00, -9462.59, 0.000, 0.000, 0.000, 14:40:50.695, 1553971250695
224, -30355.52, 0.00, 0.00, 0.00, 0.00, 0.00, 0.00, -9455.44, 0.000, 0.000, 0.000, 14:40:50.695, 1553971250695
225, -30364.35, 0.00, 0.00, 0.00, 0.00, 0.00, 0.00, -9455.01, 0.000, 0.000, 0.000, 14:40:50.695, 1553971250695
226, -30349.85, 0.00, 0.00, 0.00, 0.00, 0.00, 0.00, -9463.19, 0.000, 0.000, 0.000, 14:40:50.695, 1553971250695
227, -30345.17, 0.00, 0.00, 0.00, 0.00, 0.00, 0.00, -9476.67, 0.000, 0.000, 0.000, 14:40:50.695, 1553971250695
228, -30365.22, 0.00, 0.00, 0.00, 0.00, 0.00, 0.00, -9473.65, 0.058, 0.088, -1.022, 14:40:50.695, 1553971250695
229, -30374.75, 0.00, 0.00, 0.00, 0.00, 0.00, 0.00, -9465.83, 0.000, 0.000, 0.000, 14:40:50.695, 1553971250695
230, -30362.68, 0.00, 0.00, 0.00, 0.00, 0.00, 0.00, -9470.84, 0.000, 0.000, 0.000, 14:40:50.695, 1553971250695
231, -30335.38, 0.00, 0.00, 0.00, 0.00, 0.00, 0.00, -9471.06, 0.000, 0.000, 0.000, 14:40:50.695, 1553971250695
232, -30348.77, 0.00, 0.00, 0.00, 0.00, 0.00, 0.00, -9463.13, 0.000, 0.000, 0.000, 14:40:50.695, 1553971250695
233, -30369.22, 0.00, 0.00, 0.00, 0.00, 0.00, 0.00, -9460.78, 0.000, 0.000, 0.000, 14:40:50.695, 1553971250695
234, -30367.26, 0.00, 0.00, 0.00, 0.00, 0.00, 0.00, -9471.13, 0.000, 0.000, 0.000, 14:40:50.695, 1553971250695
235, -30346.85, 0.00, 0.00, 0.00, 0.00, 0.00, 0.00, -9477.63, 0.000, 0.000, 0.000, 14:40:50.695, 1553971250695
236, -30344.24, 0.00, 0.00, 0.00, 0.00, 0.00, 0.00, -9468.27, 0.000, 0.000, 0.000, 14:40:50.695, 1553971250695
237, -30358.56, 0.00, 0.00, 0.00, 0.00, 0.00, 0.00, -9455.93, 0.058, 0.098, -1.020, 14:40:50.695, 1553971250695
238, -30352.19, 0.00, 0.00, 0.00, 0.00, 0.00, 0.00, -9460.96, 0.000, 0.000, 0.000, 14:40:50.696, 1553971250696
239, -30336.14, 0.00, 0.00, 0.00, 0.00, 0.00, 0.00, -9470.66, 0.000, 0.000, 0.000, 14:40:50.696, 1553971250696
240, -30347.83, 0.00, 0.00, 0.00, 0.00, 0.00, 0.00, -9476.76, 0.000, 0.000, 0.000, 14:40:50.696, 1553971250696
241, -30370.41, 0.00, 0.00, 0.00, 0.00, 0.00, 0.00, -9474.17, 0.000, 0.000, 0.000, 14:40:50.696, 1553971250696
242, -30365.22, 0.00, 0.00, 0.00, 0.00, 0.00, 0.00, -9470.72, 0.000, 0.000, 0.000, 14:40:50.696, 1553971250696
243, -30335.43, 0.00, 0.00, 0.00, 0.00, 0.00, 0.00, -9470.48, 0.000, 0.000, 0.000, 14:40:50.696, 1553971250696
244, -30326.31, 0.00, 0.00, 0.00, 0.00, 0.00, 0.00, -9466.57, 0.000, 0.000, 0.000, 14:40:50.696, 1553971250696
245, -30349.55, 0.00, 0.00, 0.00, 0.00, 0.00, 0.00, -9459.82, 0.000, 0.000, 0.000, 14:40:50.696, 1553971250696
246, -30349.51, 0.00, 0.00, 0.00, 0.00, 0.00, 0.00, -9453.42, 0.000, 0.000, 0.000, 14:40:50.696, 1553971250696
247, -30331.36, 0.00, 0.00, 0.00, 0.00, 0.00, 0.00, -9460.93, 0.054, 0.098, -1.022, 14:40:50.696, 1553971250696
248, -30321.32, 0.00, 0.00, 0.00, 0.00, 0.00, 0.00, -9466.30, 0.000, 0.000, 0.000, 14:40:50.696, 1553971250696
249, -30342.25, 0.00, 0.00, 0.00, 0.00, 0.00, 0.00, -9454.65, 0.000, 0.000, 0.000, 14:40:50.696, 1553971250696
250, -30359.61, 0.00, 0.00, 0.00, 0.00, 0.00, 0.00, -9460.87, 0.000, 0.000, 0.000, 14:40:50.696, 1553971250696
251, -30349.42, 0.00, 0.00, 0.00, 0.00, 0.00, 0.00, -9471.51, 0.000, 0.000, 0.000, 14:40:50.696, 1553971250696
252, -30331.52, 0.00, 0.00, 0.00, 0.00, 0.00, 0.00, -9473.05, 0.000, 0.000, 0.000, 14:40:50.696, 1553971250696
253, -30348.66, 0.00, 0.00, 0.00, 0.00, 0.00, 0.00, -9464.47, 0.000, 0.000, 0.000, 14:40:50.697, 1553971250697
254, -30354.65, 0.00, 0.00, 0.00, 0.00, 0.00, 0.00, -9454.81, 0.000, 0.000, 0.000, 14:40:50.697, 1553971250697
255, -30346.13, 0.00, 0.00, 0.00, 0.00, 0.00, 0.00, -9465.27, 0.000, 0.000, 0.000, 14:40:50.697, 1553971250697
0, -30329.51, 0.00, 0.00, 0.00, 0.00, 0.00, 0.00, -9468.58, 0.000, 0.000, 0.000, 14:40:50.697, 1553971250697
1, -30340.66, 0.00, 0.00, 0.00, 0.00, 0.00, 0.00, -9461.90, 0.050, 0.098, -1.028, 14:40:50.697, 1553971250697
2, -30355.17, 0.00, 0.00, 0.00, 0.00, 0.00, 0.00, -9458.77, 0.000, 0.000, 0.000, 14:40:50.697, 1553971250697
3, -30349.46, 0.00, 0.00, 0.00, 0.00, 0.00, 0.00, -9463.77, 0.000, 0.000, 0.000, 14:40:50.697, 1553971250697
4, -30333.35, 0.00, 0.00, 0.00, 0.00, 0.00, 0.00, -9471.60, 0.000, 0.000, 0.000, 14:40:50.697, 1553971250697
5, -30345.44, 0.00, 0.00, 0.00, 0.00, 0.00, 0.00, -9473.76, 0.000, 0.000, 0.000, 14:40:50.697, 1553971250697
6, -30362.54, 0.00, 0.00, 0.00, 0.00, 0.00, 0.00, -9466.34, 0.000, 0.000, 0.000, 14:40:50.697, 1553971250697
7, -30361.40, 0.00, 0.00, 0.00, 0.00, 0.00, 0.00, -9469.03, 0.000, 0.000, 0.000, 14:40:50.697, 1553971250697
8, -30347.43, 0.00, 0.00, 0.00, 0.00, 0.00, 0.00, -9472.54, 0.000, 0.000, 0.000, 14:40:50.697, 1553971250697
9, -30343.36, 0.00, 0.00, 0.00, 0.00, 0.00, 0.00, -9463.86, 0.000, 0.000, 0.000, 14:40:50.697, 1553971250697
10, -30356.39, 0.00, 0.00, 0.00, 0.00, 0.00, 0.00, -9455.55, 0.000, 0.000, 0.000, 14:40:50.697, 1553971250697
11, -30362.41, 0.00, 0.00, 0.00, 0.00, 0.00, 0.00, -9462.59, 0.054, 0.092, -1.028, 14:40:50.697, 1553971250697
12, -30345.80, 0.00, 0.00, 0.00, 0.00, 0.00, 0.00, -9470.12, 0.000, 0.000, 0.000, 14:40:50.697, 1553971250697
13, -30337.66, 0.00, 0.00, 0.00, 0.00, 0.00, 0.00, -9469.16, 0.000, 0.000, 0.000, 14:40:50.698, 1553971250698
14, -30359.86, 0.00, 0.00, 0.00, 0.00, 0.00, 0.00, -9459.46, 0.000, 0.000, 0.000, 14:40:50.698, 1553971250698
15, -30371.79, 0.00, 0.00, 0.00, 0.00, 0.00, 0.00, -9462.21, 0.000, 0.000, 0.000, 14:40:50.698, 1553971250698
16, -30360.40, 0.00, 0.00, 0.00, 0.00, 0.00, 0.00, -9471.98, 0.000, 0.000, 0.000, 14:40:50.699, 1553971250699
17, -30348.10, 0.00, 0.00, 0.00, 0.00, 0.00, 0.00, -9478.41, 0.000, 0.000, 0.000, 14:40:50.699, 1553971250699
18, -30366.45, 0.00, 0.00, 0.00, 0.00, 0.00, 0.00, -9469.25, 0.000, 0.000, 0.000, 14:40:50.699, 1553971250699
19, -30370.34, 0.00, 0.00, 0.00, 0.00, 0.00, 0.00, -9463.66, 0.000, 0.000, 0.000, 14:40:50.699, 1553971250699
20, -30346.09, 0.00, 0.00, 0.00, 0.00, 0.00, 0.00, -9462.21, 0.000, 0.000, 0.000, 14:40:50.699, 1553971250699
21, -30332.26, 0.00, 0.00, 0.00, 0.00, 0.00, 0.00, -9468.22, 0.058, 0.090, -1.024, 14:40:50.699, 1553971250699
22, -30345.24, 0.00, 0.00, 0.00, 0.00, 0.00, 0.00, -9460.29, 0.000, 0.000, 0.000, 14:40:50.699, 1553971250699
23, -30355.10, 0.00, 0.00, 0.00, 0.00, 0.00, 0.00, -9455.23, 0.000, 0.000, 0.000, 14:40:50.699, 1553971250699
24, -30347.32, 0.00, 0.00, 0.00, 0.00, 0.00, 0.00, -9461.90, 0.000, 0.000, 0.000, 14:40:50.699, 1553971250699
25, -30330.94, 0.00, 0.00, 0.00, 0.00, 0.00, 0.00, -9466.61, 0.000, 0.000, 0.000, 14:40:50.699, 1553971250699
26, -30342.16, 0.00, 0.00, 0.00, 0.00, 0.00, 0.00, -9459.68, 0.000, 0.000, 0.000, 14:40:50.699, 1553971250699
27, -30356.44, 0.00, 0.00, 0.00, 0.00, 0.00, 0.00, -9453.94, 0.000, 0.000, 0.000, 14:40:50.699, 1553971250699
28, -30344.48, 0.00, 0.00, 0.00, 0.00, 0.00, 0.00, -9458.79, 0.000, 0.000, 0.000, 14:40:50.699, 1553971250699
29, -30331.18, 0.00, 0.00, 0.00, 0.00, 0.00, 0.00, -9464.51, 0.000, 0.000, 0.000, 14:40:50.699, 1553971250699
30, -30338.78, 0.00, 0.00, 0.00, 0.00, 0.00, 0.00, -9460.60, 0.000, 0.000, 0.000, 14:40:50.699, 1553971250699
31, -30355.37, 0.00, 0.00, 0.00, 0.00, 0.00, 0.00, -9454.56, 0.056, 0.088, -1.024, 14:40:50.699, 1553971250699
32, -30349.20, 0.00, 0.00, 0.00, 0.00, 0.00, 0.00, -9453.80, 0.000, 0.000, 0.000, 14:40:50.699, 1553971250699
33, -30330.11, 0.00, 0.00, 0.00, 0.00, 0.00, 0.00, -9459.64, 0.000, 0.000, 0.000, 14:40:50.700, 1553971250700
34, -30334.42, 0.00, 0.00, 0.00, 0.00, 0.00, 0.00, -9462.77, 0.000, 0.000, 0.000, 14:40:50.700, 1553971250700
35, -30358.56, 0.00, 0.00, 0.00, 0.00, 0.00, 0.00, -9461.65, 0.000, 0.000, 0.000, 14:40:50.700, 1553971250700
36, -30362.85, 0.00, 0.00, 0.00, 0.00, 0.00, 0.00, -9463.79, 0.000, 0.000, 0.000, 14:40:50.700, 1553971250700
37, -30335.00, 0.00, 0.00, 0.00, 0.00, 0.00, 0.00, -9461.67, 0.000, 0.000, 0.000, 14:40:50.700, 1553971250700
38, -30333.42, 0.00, 0.00, 0.00, 0.00, 0.00, 0.00, -9468.94, 0.000, 0.000, 0.000, 14:40:50.700, 1553971250700
39, -30356.19, 0.00, 0.00, 0.00, 0.00, 0.00, 0.00, -9459.35, 0.000, 0.000, 0.000, 14:40:50.700, 1553971250700
40, -30354.18, 0.00, 0.00, 0.00, 0.00, 0.00, 0.00, -9452.80, 0.000, 0.000, 0.000, 14:40:51.171, 1553971251171
41, -30340.37, 0.00, 0.00, 0.00, 0.00, 0.00, 0.00, -9460.55, 0.052, 0.084, -1.028, 14:40:51.171, 1553971251171
42, -30332.03, 0.00, 0.00, 0.00, 0.00, 0.00, 0.00, -9465.23, 0.000, 0.000, 0.000, 14:40:51.171, 1553971251171
43, -30347.72, 0.00, 0.00, 0.00, 0.00, 0.00, 0.00, -9450.81, 0.000, 0.000, 0.000, 14:40:51.171, 1553971251171
44, -30356.98, 0.00, 0.00, 0.00, 0.00, 0.00, 0.00, -9446.61, 0.000, 0.000, 0.000, 14:40:51.171, 1553971251171
45, -30348.73, 0.00, 0.00, 0.00, 0.00, 0.00, 0.00, -9458.45, 0.000, 0.000, 0.000, 14:40:51.171, 1553971251171
46, -30339.41, 0.00, 0.00, 0.00, 0.00, 0.00, 0.00, -9465.09, 0.000, 0.000, 0.000, 14:40:51.172, 1553971251172
47, -30353.47, 0.00, 0.00, 0.00, 0.00, 0.00, 0.00, -9454.83, 0.000, 0.000, 0.000, 14:40:51.172, 1553971251172
48, -30361.83, 0.00, 0.00, 0.00, 0.00, 0.00, 0.00, -9446.12, 0.000, 0.000, 0.000, 14:40:51.172, 1553971251172
49, -30349.35, 0.00, 0.00, 0.00, 0.00, 0.00, 0.00, -9452.91, 0.000, 0.000, 0.000, 14:40:51.172, 1553971251172
50, -30341.06, 0.00, 0.00, 0.00, 0.00, 0.00, 0.00, -9464.56, 0.054, 0.088, -1.028, 14:40:51.172, 1553971251172
51, -30354.14, 0.00, 0.00, 0.00, 0.00, 0.00, 0.00, -9467.04, 0.000, 0.000, 0.000, 14:40:51.172, 1553971251172
52, -30353.09, 0.00, 0.00, 0.00, 0.00, 0.00, 0.00, -9451.64, 0.000, 0.000, 0.000, 14:40:51.172, 1553971251172
53, -30341.42, 0.00, 0.00, 0.00, 0.00, 0.00, 0.00, -9450.79, 0.000, 0.000, 0.000, 14:40:51.172, 1553971251172
54, -30328.10, 0.00, 0.00, 0.00, 0.00, 0.00, 0.00, -9457.96, 0.000, 0.000, 0.000, 14:40:51.172, 1553971251172
55, -30335.99, 0.00, 0.00, 0.00, 0.00, 0.00, 0.00, -9459.86, 0.000, 0.000, 0.000, 14:40:51.172, 1553971251172
56, -30351.90, 0.00, 0.00, 0.00, 0.00, 0.00, 0.00, -9451.79, 0.000, 0.000, 0.000, 14:40:51.172, 1553971251172
57, -30352.48, 0.00, 0.00, 0.00, 0.00, 0.00, 0.00, -9457.13, 0.000, 0.000, 0.000, 14:40:51.172, 1553971251172
58, -30336.95, 0.00, 0.00, 0.00, 0.00, 0.00, 0.00, -9464.29, 0.000, 0.000, 0.000, 14:40:51.172, 1553971251172
59, -30343.16, 0.00, 0.00, 0.00, 0.00, 0.00, 0.00, -9473.70, 0.000, 0.000, 0.000, 14:40:51.172, 1553971251172
60, -30354.16, 0.00, 0.00, 0.00, 0.00, 0.00, 0.00, -9458.57, 0.054, 0.092, -1.032, 14:40:51.172, 1553971251172
61, -30344.82, 0.00, 0.00, 0.00, 0.00, 0.00, 0.00, -9445.71, 0.000, 0.000, 0.000, 14:40:51.172, 1553971251172
62, -30326.33, 0.00, 0.00, 0.00, 0.00, 0.00, 0.00, -9451.97, 0.000, 0.000, 0.000, 14:40:51.172, 1553971251172
63, -30331.85, 0.00, 0.00, 0.00, 0.00, 0.00, 0.00, -9461.72, 0.000, 0.000, 0.000, 14:40:51.172, 1553971251172
64, -30351.50, 0.00, 0.00, 0.00, 0.00, 0.00, 0.00, -9455.35, 0.000, 0.000, 0.000, 14:40:51.172, 1553971251172
65, -30349.82, 0.00, 0.00, 0.00, 0.00, 0.00, 0.00, -9446.50, 0.000, 0.000, 0.000, 14:40:51.172, 1553971251172
66, -30340.48, 0.00, 0.00, 0.00, 0.00, 0.00, 0.00, -9457.16, 0.000, 0.000, 0.000, 14:40:51.172, 1553971251172
67, -30329.95, 0.00, 0.00, 0.00, 0.00, 0.00, 0.00, -9460.35, 0.000, 0.000, 0.000, 14:40:51.172, 1553971251172
68, -30343.81, 0.00, 0.00, 0.00, 0.00, 0.00, 0.00, -9446.56, 0.000, 0.000, 0.000, 14:40:51.173, 1553971251173
69, -30349.80, 0.00, 0.00, 0.00, 0.00, 0.00, 0.00, -9442.49, 0.000, 0.000, 0.000, 14:40:51.173, 1553971251173
70, -30342.20, 0.00, 0.00, 0.00, 0.00, 0.00, 0.00, -9456.67, 0.058, 0.096, -1.030, 14:40:51.173, 1553971251173
71, -30332.72, 0.00, 0.00, 0.00, 0.00, 0.00, 0.00, -9465.54, 0.000, 0.000, 0.000, 14:40:51.173, 1553971251173
72, -30346.22, 0.00, 0.00, 0.00, 0.00, 0.00, 0.00, -9456.67, 0.000, 0.000, 0.000, 14:40:51.173, 1553971251173
73, -30362.29, 0.00, 0.00, 0.00, 0.00, 0.00, 0.00, -9452.87, 0.000, 0.000, 0.000, 14:40:51.173, 1553971251173
74, -30361.45, 0.00, 0.00, 0.00, 0.00, 0.00, 0.00, -9467.06, 0.000, 0.000, 0.000, 14:40:51.173, 1553971251173
75, -30337.84, 0.00, 0.00, 0.00, 0.00, 0.00, 0.00, -9471.04, 0.000, 0.000, 0.000, 14:40:51.173, 1553971251173
76, -30351.12, 0.00, 0.00, 0.00, 0.00, 0.00, 0.00, -9465.78, 0.000, 0.000, 0.000, 14:40:51.174, 1553971251174
77, -30361.69, 0.00, 0.00, 0.00, 0.00, 0.00, 0.00, -9452.71, 0.000, 0.000, 0.000, 14:40:51.174, 1553971251174
78, -30357.15, 0.00, 0.00, 0.00, 0.00, 0.00, 0.00, -9458.23, 0.000, 0.000, 0.000, 14:40:51.174, 1553971251174
79, -30325.10, 0.00, 0.00, 0.00, 0.00, 0.00, 0.00, -9459.19, 0.000, 0.000, 0.000, 14:40:51.174, 1553971251174
80, -30326.31, 0.00, 0.00, 0.00, 0.00, 0.00, 0.00, -9452.49, 0.062, 0.092, -1.030, 14:40:51.174, 1553971251174
81, -30346.87, 0.00, 0.00, 0.00, 0.00, 0.00, 0.00, -9445.09, 0.000, 0.000, 0.000, 14:40:51.174, 1553971251174
82, -30353.87, 0.00, 0.00, 0.00, 0.00, 0.00, 0.00, -9455.59, 0.000, 0.000, 0.000, 14:40:51.174, 1553971251174
83, -30342.25, 0.00, 0.00, 0.00, 0.00, 0.00, 0.00, -9466.86, 0.000, 0.000, 0.000, 14:40:51.174, 1553971251174
84, -30338.45, 0.00, 0.00, 0.00, 0.00, 0.00, 0.00, -9466.17, 0.000, 0.000, 0.000, 14:40:51.174, 1553971251174
85, -30358.05, 0.00, 0.00, 0.00, 0.00, 0.00, 0.00, -9454.23, 0.000, 0.000, 0.000, 14:40:51.174, 1553971251174
86, -30353.38, 0.00, 0.00, 0.00, 0.00, 0.00, 0.00, -9449.65, 0.000, 0.000, 0.000, 14:40:51.174, 1553971251174
87, -30331.67, 0.00, 0.00, 0.00, 0.00, 0.00, 0.00, -9455.55, 0.000, 0.000, 0.000, 14:40:51.174, 1553971251174
88, -30331.67, 0.00, 0.00, 0.00, 0.00, 0.00, 0.00, -9462.70, 0.000, 0.000, 0.000, 14:40:51.174, 1553971251174
89, -30352.91, 0.00, 0.00, 0.00, 0.00, 0.00, 0.00, -9455.68, 0.000, 0.000, 0.000, 14:40:51.174, 1553971251174
90, -30350.11, 0.00, 0.00, 0.00, 0.00, 0.00, 0.00, -9455.59, 0.058, 0.096, -1.028, 14:40:51.174, 1553971251174
91, -30333.02, 0.00, 0.00, 0.00, 0.00, 0.00, 0.00, -9464.00, 0.000, 0.000, 0.000, 14:40:51.174, 1553971251174
92, -30331.34, 0.00, 0.00, 0.00, 0.00, 0.00, 0.00, -9471.71, 0.000, 0.000, 0.000, 14:40:51.174, 1553971251174
93, -30349.58, 0.00, 0.00, 0.00, 0.00, 0.00, 0.00, -9462.75, 0.000, 0.000, 0.000, 14:40:51.175, 1553971251175
94, -30359.05, 0.00, 0.00, 0.00, 0.00, 0.00, 0.00, -9463.46, 0.000, 0.000, 0.000, 14:40:51.175, 1553971251175
95, -30341.08, 0.00, 0.00, 0.00, 0.00, 0.00, 0.00, -9470.32, 0.000, 0.000, 0.000, 14:40:51.175, 1553971251175
96, -30321.77, 0.00, 0.00, 0.00, 0.00, 0.00, 0.00, -9472.02, 0.000, 0.000, 0.000, 14:40:51.175, 1553971251175
97, -30337.24, 0.00, 0.00, 0.00, 0.00, 0.00, 0.00, -9462.10, 0.000, 0.000, 0.000, 14:40:51.175, 1553971251175
98, -30355.61, 0.00, 0.00, 0.00, 0.00, 0.00, 0.00, -9455.23, 0.000, 0.000, 0.000, 14:40:51.175, 1553971251175
99, -30344.06, 0.00, 0.00, 0.00, 0.00, 0.00, 0.00, -9457.83, 0.000, 0.000, 0.000, 14:40:51.175, 1553971251175
100, -30330.65, 0.00, 0.00, 0.00, 0.00, 0.00, 0.00, -9468.36, 0.054, 0.094, -1.032, 14:40:51.175, 1553971251175
101, -30335.00, 0.00, 0.00, 0.00, 0.00, 0.00, 0.00, -9464.02, 0.000, 0.000, 0.000, 14:40:51.175, 1553971251175
102, -30353.94, 0.00, 0.00, 0.00, 0.00, 0.00, 0.00, -9453.63, 0.000, 0.000, 0.000, 14:40:51.176, 1553971251176
103, -30343.83, 0.00, 0.00, 0.00, 0.00, 0.00, 0.00, -9453.83, 0.000, 0.000, 0.000, 14:40:51.176, 1553971251176
104, -30319.54, 0.00, 0.00, 0.00, 0.00, 0.00, 0.00, -9455.75, 0.000, 0.000, 0.000, 14:40:51.176, 1553971251176
105, -30328.28, 0.00, 0.00, 0.00, 0.00, 0.00, 0.00, -9456.73, 0.000, 0.000, 0.000, 14:40:51.176, 1553971251176
106, -30347.21, 0.00, 0.00, 0.00, 0.00, 0.00, 0.00, -9444.57, 0.000, 0.000, 0.000, 14:40:51.176, 1553971251176
107, -30342.54, 0.00, 0.00, 0.00, 0.00, 0.00, 0.00, -9446.38, 0.000, 0.000, 0.000, 14:40:51.176, 1553971251176
108, -30328.77, 0.00, 0.00, 0.00, 0.00, 0.00, 0.00, -9462.54, 0.000, 0.000, 0.000, 14:40:51.176, 1553971251176
109, -30330.91, 0.00, 0.00, 0.00, 0.00, 0.00, 0.00, -9463.66, 0.000, 0.000, 0.000, 14:40:51.176, 1553971251176
110, -30349.82, 0.00, 0.00, 0.00, 0.00, 0.00, 0.00, -9451.59, 0.058, 0.088, -1.030, 14:40:51.176, 1553971251176
111, -30345.51, 0.00, 0.00, 0.00, 0.00, 0.00, 0.00, -9443.75, 0.000, 0.000, 0.000, 14:40:51.176, 1553971251176
112, -30327.36, 0.00, 0.00, 0.00, 0.00, 0.00, 0.00, -9447.46, 0.000, 0.000, 0.000, 14:40:51.176, 1553971251176
113, -30332.23, 0.00, 0.00, 0.00, 0.00, 0.00, 0.00, -9457.49, 0.000, 0.000, 0.000, 14:40:51.176, 1553971251176
114, -30349.35, 0.00, 0.00, 0.00, 0.00, 0.00, 0.00, -9452.26, 0.000, 0.000, 0.000, 14:40:51.176, 1553971251176
115, -30345.15, 0.00, 0.00, 0.00, 0.00, 0.00, 0.00, -9449.33, 0.000, 0.000, 0.000, 14:40:51.176, 1553971251176
116, -30331.27, 0.00, 0.00, 0.00, 0.00, 0.00, 0.00, -9456.17, 0.000, 0.000, 0.000, 14:40:51.176, 1553971251176
117, -30323.22, 0.00, 0.00, 0.00, 0.00, 0.00, 0.00, -9463.93, 0.000, 0.000, 0.000, 14:40:51.176, 1553971251176
118, -30347.12, 0.00, 0.00, 0.00, 0.00, 0.00, 0.00, -9458.32, 0.000, 0.000, 0.000, 14:40:51.176, 1553971251176
119, -30361.87, 0.00, 0.00, 0.00, 0.00, 0.00, 0.00, -9461.16, 0.056, 0.094, -1.024, 14:40:51.176, 1553971251176
120, -30344.32, 0.00, 0.00, 0.00, 0.00, 0.00, 0.00, -9466.05, 0.000, 0.000, 0.000, 14:40:51.177, 1553971251177
121, -30325.64, 0.00, 0.00, 0.00, 0.00, 0.00, 0.00, -9465.05, 0.000, 0.000, 0.000, 14:40:51.177, 1553971251177
122, -30342.29, 0.00, 0.00, 0.00, 0.00, 0.00, 0.00, -9457.60, 0.000, 0.000, 0.000, 14:40:51.177, 1553971251177
123, -30363.26, 0.00, 0.00, 0.00, 0.00, 0.00, 0.00, -9455.75, 0.000, 0.000, 0.000, 14:40:51.177, 1553971251177
124, -30355.54, 0.00, 0.00, 0.00, 0.00, 0.00, 0.00, -9464.91, 0.000, 0.000, 0.000, 14:40:51.177, 1553971251177
125, -30340.10, 0.00, 0.00, 0.00, 0.00, 0.00, 0.00, -9471.71, 0.000, 0.000, 0.000, 14:40:51.177, 1553971251177
126, -30341.51, 0.00, 0.00, 0.00, 0.00, 0.00, 0.00, -9462.63, 0.000, 0.000, 0.000, 14:40:51.177, 1553971251177
127, -30364.22, 0.00, 0.00, 0.00, 0.00, 0.00, 0.00, -9456.55, 0.000, 0.000, 0.000, 14:40:51.177, 1553971251177
128, -30359.19, 0.00, 0.00, 0.00, 0.00, 0.00, 0.00, -9464.09, 0.000, 0.000, 0.000, 14:40:51.177, 1553971251177
129, -30331.99, 0.00, 0.00, 0.00, 0.00, 0.00, 0.00, -9464.71, 0.058, 0.096, -1.024, 14:40:51.177, 1553971251177
130, -30337.11, 0.00, 0.00, 0.00, 0.00, 0.00, 0.00, -9459.62, 0.000, 0.000, 0.000, 14:40:51.177, 1553971251177
131, -30352.37, 0.00, 0.00, 0.00, 0.00, 0.00, 0.00, -9446.61, 0.000, 0.000, 0.000, 14:40:51.177, 1553971251177
132, -30345.91, 0.00, 0.00, 0.00, 0.00, 0.00, 0.00, -9448.39, 0.000, 0.000, 0.000, 14:40:51.178, 1553971251178
133, -30328.50, 0.00, 0.00, 0.00, 0.00, 0.00, 0.00, -9456.44, 0.000, 0.000, 0.000, 14:40:51.178, 1553971251178
134, -30334.04, 0.00, 0.00, 0.00, 0.00, 0.00, 0.00, -9464.06, 0.000, 0.000, 0.000, 14:40:51.178, 1553971251178
135, -30350.76, 0.00, 0.00, 0.00, 0.00, 0.00, 0.00, -9451.39, 0.000, 0.000, 0.000, 14:40:51.178, 1553971251178
136, -30350.40, 0.00, 0.00, 0.00, 0.00, 0.00, 0.00, -9451.19, 0.000, 0.000, 0.000, 14:40:51.178, 1553971251178
137, -30343.47, 0.00, 0.00, 0.00, 0.00, 0.00, 0.00, -9468.69, 0.000, 0.000, 0.000, 14:40:51.178, 1553971251178
138, -30334.24, 0.00, 0.00, 0.00, 0.00, 0.00, 0.00, -9473.76, 0.000, 0.000, 0.000, 14:40:51.178, 1553971251178
139, -30355.10, 0.00, 0.00, 0.00, 0.00, 0.00, 0.00, -9459.57, 0.062, 0.094, -1.032, 14:40:51.178, 1553971251178
140, -30365.00, 0.00, 0.00, 0.00, 0.00, 0.00, 0.00, -9459.91, 0.000, 0.000, 0.000, 14:40:51.178, 1553971251178
141, -30350.94, 0.00, 0.00, 0.00, 0.00, 0.00, 0.00, -9470.77, 0.000, 0.000, 0.000, 14:40:51.178, 1553971251178
142, -30343.14, 0.00, 0.00, 0.00, 0.00, 0.00, 0.00, -9482.55, 0.000, 0.000, 0.000, 14:40:51.178, 1553971251178
143, -30359.39, 0.00, 0.00, 0.00, 0.00, 0.00, 0.00, -9469.63, 0.000, 0.000, 0.000, 14:40:51.178, 1553971251178
144, -30363.99, 0.00, 0.00, 0.00, 0.00, 0.00, 0.00, -9461.65, 0.000, 0.000, 0.000, 14:40:51.178, 1553971251178
145, -30350.96, 0.00, 0.00, 0.00, 0.00, 0.00, 0.00, -9471.15, 0.000, 0.000, 0.000, 14:40:51.178, 1553971251178
146, -30339.90, 0.00, 0.00, 0.00, 0.00, 0.00, 0.00, -9477.74, 0.000, 0.000, 0.000, 14:40:51.178, 1553971251178
147, -30349.85, 0.00, 0.00, 0.00, 0.00, 0.00, 0.00, -9465.34, 0.000, 0.000, 0.000, 14:40:51.179, 1553971251179
148, -30365.20, 0.00, 0.00, 0.00, 0.00, 0.00, 0.00, -9459.37, 0.000, 0.000, 0.000, 14:40:51.179, 1553971251179
149, -30348.57, 0.00, 0.00, 0.00, 0.00, 0.00, 0.00, -9464.62, 0.056, 0.090, -1.026, 14:40:51.179, 1553971251179
150, -30319.96, 0.00, 0.00, 0.00, 0.00, 0.00, 0.00, -9471.17, 0.000, 0.000, 0.000, 14:40:51.179, 1553971251179
151, -30323.31, 0.00, 0.00, 0.00, 0.00, 0.00, 0.00, -9462.43, 0.000, 0.000, 0.000, 14:40:51.179, 1553971251179
152, -30341.13, 0.00, 0.00, 0.00, 0.00, 0.00, 0.00, -9443.10, 0.000, 0.000, 0.000, 14:40:51.179, 1553971251179
153, -30334.42, 0.00, 0.00, 0.00, 0.00, 0.00, 0.00, -9447.77, 0.000, 0.000, 0.000, 14:40:51.179, 1553971251179
154, -30328.77, 0.00, 0.00, 0.00, 0.00, 0.00, 0.00, -9469.67, 0.000, 0.000, 0.000, 14:40:51.179, 1553971251179
155, -30328.21, 0.00, 0.00, 0.00, 0.00, 0.00, 0.00, -9461.92, 0.000, 0.000, 0.000, 14:40:51.179, 1553971251179
156, -30345.35, 0.00, 0.00, 0.00, 0.00, 0.00, 0.00, -9442.94, 0.000, 0.000, 0.000, 14:40:51.179, 1553971251179
157, -30344.21, 0.00, 0.00, 0.00, 0.00, 0.00, 0.00, -9448.69, 0.000, 0.000, 0.000, 14:40:51.179, 1553971251179
158, -30331.29, 0.00, 0.00, 0.00, 0.00, 0.00, 0.00, -9463.75, 0.000, 0.000, 0.000, 14:40:51.179, 1553971251179
159, -30332.95, 0.00, 0.00, 0.00, 0.00, 0.00, 0.00, -9471.04, 0.056, 0.098, -1.020, 14:40:51.179, 1553971251179
160, -30350.11, 0.00, 0.00, 0.00, 0.00, 0.00, 0.00, -9453.69, 0.000, 0.000, 0.000, 14:40:51.653, 1553971251653
161, -30352.51, 0.00, 0.00, 0.00, 0.00, 0.00, 0.00, -9449.11, 0.000, 0.000, 0.000, 14:40:51.653, 1553971251653
162, -30339.01, 0.00, 0.00, 0.00, 0.00, 0.00, 0.00, -9464.56, 0.000, 0.000, 0.000, 14:40:51.653, 1553971251653
163, -30332.46, 0.00, 0.00, 0.00, 0.00, 0.00, 0.00, -9471.19, 0.000, 0.000, 0.000, 14:40:51.653, 1553971251653
164, -30348.24, 0.00, 0.00, 0.00, 0.00, 0.00, 0.00, -9454.61, 0.000, 0.000, 0.000, 14:40:51.653, 1553971251653
165, -30356.51, 0.00, 0.00, 0.00, 0.00, 0.00, 0.00, -9450.41, 0.000, 0.000, 0.000, 14:40:51.653, 1553971251653
166, -30344.35, 0.00, 0.00, 0.00, 0.00, 0.00, 0.00, -9463.33, 0.000, 0.000, 0.000, 14:40:51.653, 1553971251653
167, -30332.08, 0.00, 0.00, 0.00, 0.00, 0.00, 0.00, -9473.83, 0.000, 0.000, 0.000, 14:40:51.653, 1553971251653
168, -30345.40, 0.00, 0.00, 0.00, 0.00, 0.00, 0.00, -9453.94, 0.000, 0.000, 0.000, 14:40:51.653, 1553971251653
169, -30348.62, 0.00, 0.00, 0.00, 0.00, 0.00, 0.00, -9438.96, 0.050, 0.100, -1.026, 14:40:51.653, 1553971251653
170, -30333.04, 0.00, 0.00, 0.00, 0.00, 0.00, 0.00, -9444.95, 0.000, 0.000, 0.000, 14:40:51.653, 1553971251653
171, -30319.49, 0.00, 0.00, 0.00, 0.00, 0.00, 0.00, -9455.15, 0.000, 0.000, 0.000, 14:40:51.654, 1553971251654
172, -30337.48, 0.00, 0.00, 0.00, 0.00, 0.00, 0.00, -9449.18, 0.000, 0.000, 0.000, 14:40:51.654, 1553971251654
173, -30359.86, 0.00, 0.00, 0.00, 0.00, 0.00, 0.00, -9444.33, 0.000, 0.000, 0.000, 14:40:51.654, 1553971251654
174, -30349.67, 0.00, 0.00, 0.00, 0.00, 0.00, 0.00, -9460.04, 0.000, 0.000, 0.000, 14:40:51.654, 1553971251654
175, -30327.43, 0.00, 0.00, 0.00, 0.00, 0.00, 0.00, -9469.83, 0.000, 0.000, 0.000, 14:40:51.654, 1553971251654
176, -30325.33, 0.00, 0.00, 0.00, 0.00, 0.00, 0.00, -9455.37, 0.000, 0.000, 0.000, 14:40:51.654, 1553971251654
177, -30349.11, 0.00, 0.00, 0.00, 0.00, 0.00, 0.00, -9442.07, 0.000, 0.000, 0.000, 14:40:51.654, 1553971251654
178, -30345.91, 0.00, 0.00, 0.00, 0.00, 0.00, 0.00, -9452.24, 0.050, 0.094, -1.024, 14:40:51.654, 1553971251654
179, -30329.51, 0.00, 0.00, 0.00, 0.00, 0.00, 0.00, -9464.00, 0.000, 0.000, 0.000, 14:40:51.654, 1553971251654
180, -30332.12, 0.00, 0.00, 0.00, 0.00, 0.00, 0.00, -9460.24, 0.000, 0.000, 0.000, 14:40:51.654, 1553971251654
181, -30363.26, 0.00, 0.00, 0.00, 0.00, 0.00, 0.00, -9452.33, 0.000, 0.000, 0.000, 14:40:51.654, 1553971251654
182, -30355.95, 0.00, 0.00, 0.00, 0.00, 0.00, 0.00, -9449.69, 0.000, 0.000, 0.000, 14:40:51.654, 1553971251654
183, -30344.04, 0.00, 0.00, 0.00, 0.00, 0.00, 0.00, -9466.32, 0.000, 0.000, 0.000, 14:40:51.654, 1553971251654
184, -30347.86, 0.00, 0.00, 0.00, 0.00, 0.00, 0.00, -9478.57, 0.000, 0.000, 0.000, 14:40:51.654, 1553971251654
185, -30358.63, 0.00, 0.00, 0.00, 0.00, 0.00, 0.00, -9455.75, 0.000, 0.000, 0.000, 14:40:51.654, 1553971251654
186, -30363.50, 0.00, 0.00, 0.00, 0.00, 0.00, 0.00, -9451.81, 0.000, 0.000, 0.000, 14:40:51.654, 1553971251654
187, -30347.79, 0.00, 0.00, 0.00, 0.00, 0.00, 0.00, -9468.42, 0.000, 0.000, 0.000, 14:40:51.654, 1553971251654
188, -30331.79, 0.00, 0.00, 0.00, 0.00, 0.00, 0.00, -9486.10, 0.054, 0.090, -1.026, 14:40:51.654, 1553971251654
189, -30343.70, 0.00, 0.00, 0.00, 0.00, 0.00, 0.00, -9450.12, 0.000, 0.000, 0.000, 14:40:51.654, 1553971251654
190, -30349.58, 0.00, 0.00, 0.00, 0.00, 0.00, 0.00, -9424.93, 0.000, 0.000, 0.000, 14:40:51.654, 1553971251654
191, -30334.42, 0.00, 0.00, 0.00, 0.00, 0.00, 0.00, -9452.91, 0.000, 0.000, 0.000, 14:40:51.655, 1553971251655
192, -30318.53, 0.00, 0.00, 0.00, 0.00, 0.00, 0.00, -9485.50, 0.000, 0.000, 0.000, 14:40:51.655, 1553971251655
193, -30328.99, 0.00, 0.00, 0.00, 0.00, 0.00, 0.00, -9446.83, 0.000, 0.000, 0.000, 14:40:51.655, 1553971251655
194, -30344.97, 0.00, 0.00, 0.00, 0.00, 0.00, 0.00, -9413.73, 0.000, 0.000, 0.000, 14:40:51.655, 1553971251655
195, -30336.30, 0.00, 0.00, 0.00, 0.00, 0.00, 0.00, -9445.38, 0.000, 0.000, 0.000, 14:40:51.655, 1553971251655
196, -30318.44, 0.00, 0.00, 0.00, 0.00, 0.00, 0.00, -9487.71, 0.000, 0.000, 0.000, 14:40:51.655, 1553971251655
197, -30330.45, 0.00, 0.00, 0.00, 0.00, 0.00, 0.00, -9466.32, 0.000, 0.000, 0.000, 14:40:51.655, 1553971251655
198, -30349.44, 0.00, 0.00, 0.00, 0.00, 0.00, 0.00, -9427.32, 0.056, 0.092, -1.026, 14:40:51.655, 1553971251655
199, -30342.85, 0.00, 0.00, 0.00, 0.00, 0.00, 0.00, -9443.48, 0.000, 0.000, 0.000, 14:40:51.655, 1553971251655
200, -30323.18, 0.00, 0.00, 0.00, 0.00, 0.00, 0.00, -9486.33, 0.000, 0.000, 0.000, 14:40:51.655, 1553971251655
201, -30337.91, 0.00, 0.00, 0.00, 0.00, 0.00, 0.00, -9482.06, 0.000, 0.000, 0.000, 14:40:51.655, 1553971251655
202, -30363.03, 0.00, 0.00, 0.00, 0.00, 0.00, 0.00, -9435.30, 0.000, 0.000, 0.000, 14:40:51.656, 1553971251656
203, -30361.31, 0.00, 0.00, 0.00, 0.00, 0.00, 0.00, -9446.65, 0.000, 0.000, 0.000, 14:40:51.656, 1553971251656
204, -30343.74, 0.00, 0.00, 0.00, 0.00, 0.00, 0.00, -9493.10, 0.000, 0.000, 0.000, 14:40:51.656, 1553971251656
205, -30338.83, 0.00, 0.00, 0.00, 0.00, 0.00, 0.00, -9494.73, 0.000, 0.000, 0.000, 14:40:51.656, 1553971251656
206, -30362.14, 0.00, 0.00, 0.00, 0.00, 0.00, 0.00, -9440.53, 0.000, 0.000, 0.000, 14:40:51.656, 1553971251656
207, -30357.11, 0.00, 0.00, 0.00, 0.00, 0.00, 0.00, -9434.47, 0.000, 0.000, 0.000, 14:40:51.656, 1553971251656
208, -30349.11, 0.00, 0.00, 0.00, 0.00, 0.00, 0.00, -9487.80, 0.052, 0.094, -1.028, 14:40:51.656, 1553971251656
209, -30346.45, 0.00, 0.00, 0.00, 0.00, 0.00, 0.00, -9504.86, 0.000, 0.000, 0.000, 14:40:51.656, 1553971251656
210, -30362.23, 0.00, 0.00, 0.00, 0.00, 0.00, 0.00, -9446.18, 0.000, 0.000, 0.000, 14:40:51.656, 1553971251656
211, -30369.56, 0.00, 0.00, 0.00, 0.00, 0.00, 0.00, -9432.75, 0.000, 0.000, 0.000, 14:40:51.656, 1553971251656
212, -30356.60, 0.00, 0.00, 0.00, 0.00, 0.00, 0.00, -9482.08, 0.000, 0.000, 0.000, 14:40:51.656, 1553971251656
213, -30334.71, 0.00, 0.00, 0.00, 0.00, 0.00, 0.00, -9505.79, 0.000, 0.000, 0.000, 14:40:51.656, 1553971251656
214, -30352.80, 0.00, 0.00, 0.00, 0.00, 0.00, 0.00, -9449.56, 0.000, 0.000, 0.000, 14:40:51.656, 1553971251656
215, -30364.38, 0.00, 0.00, 0.00, 0.00, 0.00, 0.00, -9425.04, 0.000, 0.000, 0.000, 14:40:51.656, 1553971251656
216, -30347.59, 0.00, 0.00, 0.00, 0.00, 0.00, 0.00, -9466.92, 0.000, 0.000, 0.000, 14:40:51.656, 1553971251656
217, -30333.08, 0.00, 0.00, 0.00, 0.00, 0.00, 0.00, -9506.38, 0.000, 0.000, 0.000, 14:40:51.656, 1553971251656
218, -30345.67, 0.00, 0.00, 0.00, 0.00, 0.00, 0.00, -9467.55, 0.056, 0.086, -1.026, 14:40:51.656, 1553971251656
219, -30362.03, 0.00, 0.00, 0.00, 0.00, 0.00, 0.00, -9435.30, 0.000, 0.000, 0.000, 14:40:51.656, 1553971251656
220, -30351.72, 0.00, 0.00, 0.00, 0.00, 0.00, 0.00, -9469.43, 0.000, 0.000, 0.000, 14:40:51.657, 1553971251657
221, -30330.62, 0.00, 0.00, 0.00, 0.00, 0.00, 0.00, -9507.11, 0.000, 0.000, 0.000, 14:40:51.657, 1553971251657
222, -30330.73, 0.00, 0.00, 0.00, 0.00, 0.00, 0.00, -9473.99, 0.000, 0.000, 0.000, 14:40:51.657, 1553971251657
223, -30352.64, 0.00, 0.00, 0.00, 0.00, 0.00, 0.00, -9430.83, 0.000, 0.000, 0.000, 14:40:51.657, 1553971251657
224, -30343.59, 0.00, 0.00, 0.00, 0.00, 0.00, 0.00, -9453.09, 0.000, 0.000, 0.000, 14:40:51.657, 1553971251657
225, -30334.63, 0.00, 0.00, 0.00, 0.00, 0.00, 0.00, -9504.12, 0.000, 0.000, 0.000, 14:40:51.657, 1553971251657
226, -30340.64, 0.00, 0.00, 0.00, 0.00, 0.00, 0.00, -9488.63, 0.000, 0.000, 0.000, 14:40:51.658, 1553971251658
227, -30350.31, 0.00, 0.00, 0.00, 0.00, 0.00, 0.00, -9429.58, 0.000, 0.000, 0.000, 14:40:51.658, 1553971251658
228, -30350.25, 0.00, 0.00, 0.00, 0.00, 0.00, 0.00, -9444.21, 0.062, 0.088, -1.024, 14:40:51.658, 1553971251658
229, -30332.41, 0.00, 0.00, 0.00, 0.00, 0.00, 0.00, -9495.20, 0.000, 0.000, 0.000, 14:40:51.658, 1553971251658
230, -30329.77, 0.00, 0.00, 0.00, 0.00, 0.00, 0.00, -9493.52, 0.000, 0.000, 0.000, 14:40:51.658, 1553971251658
231, -30356.35, 0.00, 0.00, 0.00, 0.00, 0.00, 0.00, -9438.81, 0.000, 0.000, 0.000, 14:40:51.658, 1553971251658
232, -30346.81, 0.00, 0.00, 0.00, 0.00, 0.00, 0.00, -9436.39, 0.000, 0.000, 0.000, 14:40:51.658, 1553971251658
233, -30320.01, 0.00, 0.00, 0.00, 0.00, 0.00, 0.00, -9478.06, 0.000, 0.000, 0.000, 14:40:51.658, 1553971251658
234, -30319.49, 0.00, 0.00, 0.00, 0.00, 0.00, 0.00, -9498.57, 0.000, 0.000, 0.000, 14:40:51.658, 1553971251658
235, -30342.92, 0.00, 0.00, 0.00, 0.00, 0.00, 0.00, -9446.23, 0.000, 0.000, 0.000, 14:40:51.658, 1553971251658
236, -30347.45, 0.00, 0.00, 0.00, 0.00, 0.00, 0.00, -9438.18, 0.000, 0.000, 0.000, 14:40:51.658, 1553971251658
237, -30334.24, 0.00, 0.00, 0.00, 0.00, 0.00, 0.00, -9487.40, 0.000, 0.000, 0.000, 14:40:51.658, 1553971251658
238, -30326.96, 0.00, 0.00, 0.00, 0.00, 0.00, 0.00, -9518.47, 0.056, 0.090, -1.022, 14:40:51.658, 1553971251658
239, -30340.50, 0.00, 0.00, 0.00, 0.00, 0.00, 0.00, -9462.86, 0.000, 0.000, 0.000, 14:40:51.658, 1553971251658
240, -30352.62, 0.00, 0.00, 0.00, 0.00, 0.00, 0.00, -9435.36, 0.000, 0.000, 0.000, 14:40:51.658, 1553971251658
241, -30335.92, 0.00, 0.00, 0.00, 0.00, 0.00, 0.00, -9466.66, 0.000, 0.000, 0.000, 14:40:51.658, 1553971251658
242, -30332.37, 0.00, 0.00, 0.00, 0.00, 0.00, 0.00, -9514.58, 0.000, 0.000, 0.000, 14:40:51.658, 1553971251658
243, -30348.97, 0.00, 0.00, 0.00, 0.00, 0.00, 0.00, -9470.48, 0.000, 0.000, 0.000, 14:40:51.658, 1553971251658
244, -30365.58, 0.00, 0.00, 0.00, 0.00, 0.00, 0.00, -9431.05, 0.000, 0.000, 0.000, 14:40:51.658, 1553971251658
245, -30355.75, 0.00, 0.00, 0.00, 0.00, 0.00, 0.00, -9464.89, 0.000, 0.000, 0.000, 14:40:51.658, 1553971251658
246, -30341.73, 0.00, 0.00, 0.00, 0.00, 0.00, 0.00, -9513.10, 0.000, 0.000, 0.000, 14:40:51.658, 1553971251658
247, -30353.58, 0.00, 0.00, 0.00, 0.00, 0.00, 0.00, -9488.85, 0.054, 0.094, -1.022, 14:40:51.658, 1553971251658
248, -30371.55, 0.00, 0.00, 0.00, 0.00, 0.00, 0.00, -9444.84, 0.000, 0.000, 0.000, 14:40:51.658, 1553971251658
249, -30356.06, 0.00, 0.00, 0.00, 0.00, 0.00, 0.00, -9459.97, 0.000, 0.000, 0.000, 14:40:51.659, 1553971251659
250, -30331.61, 0.00, 0.00, 0.00, 0.00, 0.00, 0.00, -9498.98, 0.000, 0.000, 0.000, 14:40:51.659, 1553971251659
251, -30339.07, 0.00, 0.00, 0.00, 0.00, 0.00, 0.00, -9487.58, 0.000, 0.000, 0.000, 14:40:51.659, 1553971251659
252, -30365.43, 0.00, 0.00, 0.00, 0.00, 0.00, 0.00, -9441.40, 0.000, 0.000, 0.000, 14:40:51.659, 1553971251659
253, -30363.10, 0.00, 0.00, 0.00, 0.00, 0.00, 0.00, -9452.62, 0.000, 0.000, 0.000, 14:40:51.659, 1553971251659
254, -30344.39, 0.00, 0.00, 0.00, 0.00, 0.00, 0.00, -9497.77, 0.000, 0.000, 0.000, 14:40:51.659, 1553971251659
255, -30341.06, 0.00, 0.00, 0.00, 0.00, 0.00, 0.00, -9500.61, 0.000, 0.000, 0.000, 14:40:51.659, 1553971251659
0, -30365.16, 0.00, 0.00, 0.00, 0.00, 0.00, 0.00, -9446.67, 0.000, 0.000, 0.000, 14:40:51.659, 1553971251659
1, -30358.27, 0.00, 0.00, 0.00, 0.00, 0.00, 0.00, -9442.83, 0.056, 0.094, -1.024, 14:40:51.659, 1553971251659
2, -30337.73, 0.00, 0.00, 0.00, 0.00, 0.00, 0.00, -9486.57, 0.000, 0.000, 0.000, 14:40:51.659, 1553971251659
3, -30323.16, 0.00, 0.00, 0.00, 0.00, 0.00, 0.00, -9497.08, 0.000, 0.000, 0.000, 14:40:51.659, 1553971251659
4, -30347.90, 0.00, 0.00, 0.00, 0.00, 0.00, 0.00, -9450.41, 0.000, 0.000, 0.000, 14:40:51.659, 1553971251659
5, -30352.86, 0.00, 0.00, 0.00, 0.00, 0.00, 0.00, -9433.80, 0.000, 0.000, 0.000, 14:40:51.659, 1553971251659
6, -30336.21, 0.00, 0.00, 0.00, 0.00, 0.00, 0.00, -9471.13, 0.000, 0.000, 0.000, 14:40:51.659, 1553971251659
7, -30325.77, 0.00, 0.00, 0.00, 0.00, 0.00, 0.00, -9500.00, 0.000, 0.000, 0.000, 14:40:51.659, 1553971251659
8, -30335.38, 0.00, 0.00, 0.00, 0.00, 0.00, 0.00, -9450.63, 0.000, 0.000, 0.000, 14:40:51.659, 1553971251659
9, -30349.64, 0.00, 0.00, 0.00, 0.00, 0.00, 0.00, -9424.88, 0.000, 0.000, 0.000, 14:40:51.660, 1553971251660
10, -30340.28, 0.00, 0.00, 0.00, 0.00, 0.00, 0.00, -9462.59, 0.000, 0.000, 0.000, 14:40:51.660, 1553971251660
11, -30324.34, 0.00, 0.00, 0.00, 0.00, 0.00, 0.00, -9503.67, 0.054, 0.096, -1.024, 14:40:51.660, 1553971251660
12, -30342.65, 0.00, 0.00, 0.00, 0.00, 0.00, 0.00, -9472.04, 0.000, 0.000, 0.000, 14:40:51.660, 1553971251660
13, -30358.56, 0.00, 0.00, 0.00, 0.00, 0.00, 0.00, -9432.86, 0.000, 0.000, 0.000, 14:40:51.660, 1553971251660
14, -30345.00, 0.00, 0.00, 0.00, 0.00, 0.00, 0.00, -9461.58, 0.000, 0.000, 0.000, 14:40:51.660, 1553971251660
15, -30324.61, 0.00, 0.00, 0.00, 0.00, 0.00, 0.00, -9500.36, 0.000, 0.000, 0.000, 14:40:51.660, 1553971251660
16, -30336.68, 0.00, 0.00, 0.00, 0.00, 0.00, 0.00, -9481.59, 0.000, 0.000, 0.000, 14:40:51.660, 1553971251660
17, -30355.61, 0.00, 0.00, 0.00, 0.00, 0.00, 0.00, -9435.39, 0.000, 0.000, 0.000, 14:40:51.660, 1553971251660
18, -30350.18, 0.00, 0.00, 0.00, 0.00, 0.00, 0.00, -9454.79, 0.000, 0.000, 0.000, 14:40:51.660, 1553971251660
19, -30342.04, 0.00, 0.00, 0.00, 0.00, 0.00, 0.00, -9507.60, 0.000, 0.000, 0.000, 14:40:51.660, 1553971251660
20, -30341.08, 0.00, 0.00, 0.00, 0.00, 0.00, 0.00, -9495.60, 0.000, 0.000, 0.000, 14:40:51.660, 1553971251660
21, -30354.43, 0.00, 0.00, 0.00, 0.00, 0.00, 0.00, -9436.57, 0.056, 0.098, -1.026, 14:40:51.660, 1553971251660
22, -30353.09, 0.00, 0.00, 0.00, 0.00, 0.00, 0.00, -9448.37, 0.000, 0.000, 0.000, 14:40:51.660, 1553971251660
23, -30337.31, 0.00, 0.00, 0.00, 0.00, 0.00, 0.00, -9494.42, 0.000, 0.000, 0.000, 14:40:51.660, 1553971251660
24, -30337.33, 0.00, 0.00, 0.00, 0.00, 0.00, 0.00, -9501.10, 0.000, 0.000, 0.000, 14:40:51.660, 1553971251660
25, -30355.05, 0.00, 0.00, 0.00, 0.00, 0.00, 0.00, -9443.41, 0.000, 0.000, 0.000, 14:40:52.133, 1553971252133
26, -30357.04, 0.00, 0.00, 0.00, 0.00, 0.00, 0.00, -9439.32, 0.000, 0.000, 0.000, 14:40:52.133, 1553971252133
27, -30332.14, 0.00, 0.00, 0.00, 0.00, 0.00, 0.00, -9480.54, 0.000, 0.000, 0.000, 14:40:52.133, 1553971252133
28, -30322.85, 0.00, 0.00, 0.00, 0.00, 0.00, 0.00, -9499.96, 0.000, 0.000, 0.000, 14:40:52.133, 1553971252133
29, -30347.59, 0.00, 0.00, 0.00, 0.00, 0.00, 0.00, -9449.02, 0.000, 0.000, 0.000, 14:40:52.133, 1553971252133
30, -30358.99, 0.00, 0.00, 0.00, 0.00, 0.00, 0.00, -9434.58, 0.000, 0.000, 0.000, 14:40:52.133, 1553971252133
31, -30340.57, 0.00, 0.00, 0.00, 0.00, 0.00, 0.00, -9475.31, 0.050, 0.094, -1.022, 14:40:52.133, 1553971252133
32, -30333.69, 0.00, 0.00, 0.00, 0.00, 0.00, 0.00, -9508.97, 0.000, 0.000, 0.000, 14:40:52.134, 1553971252134
33, -30352.51, 0.00, 0.00, 0.00, 0.00, 0.00, 0.00, -9465.34, 0.000, 0.000, 0.000, 14:40:52.134, 1553971252134
34, -30362.70, 0.00, 0.00, 0.00, 0.00, 0.00, 0.00, -9431.52, 0.000, 0.000, 0.000, 14:40:52.134, 1553971252134
35, -30348.24, 0.00, 0.00, 0.00, 0.00, 0.00, 0.00, -9465.83, 0.000, 0.000, 0.000, 14:40:52.134, 1553971252134
36, -30330.89, 0.00, 0.00, 0.00, 0.00, 0.00, 0.00, -9503.40, 0.000, 0.000, 0.000, 14:40:52.134, 1553971252134
37, -30347.77, 0.00, 0.00, 0.00, 0.00, 0.00, 0.00, -9473.05, 0.000, 0.000, 0.000, 14:40:52.134, 1553971252134
38, -30361.85, 0.00, 0.00, 0.00, 0.00, 0.00, 0.00, -9431.14, 0.000, 0.000, 0.000, 14:40:52.134, 1553971252134
39, -30353.22, 0.00, 0.00, 0.00, 0.00, 0.00, 0.00, -9458.12, 0.000, 0.000, 0.000, 14:40:52.134, 1553971252134
40, -30333.28, 0.00, 0.00, 0.00, 0.00, 0.00, 0.00, -9500.05, 0.000, 0.000, 0.000, 14:40:52.134, 1553971252134
41, -30334.31, 0.00, 0.00, 0.00, 0.00, 0.00, 0.00, -9475.93, 0.050, 0.094, -1.026, 14:40:52.134, 1553971252134
42, -30351.03, 0.00, 0.00, 0.00, 0.00, 0.00, 0.00, -9427.36, 0.000, 0.000, 0.000, 14:40:52.134, 1553971252134
43, -30350.90, 0.00, 0.00, 0.00, 0.00, 0.00, 0.00, -9447.28, 0.000, 0.000, 0.000, 14:40:52.134, 1553971252134
44, -30334.27, 0.00, 0.00, 0.00, 0.00, 0.00, 0.00, -9494.06, 0.000, 0.000, 0.000, 14:40:52.134, 1553971252134
45, -30345.31, 0.00, 0.00, 0.00, 0.00, 0.00, 0.00, -9494.10, 0.000, 0.000, 0.000, 14:40:52.134, 1553971252134
46, -30368.33, 0.00, 0.00, 0.00, 0.00, 0.00, 0.00, -9443.37, 0.000, 0.000, 0.000, 14:40:52.134, 1553971252134
47, -30366.25, 0.00, 0.00, 0.00, 0.00, 0.00, 0.00, -9456.31, 0.000, 0.000, 0.000, 14:40:52.134, 1553971252134
48, -30347.43, 0.00, 0.00, 0.00, 0.00, 0.00, 0.00, -9499.51, 0.000, 0.000, 0.000, 14:40:52.134, 1553971252134
49, -30344.53, 0.00, 0.00, 0.00, 0.00, 0.00, 0.00, -9507.69, 0.000, 0.000, 0.000, 14:40:52.134, 1553971252134
50, -30358.25, 0.00, 0.00, 0.00, 0.00, 0.00, 0.00, -9448.69, 0.000, 0.000, 0.000, 14:40:52.134, 1553971252134
51, -30366.68, 0.00, 0.00, 0.00, 0.00, 0.00, 0.00, -9437.93, 0.050, 0.092, -1.024, 14:40:52.135, 1553971252135
52, -30351.19, 0.00, 0.00, 0.00, 0.00, 0.00, 0.00, -9485.01, 0.000, 0.000, 0.000, 14:40:52.135, 1553971252135
53, -30338.40, 0.00, 0.00, 0.00, 0.00, 0.00, 0.00, -9503.98, 0.000, 0.000, 0.000, 14:40:52.135, 1553971252135
54, -30359.52, 0.00, 0.00, 0.00, 0.00, 0.00, 0.00, -9453.87, 0.000, 0.000, 0.000, 14:40:52.135, 1553971252135
55, -30368.76, 0.00, 0.00, 0.00, 0.00, 0.00, 0.00, -9438.60, 0.000, 0.000, 0.000, 14:40:52.135, 1553971252135
56, -30354.21, 0.00, 0.00, 0.00, 0.00, 0.00, 0.00, -9480.94, 0.000, 0.000, 0.000, 14:40:52.135, 1553971252135
57, -30342.83, 0.00, 0.00, 0.00, 0.00, 0.00, 0.00, -9514.27, 0.000, 0.000, 0.000, 14:40:52.135, 1553971252135
58, -30358.07, 0.00, 0.00, 0.00, 0.00, 0.00, 0.00, -9464.78, 0.000, 0.000, 0.000, 14:40:52.136, 1553971252136
59, -30369.92, 0.00, 0.00, 0.00, 0.00, 0.00, 0.00, -9426.11, 0.000, 0.000, 0.000, 14:40:52.136, 1553971252136
60, -30357.18, 0.00, 0.00, 0.00, 0.00, 0.00, 0.00, -9470.48, 0.050, 0.094, -1.030, 14:40:52.136, 1553971252136
61, -30340.95, 0.00, 0.00, 0.00, 0.00, 0.00, 0.00, -9514.04, 0.000, 0.000, 0.000, 14:40:52.136, 1553971252136
62, -30354.00, 0.00, 0.00, 0.00, 0.00, 0.00, 0.00, -9475.19, 0.000, 0.000, 0.000, 14:40:52.136, 1553971252136
63, -30371.86, 0.00, 0.00, 0.00, 0.00, 0.00, 0.00, -9435.14, 0.000, 0.000, 0.000, 14:40:52.136, 1553971252136
64, -30362.12, 0.00, 0.00, 0.00, 0.00, 0.00, 0.00, -9465.11, 0.000, 0.000, 0.000, 14:40:52.136, 1553971252136
65, -30346.49, 0.00, 0.00, 0.00, 0.00, 0.00, 0.00, -9509.39, 0.000, 0.000, 0.000, 14:40:52.136, 1553971252136
66, -30352.15, 0.00, 0.00, 0.00, 0.00, 0.00, 0.00, -9490.01, 0.000, 0.000, 0.000, 14:40:52.136, 1553971252136
67, -30370.86, 0.00, 0.00, 0.00, 0.00, 0.00, 0.00, -9441.09, 0.000, 0.000, 0.000, 14:40:52.136, 1553971252136
68, -30366.43, 0.00, 0.00, 0.00, 0.00, 0.00, 0.00, -9458.97, 0.000, 0.000, 0.000, 14:40:52.136, 1553971252136
69, -30343.92, 0.00, 0.00, 0.00, 0.00, 0.00, 0.00, -9500.59, 0.000, 0.000, 0.000, 14:40:52.136, 1553971252136
70, -30349.96, 0.00, 0.00, 0.00, 0.00, 0.00, 0.00, -9496.16, 0.054, 0.088, -1.024, 14:40:52.136, 1553971252136
71, -30373.00, 0.00, 0.00, 0.00, 0.00, 0.00, 0.00, -9444.98, 0.000, 0.000, 0.000, 14:40:52.136, 1553971252136
72, -30372.29, 0.00, 0.00, 0.00, 0.00, 0.00, 0.00, -9452.35, 0.000, 0.000, 0.000, 14:40:52.136, 1553971252136
73, -30345.38, 0.00, 0.00, 0.00, 0.00, 0.00, 0.00, -9496.12, 0.000, 0.000, 0.000, 14:40:52.136, 1553971252136
74, -30345.69, 0.00, 0.00, 0.00, 0.00, 0.00, 0.00, -9508.52, 0.000, 0.000, 0.000, 14:40:52.137, 1553971252137
75, -30366.88, 0.00, 0.00, 0.00, 0.00, 0.00, 0.00, -9451.70, 0.000, 0.000, 0.000, 14:40:52.137, 1553971252137
76, -30369.85, 0.00, 0.00, 0.00, 0.00, 0.00, 0.00, -9444.48, 0.000, 0.000, 0.000, 14:40:52.137, 1553971252137
77, -30355.72, 0.00, 0.00, 0.00, 0.00, 0.00, 0.00, -9491.98, 0.000, 0.000, 0.000, 14:40:52.137, 1553971252137
78, -30343.54, 0.00, 0.00, 0.00, 0.00, 0.00, 0.00, -9511.96, 0.000, 0.000, 0.000, 14:40:52.137, 1553971252137
79, -30359.61, 0.00, 0.00, 0.00, 0.00, 0.00, 0.00, -9456.75, 0.000, 0.000, 0.000, 14:40:52.137, 1553971252137
80, -30371.26, 0.00, 0.00, 0.00, 0.00, 0.00, 0.00, -9441.26, 0.056, 0.084, -1.028, 14:40:52.137, 1553971252137
81, -30361.40, 0.00, 0.00, 0.00, 0.00, 0.00, 0.00, -9484.87, 0.000, 0.000, 0.000, 14:40:52.137, 1553971252137
82, -30346.85, 0.00, 0.00, 0.00, 0.00, 0.00, 0.00, -9517.51, 0.000, 0.000, 0.000, 14:40:52.137, 1553971252137
83, -30359.52, 0.00, 0.00, 0.00, 0.00, 0.00, 0.00, -9469.94, 0.000, 0.000, 0.000, 14:40:52.137, 1553971252137
84, -30373.52, 0.00, 0.00, 0.00, 0.00, 0.00, 0.00, -9436.93, 0.000, 0.000, 0.000, 14:40:52.137, 1553971252137
85, -30357.18, 0.00, 0.00, 0.00, 0.00, 0.00, 0.00, -9470.03, 0.000, 0.000, 0.000, 14:40:52.137, 1553971252137
86, -30339.70, 0.00, 0.00, 0.00, 0.00, 0.00, 0.00, -9510.00, 0.000, 0.000, 0.000, 14:40:52.137, 1553971252137
87, -30355.70, 0.00, 0.00, 0.00, 0.00, 0.00, 0.00, -9480.58, 0.000, 0.000, 0.000, 14:40:52.138, 1553971252138
88, -30373.92, 0.00, 0.00, 0.00, 0.00, 0.00, 0.00, -9441.38, 0.000, 0.000, 0.000, 14:40:52.138, 1553971252138
89, -30361.11, 0.00, 0.00, 0.00, 0.00, 0.00, 0.00, -9463.91, 0.000, 0.000, 0.000, 14:40:52.138, 1553971252138
90, -30336.26, 0.00, 0.00, 0.00, 0.00, 0.00, 0.00, -9505.95, 0.056, 0.086, -1.020, 14:40:52.138, 1553971252138
91, -30344.55, 0.00, 0.00, 0.00, 0.00, 0.00, 0.00, -9484.11, 0.000, 0.000, 0.000, 14:40:52.138, 1553971252138
92, -30369.69, 0.00, 0.00, 0.00, 0.00, 0.00, 0.00, -9441.53, 0.000, 0.000, 0.000, 14:40:52.138, 1553971252138
93, -30361.16, 0.00, 0.00, 0.00, 0.00, 0.00, 0.00, -9452.51, 0.000, 0.000, 0.000, 14:40:52.138, 1553971252138
94, -30342.67, 0.00, 0.00, 0.00, 0.00, 0.00, 0.00, -9496.05, 0.000, 0.000, 0.000, 14:40:52.138, 1553971252138
95, -30347.83, 0.00, 0.00, 0.00, 0.00, 0.00, 0.00, -9498.98, 0.000, 0.000, 0.000, 14:40:52.138, 1553971252138
96, -30365.45, 0.00, 0.00, 0.00, 0.00, 0.00, 0.00, -9439.10, 0.000, 0.000, 0.000, 14:40:52.138, 1553971252138
97, -30368.67, 0.00, 0.00, 0.00, 0.00, 0.00, 0.00, -9447.72, 0.000, 0.000, 0.000, 14:40:52.139, 1553971252139
98, -30352.95, 0.00, 0.00, 0.00, 0.00, 0.00, 0.00, -9496.90, 0.000, 0.000, 0.000, 14:40:52.139, 1553971252139
99, -30348.21, 0.00, 0.00, 0.00, 0.00, 0.00, 0.00, -9504.27, 0.000, 0.000, 0.000, 14:40:52.139, 1553971252139
100, -30363.73, 0.00, 0.00, 0.00, 0.00, 0.00, 0.00, -9447.01, 0.056, 0.092, -1.024, 14:40:52.139, 1553971252139
101, -30362.09, 0.00, 0.00, 0.00, 0.00, 0.00, 0.00, -9439.77, 0.000, 0.000, 0.000, 14:40:52.139, 1553971252139
102, -30349.69, 0.00, 0.00, 0.00, 0.00, 0.00, 0.00, -9482.24, 0.000, 0.000, 0.000, 14:40:52.139, 1553971252139
103, -30336.88, 0.00, 0.00, 0.00, 0.00, 0.00, 0.00, -9504.39, 0.000, 0.000, 0.000, 14:40:52.139, 1553971252139
104, -30358.72, 0.00, 0.00, 0.00, 0.00, 0.00, 0.00, -9456.15, 0.000, 0.000, 0.000, 14:40:52.139, 1553971252139
105, -30379.06, 0.00, 0.00, 0.00, 0.00, 0.00, 0.00, -9449.24, 0.000, 0.000, 0.000, 14:40:52.139, 1553971252139
106, -30362.52, 0.00, 0.00, 0.00, 0.00, 0.00, 0.00, -9487.56, 0.000, 0.000, 0.000, 14:40:52.139, 1553971252139
107, -30347.70, 0.00, 0.00, 0.00, 0.00, 0.00, 0.00, -9517.62, 0.000, 0.000, 0.000, 14:40:52.139, 1553971252139
108, -30365.63, 0.00, 0.00, 0.00, 0.00, 0.00, 0.00, -9476.16, 0.000, 0.000, 0.000, 14:40:52.139, 1553971252139
109, -30373.70, 0.00, 0.00, 0.00, 0.00, 0.00, 0.00, -9435.81, 0.000, 0.000, 0.000, 14:40:52.139, 1553971252139
110, -30359.41, 0.00, 0.00, 0.00, 0.00, 0.00, 0.00, -9466.46, 0.058, 0.090, -1.022, 14:40:52.139, 1553971252139
111, -30349.73, 0.00, 0.00, 0.00, 0.00, 0.00, 0.00, -9513.21, 0.000, 0.000, 0.000, 14:40:52.139, 1553971252139
112, -30357.56, 0.00, 0.00, 0.00, 0.00, 0.00, 0.00, -9487.33, 0.000, 0.000, 0.000, 14:40:52.139, 1553971252139
113, -30374.37, 0.00, 0.00, 0.00, 0.00, 0.00, 0.00, -9445.82, 0.000, 0.000, 0.000, 14:40:52.139, 1553971252139
114, -30365.87, 0.00, 0.00, 0.00, 0.00, 0.00, 0.00, -9469.03, 0.000, 0.000, 0.000, 14:40:52.140, 1553971252140
115, -30345.04, 0.00, 0.00, 0.00, 0.00, 0.00, 0.00, -9508.75, 0.000, 0.000, 0.000, 14:40:52.140, 1553971252140
116, -30355.28, 0.00, 0.00, 0.00, 0.00, 0.00, 0.00, -9496.27, 0.000, 0.000, 0.000, 14:40:52.140, 1553971252140
117, -30376.04, 0.00, 0.00, 0.00, 0.00, 0.00, 0.00, -9445.20, 0.000, 0.000, 0.000, 14:40:52.140, 1553971252140
118, -30364.69, 0.00, 0.00, 0.00, 0.00, 0.00, 0.00, -9458.83, 0.000, 0.000, 0.000, 14:40:52.140, 1553971252140
119, -30342.98, 0.00, 0.00, 0.00, 0.00, 0.00, 0.00, -9506.00, 0.056, 0.088, -1.020, 14:40:52.141, 1553971252141
120, -30343.30, 0.00, 0.00, 0.00, 0.00, 0.00, 0.00, -9505.21, 0.000, 0.000, 0.000, 14:40:52.141, 1553971252141
121, -30368.58, 0.00, 0.00, 0.00, 0.00, 0.00, 0.00, -9449.33, 0.000, 0.000, 0.000, 14:40:52.141, 1553971252141
122, -30370.90, 0.00, 0.00, 0.00, 0.00, 0.00, 0.00, -9453.69, 0.000, 0.000, 0.000, 14:40:52.141, 1553971252141
123, -30348.06, 0.00, 0.00, 0.00, 0.00, 0.00, 0.00, -9499.51, 0.000, 0.000, 0.000, 14:40:52.141, 1553971252141
124, -30345.00, 0.00, 0.00, 0.00, 0.00, 0.00, 0.00, -9514.80, 0.000, 0.000, 0.000, 14:40:52.141, 1553971252141
125, -30367.12, 0.00, 0.00, 0.00, 0.00, 0.00, 0.00, -9461.58, 0.000, 0.000, 0.000, 14:40:52.141, 1553971252141
126, -30371.57, 0.00, 0.00, 0.00, 0.00, 0.00, 0.00, -9450.56, 0.000, 0.000, 0.000, 14:40:52.141, 1553971252141
127, -30350.61, 0.00, 0.00, 0.00, 0.00, 0.00, 0.00, -9495.22, 0.000, 0.000, 0.000, 14:40:52.141, 1553971252141
128, -30333.02, 0.00, 0.00, 0.00, 0.00, 0.00, 0.00, -9519.65, 0.000, 0.000, 0.000, 14:40:52.141, 1553971252141
129, -30355.03, 0.00, 0.00, 0.00, 0.00, 0.00, 0.00, -9474.64, 0.054, 0.086, -1.026, 14:40:52.141, 1553971252141
130, -30367.39, 0.00, 0.00, 0.00, 0.00, 0.00, 0.00, -9452.71, 0.000, 0.000, 0.000, 14:40:52.141, 1553971252141
131, -30362.81, 0.00, 0.00, 0.00, 0.00, 0.00, 0.00, -9498.37, 0.000, 0.000, 0.000, 14:40:52.141, 1553971252141
132, -30352.97, 0.00, 0.00, 0.00, 0.00, 0.00, 0.00, -9538.36, 0.000, 0.000, 0.000, 14:40:52.141, 1553971252141
133, -30368.11, 0.00, 0.00, 0.00, 0.00, 0.00, 0.00, -9495.94, 0.000, 0.000, 0.000, 14:40:52.141, 1553971252141
134, -30377.85, 0.00, 0.00, 0.00, 0.00, 0.00, 0.00, -9459.39, 0.000, 0.000, 0.000, 14:40:52.141, 1553971252141
135, -30361.60, 0.00, 0.00, 0.00, 0.00, 0.00, 0.00, -9489.95, 0.000, 0.000, 0.000, 14:40:52.141, 1553971252141
136, -30345.46, 0.00, 0.00, 0.00, 0.00, 0.00, 0.00, -9528.30, 0.000, 0.000, 0.000, 14:40:52.142, 1553971252142
137, -30350.94, 0.00, 0.00, 0.00, 0.00, 0.00, 0.00, -9491.87, 0.000, 0.000, 0.000, 14:40:52.142, 1553971252142
138, -30371.82, 0.00, 0.00, 0.00, 0.00, 0.00, 0.00, -9449.18, 0.000, 0.000, 0.000, 14:40:52.142, 1553971252142
139, -30368.78, 0.00, 0.00, 0.00, 0.00, 0.00, 0.00, -9478.95, 0.056, 0.084, -1.026, 14:40:52.142, 1553971252142
140, -30348.73, 0.00, 0.00, 0.00, 0.00, 0.00, 0.00, -9525.22, 0.000, 0.000, 0.000, 14:40:52.142, 1553971252142
141, -30350.92, 0.00, 0.00, 0.00, 0.00, 0.00, 0.00, -9510.80, 0.000, 0.000, 0.000, 14:40:52.142, 1553971252142
142, -30365.47, 0.00, 0.00, 0.00, 0.00, 0.00, 0.00, -9449.96, 0.000, 0.000, 0.000, 14:40:52.142, 1553971252142
143, -30367.64, 0.00, 0.00, 0.00, 0.00, 0.00, 0.00, -9465.52, 0.000, 0.000, 0.000, 14:40:52.142, 1553971252142
144, -30351.25, 0.00, 0.00, 0.00, 0.00, 0.00, 0.00, -9512.25, 0.000, 0.000, 0.000, 14:40:52.142, 1553971252142
145, -30349.02, 0.00, 0.00, 0.00, 0.00, 0.00, 0.00, -9514.42, 0.000, 0.000, 0.000, 14:40:52.612, 1553971252612
146, -30373.07, 0.00, 0.00, 0.00, 0.00, 0.00, 0.00, -9462.81, 0.000, 0.000, 0.000, 14:40:52.612, 1553971252612
147, -30362.43, 0.00, 0.00, 0.00, 0.00, 0.00, 0.00, -9459.50, 0.000, 0.000, 0.000, 14:40:52.612, 1553971252612
148, -30346.22, 0.00, 0.00, 0.00, 0.00, 0.00, 0.00, -9504.88, 0.000, 0.000, 0.000, 14:40:52.612, 1553971252612
149, -30347.97, 0.00, 0.00, 0.00, 0.00, 0.00, 0.00, -9524.93, 0.056, 0.090, -1.030, 14:40:52.612, 1553971252612
150, -30380.00, 0.00, 0.00, 0.00, 0.00, 0.00, 0.00, -9477.63, 0.000, 0.000, 0.000, 14:40:52.612, 1553971252612
151, -30379.69, 0.00, 0.00, 0.00, 0.00, 0.00, 0.00, -9467.28, 0.000, 0.000, 0.000, 14:40:52.612, 1553971252612
152, -30358.74, 0.00, 0.00, 0.00, 0.00, 0.00, 0.00, -9506.40, 0.000, 0.000, 0.000, 14:40:52.612, 1553971252612
153, -30348.68, 0.00, 0.00, 0.00, 0.00, 0.00, 0.00, -9528.08, 0.000, 0.000, 0.000, 14:40:52.612, 1553971252612
154, -30368.02, 0.00, 0.00, 0.00, 0.00, 0.00, 0.00, -9480.51, 0.000, 0.000, 0.000, 14:40:52.612, 1553971252612
155, -30369.96, 0.00, 0.00, 0.00, 0.00, 0.00, 0.00, -9452.58, 0.000, 0.000, 0.000, 14:40:52.612, 1553971252612
156, -30354.05, 0.00, 0.00, 0.00, 0.00, 0.00, 0.00, -9491.82, 0.000, 0.000, 0.000, 14:40:52.613, 1553971252613
157, -30346.78, 0.00, 0.00, 0.00, 0.00, 0.00, 0.00, -9538.00, 0.000, 0.000, 0.000, 14:40:52.613, 1553971252613
158, -30360.60, 0.00, 0.00, 0.00, 0.00, 0.00, 0.00, -9493.28, 0.000, 0.000, 0.000, 14:40:52.613, 1553971252613
159, -30371.59, 0.00, 0.00, 0.00, 0.00, 0.00, 0.00, -9444.51, 0.056, 0.090, -1.024, 14:40:52.613, 1553971252613
160, -30354.96, 0.00, 0.00, 0.00, 0.00, 0.00, 0.00, -9476.45, 0.000, 0.000, 0.000, 14:40:52.613, 1553971252613
161, -30344.32, 0.00, 0.00, 0.00, 0.00, 0.00, 0.00, -9525.20, 0.000, 0.000, 0.000, 14:40:52.613, 1553971252613
162, -30354.27, 0.00, 0.00, 0.00, 0.00, 0.00, 0.00, -9500.25, 0.000, 0.000, 0.000, 14:40:52.613, 1553971252613
163, -30381.25, 0.00, 0.00, 0.00, 0.00, 0.00, 0.00, -9457.65, 0.000, 0.000, 0.000, 14:40:52.613, 1553971252613
164, -30377.74, 0.00, 0.00, 0.00, 0.00, 0.00, 0.00, -9489.68, 0.000, 0.000, 0.000, 14:40:52.613, 1553971252613
165, -30352.71, 0.00, 0.00, 0.00, 0.00, 0.00, 0.00, -9532.93, 0.000, 0.000, 0.000, 14:40:52.613, 1553971252613
166, -30351.07, 0.00, 0.00, 0.00, 0.00, 0.00, 0.00, -9516.48, 0.000, 0.000, 0.000, 14:40:52.613, 1553971252613
167, -30373.31, 0.00, 0.00, 0.00, 0.00, 0.00, 0.00, -9461.29, 0.000, 0.000, 0.000, 14:40:52.613, 1553971252613
168, -30367.82, 0.00, 0.00, 0.00, 0.00, 0.00, 0.00, -9474.50, 0.000, 0.000, 0.000, 14:40:52.613, 1553971252613
169, -30347.54, 0.00, 0.00, 0.00, 0.00, 0.00, 0.00, -9518.67, 0.054, 0.088, -1.032, 14:40:52.613, 1553971252613
170, -30341.06, 0.00, 0.00, 0.00, 0.00, 0.00, 0.00, -9519.03, 0.000, 0.000, 0.000, 14:40:52.613, 1553971252613
171, -30374.43, 0.00, 0.00, 0.00, 0.00, 0.00, 0.00, -9470.34, 0.000, 0.000, 0.000, 14:40:52.613, 1553971252613
172, -30370.86, 0.00, 0.00, 0.00, 0.00, 0.00, 0.00, -9467.93, 0.000, 0.000, 0.000, 14:40:52.613, 1553971252613
173, -30349.78, 0.00, 0.00, 0.00, 0.00, 0.00, 0.00, -9510.42, 0.000, 0.000, 0.000, 14:40:52.613, 1553971252613
174, -30345.17, 0.00, 0.00, 0.00, 0.00, 0.00, 0.00, -9528.82, 0.000, 0.000, 0.000, 14:40:52.613, 1553971252613
175, -30358.45, 0.00, 0.00, 0.00, 0.00, 0.00, 0.00, -9469.88, 0.000, 0.000, 0.000, 14:40:52.613, 1553971252613
176, -30370.25, 0.00, 0.00, 0.00, 0.00, 0.00, 0.00, -9461.25, 0.000, 0.000, 0.000, 14:40:52.614, 1553971252614
177, -30354.32, 0.00, 0.00, 0.00, 0.00, 0.00, 0.00, -9505.53, 0.000, 0.000, 0.000, 14:40:52.614, 1553971252614
178, -30342.40, 0.00, 0.00, 0.00, 0.00, 0.00, 0.00, -9534.27, 0.000, 0.000, 0.000, 14:40:52.614, 1553971252614
179, -30357.60, 0.00, 0.00, 0.00, 0.00, 0.00, 0.00, -9483.33, 0.054, 0.092, -1.028, 14:40:52.615, 1553971252615
180, -30373.61, 0.00, 0.00, 0.00, 0.00, 0.00, 0.00, -9461.25, 0.000, 0.000, 0.000, 14:40:52.615, 1553971252615
181, -30354.74, 0.00, 0.00, 0.00, 0.00, 0.00, 0.00, -9497.95, 0.000, 0.000, 0.000, 14:40:52.615, 1553971252615
182, -30337.15, 0.00, 0.00, 0.00, 0.00, 0.00, 0.00, -9536.84, 0.000, 0.000, 0.000, 14:40:52.615, 1553971252615
183, -30354.61, 0.00, 0.00, 0.00, 0.00, 0.00, 0.00, -9499.49, 0.000, 0.000, 0.000, 14:40:52.615, 1553971252615
184, -30366.10, 0.00, 0.00, 0.00, 0.00, 0.00, 0.00, -9459.64, 0.000, 0.000, 0.000, 14:40:52.615, 1553971252615
185, -30350.74, 0.00, 0.00, 0.00, 0.00, 0.00, 0.00, -9483.29, 0.000, 0.000, 0.000, 14:40:52.615, 1553971252615
186, -30337.37, 0.00, 0.00, 0.00, 0.00, 0.00, 0.00, -9530.65, 0.000, 0.000, 0.000, 14:40:52.615, 1553971252615
187, -30345.15, 0.00, 0.00, 0.00, 0.00, 0.00, 0.00, -9506.55, 0.000, 0.000, 0.000, 14:40:52.616, 1553971252616
188, -30369.20, 0.00, 0.00, 0.00, 0.00, 0.00, 0.00, -9462.10, 0.054, 0.092, -1.026, 14:40:52.616, 1553971252616
189, -30362.50, 0.00, 0.00, 0.00, 0.00, 0.00, 0.00, -9482.39, 0.000, 0.000, 0.000, 14:40:52.616, 1553971252616
190, -30343.12, 0.00, 0.00, 0.00, 0.00, 0.00, 0.00, -9534.23, 0.000, 0.000, 0.000, 14:40:52.616, 1553971252616
191, -30352.10, 0.00, 0.00, 0.00, 0.00, 0.00, 0.00, -9527.61, 0.000, 0.000, 0.000, 14:40:52.616, 1553971252616
192, -30375.08, 0.00, 0.00, 0.00, 0.00, 0.00, 0.00, -9476.04, 0.000, 0.000, 0.000, 14:40:52.616, 1553971252616
193, -30373.20, 0.00, 0.00, 0.00, 0.00, 0.00, 0.00, -9490.42, 0.000, 0.000, 0.000, 14:40:52.616, 1553971252616
194, -30346.67, 0.00, 0.00, 0.00, 0.00, 0.00, 0.00, -9528.46, 0.000, 0.000, 0.000, 14:40:52.616, 1553971252616
195, -30343.10, 0.00, 0.00, 0.00, 0.00, 0.00, 0.00, -9533.06, 0.000, 0.000, 0.000, 14:40:52.616, 1553971252616
196, -30369.40, 0.00, 0.00, 0.00, 0.00, 0.00, 0.00, -9482.46, 0.000, 0.000, 0.000, 14:40:52.616, 1553971252616
197, -30376.38, 0.00, 0.00, 0.00, 0.00, 0.00, 0.00, -9485.70, 0.000, 0.000, 0.000, 14:40:52.616, 1553971252616
198, -30359.57, 0.00, 0.00, 0.00, 0.00, 0.00, 0.00, -9533.78, 0.054, 0.092, -1.024, 14:40:52.616, 1553971252616
199, -30350.67, 0.00, 0.00, 0.00, 0.00, 0.00, 0.00, -9550.68, 0.000, 0.000, 0.000, 14:40:52.616, 1553971252616
200, -30377.96, 0.00, 0.00, 0.00, 0.00, 0.00, 0.00, -9505.79, 0.000, 0.000, 0.000, 14:40:52.616, 1553971252616
201, -30389.95, 0.00, 0.00, 0.00, 0.00, 0.00, 0.00, -9494.51, 0.000, 0.000, 0.000, 14:40:52.616, 1553971252616
202, -30370.52, 0.00, 0.00, 0.00, 0.00, 0.00, 0.00, -9534.72, 0.000, 0.000, 0.000, 14:40:52.616, 1553971252616
203, -30362.97, 0.00, 0.00, 0.00, 0.00, 0.00, 0.00, -9572.85, 0.000, 0.000, 0.000, 14:40:52.616, 1553971252616
204, -30383.71, 0.00, 0.00, 0.00, 0.00, 0.00, 0.00, -9534.16, 0.000, 0.000, 0.000, 14:40:52.616, 1553971252616
205, -30398.46, 0.00, 0.00, 0.00, 0.00, 0.00, 0.00, -9523.12, 0.000, 0.000, 0.000, 14:40:52.617, 1553971252617
206, -30381.96, 0.00, 0.00, 0.00, 0.00, 0.00, 0.00, -9541.67, 0.000, 0.000, 0.000, 14:40:52.617, 1553971252617
207, -30372.38, 0.00, 0.00, 0.00, 0.00, 0.00, 0.00, -9560.27, 0.000, 0.000, 0.000, 14:40:52.617, 1553971252617
208, -30386.75, 0.00, 0.00, 0.00, 0.00, 0.00, 0.00, -9548.46, 0.060, 0.092, -1.020, 14:40:52.617, 1553971252617
209, -30400.92, 0.00, 0.00, 0.00, 0.00, 0.00, 0.00, -9534.34, 0.000, 0.000, 0.000, 14:40:52.617, 1553971252617
210, -30387.96, 0.00, 0.00, 0.00, 0.00, 0.00, 0.00, -9541.36, 0.000, 0.000, 0.000, 14:40:52.617, 1553971252617
211, -30371.08, 0.00, 0.00, 0.00, 0.00, 0.00, 0.00, -9555.59, 0.000, 0.000, 0.000, 14:40:52.617, 1553971252617
212, -30379.13, 0.00, 0.00, 0.00, 0.00, 0.00, 0.00, -9546.74, 0.000, 0.000, 0.000, 14:40:52.617, 1553971252617
213, -30391.76, 0.00, 0.00, 0.00, 0.00, 0.00, 0.00, -9528.48, 0.000, 0.000, 0.000, 14:40:52.618, 1553971252618
214, -30386.77, 0.00, 0.00, 0.00, 0.00, 0.00, 0.00, -9532.73, 0.000, 0.000, 0.000, 14:40:52.618, 1553971252618
215, -30370.32, 0.00, 0.00, 0.00, 0.00, 0.00, 0.00, -9549.69, 0.000, 0.000, 0.000, 14:40:52.618, 1553971252618
216, -30371.64, 0.00, 0.00, 0.00, 0.00, 0.00, 0.00, -9545.69, 0.000, 0.000, 0.000, 14:40:52.618, 1553971252618
217, -30391.46, 0.00, 0.00, 0.00, 0.00, 0.00, 0.00, -9518.04, 0.000, 0.000, 0.000, 14:40:52.618, 1553971252618
218, -30384.54, 0.00, 0.00, 0.00, 0.00, 0.00, 0.00, -9513.24, 0.060, 0.088, -1.028, 14:40:52.618, 1553971252618
219, -30361.38, 0.00, 0.00, 0.00, 0.00, 0.00, 0.00, -9541.49, 0.000, 0.000, 0.000, 14:40:52.618, 1553971252618
220, -30355.70, 0.00, 0.00, 0.00, 0.00, 0.00, 0.00, -9552.26, 0.000, 0.000, 0.000, 14:40:52.618, 1553971252618
221, -30370.90, 0.00, 0.00, 0.00, 0.00, 0.00, 0.00, -9498.11, 0.000, 0.000, 0.000, 14:40:52.618, 1553971252618
222, -30377.05, 0.00, 0.00, 0.00, 0.00, 0.00, 0.00, -9490.17, 0.000, 0.000, 0.000, 14:40:52.618, 1553971252618
223, -30361.16, 0.00, 0.00, 0.00, 0.00, 0.00, 0.00, -9531.07, 0.000, 0.000, 0.000, 14:40:52.618, 1553971252618
224, -30353.47, 0.00, 0.00, 0.00, 0.00, 0.00, 0.00, -9547.82, 0.000, 0.000, 0.000, 14:40:52.618, 1553971252618
225, -30370.25, 0.00, 0.00, 0.00, 0.00, 0.00, 0.00, -9494.89, 0.000, 0.000, 0.000, 14:40:52.618, 1553971252618
226, -30378.95, 0.00, 0.00, 0.00, 0.00, 0.00, 0.00, -9481.52, 0.000, 0.000, 0.000, 14:40:52.618, 1553971252618
227, -30362.09, 0.00, 0.00, 0.00, 0.00, 0.00, 0.00, -9522.16, 0.000, 0.000, 0.000, 14:40:52.618, 1553971252618
228, -30349.64, 0.00, 0.00, 0.00, 0.00, 0.00, 0.00, -9549.78, 0.058, 0.090, -1.026, 14:40:52.618, 1553971252618
229, -30369.78, 0.00, 0.00, 0.00, 0.00, 0.00, 0.00, -9505.28, 0.000, 0.000, 0.000, 14:40:52.618, 1553971252618
230, -30377.83, 0.00, 0.00, 0.00, 0.00, 0.00, 0.00, -9477.30, 0.000, 0.000, 0.000, 14:40:52.618, 1553971252618
231, -30350.23, 0.00, 0.00, 0.00, 0.00, 0.00, 0.00, -9501.73, 0.000, 0.000, 0.000, 14:40:52.618, 1553971252618
232, -30336.28, 0.00, 0.00, 0.00, 0.00, 0.00, 0.00, -9543.39, 0.000, 0.000, 0.000, 14:40:52.619, 1553971252619
233, -30355.50, 0.00, 0.00, 0.00, 0.00, 0.00, 0.00, -9514.65, 0.000, 0.000, 0.000, 14:40:52.619, 1553971252619
234, -30364.75, 0.00, 0.00, 0.00, 0.00, 0.00, 0.00, -9467.68, 0.000, 0.000, 0.000, 14:40:52.619, 1553971252619
235, -30346.61, 0.00, 0.00, 0.00, 0.00, 0.00, 0.00, -9484.72, 0.000, 0.000, 0.000, 14:40:52.619, 1553971252619
236, -30324.92, 0.00, 0.00, 0.00, 0.00, 0.00, 0.00, -9523.09, 0.000, 0.000, 0.000, 14:40:52.619, 1553971252619
237, -30336.01, 0.00, 0.00, 0.00, 0.00, 0.00, 0.00, -9505.12, 0.000, 0.000, 0.000, 14:40:52.619, 1553971252619
238, -30353.82, 0.00, 0.00, 0.00, 0.00, 0.00, 0.00, -9452.02, 0.056, 0.090, -1.020, 14:40:52.619, 1553971252619
239, -30350.99, 0.00, 0.00, 0.00, 0.00, 0.00, 0.00, -9473.67, 0.000, 0.000, 0.000, 14:40:52.619, 1553971252619
240, -30331.45, 0.00, 0.00, 0.00, 0.00, 0.00, 0.00, -9520.43, 0.000, 0.000, 0.000, 14:40:52.619, 1553971252619
241, -30327.58, 0.00, 0.00, 0.00, 0.00, 0.00, 0.00, -9513.59, 0.000, 0.000, 0.000, 14:40:52.619, 1553971252619
242, -30355.61, 0.00, 0.00, 0.00, 0.00, 0.00, 0.00, -9462.52, 0.000, 0.000, 0.000, 14:40:52.619, 1553971252619
243, -30358.81, 0.00, 0.00, 0.00, 0.00, 0.00, 0.00, -9471.46, 0.000, 0.000, 0.000, 14:40:52.619, 1553971252619
244, -30338.69, 0.00, 0.00, 0.00, 0.00, 0.00, 0.00, -9514.44, 0.000, 0.000, 0.000, 14:40:52.620, 1553971252620
245, -30331.92, 0.00, 0.00, 0.00, 0.00, 0.00, 0.00, -9523.41, 0.000, 0.000, 0.000, 14:40:52.620, 1553971252620
246, -30356.64, 0.00, 0.00, 0.00, 0.00, 0.00, 0.00, -9472.96, 0.000, 0.000, 0.000, 14:40:52.620, 1553971252620
247, -30365.80, 0.00, 0.00, 0.00, 0.00, 0.00, 0.00, -9469.14, 0.000, 0.000, 0.000, 14:40:52.620, 1553971252620
248, -30343.92, 0.00, 0.00, 0.00, 0.00, 0.00, 0.00, -9510.44, 0.054, 0.094, -1.026, 14:40:52.620, 1553971252620
249, -30336.72, 0.00, 0.00, 0.00, 0.00, 0.00, 0.00, -9541.27, 0.000, 0.000, 0.000, 14:40:52.620, 1553971252620
250, -30357.15, 0.00, 0.00, 0.00, 0.00, 0.00, 0.00, -9489.12, 0.000, 0.000, 0.000, 14:40:52.620, 1553971252620
251, -30359.57, 0.00, 0.00, 0.00, 0.00, 0.00, 0.00, -9462.54, 0.000, 0.000, 0.000, 14:40:52.620, 1553971252620
252, -30339.79, 0.00, 0.00, 0.00, 0.00, 0.00, 0.00, -9498.91, 0.000, 0.000, 0.000, 14:40:52.620, 1553971252620
253, -30332.68, 0.00, 0.00, 0.00, 0.00, 0.00, 0.00, -9538.38, 0.000, 0.000, 0.000, 14:40:52.620, 1553971252620
254, -30356.39, 0.00, 0.00, 0.00, 0.00, 0.00, 0.00, -9497.79, 0.000, 0.000, 0.000, 14:40:52.620, 1553971252620
255, -30365.96, 0.00, 0.00, 0.00, 0.00, 0.00, 0.00, -9465.58, 0.000, 0.000, 0.000, 14:40:52.620, 1553971252620
0, -30354.56, 0.00, 0.00, 0.00, 0.00, 0.00, 0.00, -9500.34, 0.000, 0.000, 0.000, 14:40:52.620, 1553971252620
1, -30336.99, 0.00, 0.00, 0.00, 0.00, 0.00, 0.00, -9537.91, 0.050, 0.096, -1.022, 14:40:52.620, 1553971252620
2, -30352.28, 0.00, 0.00, 0.00, 0.00, 0.00, 0.00, -9502.37, 0.000, 0.000, 0.000, 14:40:52.620, 1553971252620
3, -30379.46, 0.00, 0.00, 0.00, 0.00, 0.00, 0.00, -9467.91, 0.000, 0.000, 0.000, 14:40:52.620, 1553971252620
4, -30363.55, 0.00, 0.00, 0.00, 0.00, 0.00, 0.00, -9495.16, 0.000, 0.000, 0.000, 14:40:52.620, 1553971252620
5, -30343.36, 0.00, 0.00, 0.00, 0.00, 0.00, 0.00, -9541.58, 0.000, 0.000, 0.000, 14:40:52.620, 1553971252620
6, -30350.20, 0.00, 0.00, 0.00, 0.00, 0.00, 0.00, -9527.12, 0.000, 0.000, 0.000, 14:40:52.620, 1553971252620
7, -30361.76, 0.00, 0.00, 0.00, 0.00, 0.00, 0.00, -9468.96, 0.000, 0.000, 0.000, 14:40:52.620, 1553971252620
8, -30361.09, 0.00, 0.00, 0.00, 0.00, 0.00, 0.00, -9485.50, 0.000, 0.000, 0.000, 14:40:52.620, 1553971252620
9, -30343.43, 0.00, 0.00, 0.00, 0.00, 0.00, 0.00, -9530.31, 0.000, 0.000, 0.000, 14:40:53.093, 1553971253093
10, -30351.63, 0.00, 0.00, 0.00, 0.00, 0.00, 0.00, -9528.46, 0.000, 0.000, 0.000, 14:40:53.093, 1553971253093
11, -30374.84, 0.00, 0.00, 0.00, 0.00, 0.00, 0.00, -9474.26, 0.052, 0.100, -1.020, 14:40:53.093, 1553971253093
12, -30376.15, 0.00, 0.00, 0.00, 0.00, 0.00, 0.00, -9484.54, 0.000, 0.000, 0.000, 14:40:53.093, 1553971253093
13, -30357.11, 0.00, 0.00, 0.00, 0.00, 0.00, 0.00, -9530.72, 0.000, 0.000, 0.000, 14:40:53.093, 1553971253093
14, -30347.70, 0.00, 0.00, 0.00, 0.00, 0.00, 0.00, -9534.99, 0.000, 0.000, 0.000, 14:40:53.093, 1553971253093
15, -30363.57, 0.00, 0.00, 0.00, 0.00, 0.00, 0.00, -9470.68, 0.000, 0.000, 0.000, 14:40:53.093, 1553971253093
16, -30367.79, 0.00, 0.00, 0.00, 0.00, 0.00, 0.00, -9462.83, 0.000, 0.000, 0.000, 14:40:53.093, 1553971253093
17, -30347.65, 0.00, 0.00, 0.00, 0.00, 0.00, 0.00, -9507.36, 0.000, 0.000, 0.000, 14:40:53.093, 1553971253093
18, -30328.99, 0.00, 0.00, 0.00, 0.00, 0.00, 0.00, -9525.64, 0.000, 0.000, 0.000, 14:40:53.093, 1553971253093
19, -30350.29, 0.00, 0.00, 0.00, 0.00, 0.00, 0.00, -9473.47, 0.000, 0.000, 0.000, 14:40:53.093, 1553971253093
20, -30361.96, 0.00, 0.00, 0.00, 0.00, 0.00, 0.00, -9455.50, 0.000, 0.000, 0.000, 14:40:53.093, 1553971253093
21, -30343.88, 0.00, 0.00, 0.00, 0.00, 0.00, 0.00, -9497.37, 0.048, 0.096, -1.022, 14:40:53.093, 1553971253093
22, -30330.36, 0.00, 0.00, 0.00, 0.00, 0.00, 0.00, -9536.08, 0.000, 0.000, 0.000, 14:40:53.094, 1553971253094
23, -30346.89, 0.00, 0.00, 0.00, 0.00, 0.00, 0.00, -9495.07, 0.000, 0.000, 0.000, 14:40:53.094, 1553971253094
24, -30364.33, 0.00, 0.00, 0.00, 0.00, 0.00, 0.00, -9463.04, 0.000, 0.000, 0.000, 14:40:53.094, 1553971253094
25, -30356.10, 0.00, 0.00, 0.00, 0.00, 0.00, 0.00, -9495.94, 0.000, 0.000, 0.000, 14:40:53.094, 1553971253094
26, -30334.15, 0.00, 0.00, 0.00, 0.00, 0.00, 0.00, -9531.99, 0.000, 0.000, 0.000, 14:40:53.094, 1553971253094
27, -30346.22, 0.00, 0.00, 0.00, 0.00, 0.00, 0.00, -9499.98, 0.000, 0.000, 0.000, 14:40:53.094, 1553971253094
28, -30374.61, 0.00, 0.00, 0.00, 0.00, 0.00, 0.00, -9458.83, 0.000, 0.000, 0.000, 14:40:53.094, 1553971253094
29, -30364.75, 0.00, 0.00, 0.00, 0.00, 0.00, 0.00, -9485.72, 0.000, 0.000, 0.000, 14:40:53.094, 1553971253094
30, -30337.46, 0.00, 0.00, 0.00, 0.00, 0.00, 0.00, -9525.78, 0.000, 0.000, 0.000, 14:40:53.094, 1553971253094
31, -30342.60, 0.00, 0.00, 0.00, 0.00, 0.00, 0.00, -9507.43, 0.050, 0.094, -1.018, 14:40:53.094, 1553971253094
32, -30363.82, 0.00, 0.00, 0.00, 0.00, 0.00, 0.00, -9456.42, 0.000, 0.000, 0.000, 14:40:53.094, 1553971253094
33, -30355.68, 0.00, 0.00, 0.00, 0.00, 0.00, 0.00, -9471.39, 0.000, 0.000, 0.000, 14:40:53.094, 1553971253094
34, -30337.55, 0.00, 0.00, 0.00, 0.00, 0.00, 0.00, -9513.91, 0.000, 0.000, 0.000, 14:40:53.094, 1553971253094
35, -30335.70, 0.00, 0.00, 0.00, 0.00, 0.00, 0.00, -9510.02, 0.000, 0.000, 0.000, 14:40:53.094, 1553971253094
36, -30356.17, 0.00, 0.00, 0.00, 0.00, 0.00, 0.00, -9454.65, 0.000, 0.000, 0.000, 14:40:53.094, 1553971253094
37, -30359.97, 0.00, 0.00, 0.00, 0.00, 0.00, 0.00, -9465.00, 0.000, 0.000, 0.000, 14:40:53.094, 1553971253094
38, -30343.45, 0.00, 0.00, 0.00, 0.00, 0.00, 0.00, -9516.08, 0.000, 0.000, 0.000, 14:40:53.094, 1553971253094
39, -30330.62, 0.00, 0.00, 0.00, 0.00, 0.00, 0.00, -9526.02, 0.000, 0.000, 0.000, 14:40:53.094, 1553971253094
40, -30348.88, 0.00, 0.00, 0.00, 0.00, 0.00, 0.00, -9470.25, 0.000, 0.000, 0.000, 14:40:53.095, 1553971253095
41, -30353.11, 0.00, 0.00, 0.00, 0.00, 0.00, 0.00, -9458.77, 0.048, 0.094, -1.020, 14:40:53.095, 1553971253095
42, -30339.29, 0.00, 0.00, 0.00, 0.00, 0.00, 0.00, -9501.55, 0.000, 0.000, 0.000, 14:40:53.095, 1553971253095
43, -30329.93, 0.00, 0.00, 0.00, 0.00, 0.00, 0.00, -9530.47, 0.000, 0.000, 0.000, 14:40:53.095, 1553971253095
44, -30348.01, 0.00, 0.00, 0.00, 0.00, 0.00, 0.00, -9475.71, 0.000, 0.000, 0.000, 14:40:53.095, 1553971253095
45, -30357.36, 0.00, 0.00, 0.00, 0.00, 0.00, 0.00, -9449.47, 0.000, 0.000, 0.000, 14:40:53.095, 1553971253095
46, -30343.50, 0.00, 0.00, 0.00, 0.00, 0.00, 0.00, -9490.86, 0.000, 0.000, 0.000, 14:40:53.095, 1553971253095
47, -30332.59, 0.00, 0.00, 0.00, 0.00, 0.00, 0.00, -9526.94, 0.000, 0.000, 0.000, 14:40:53.095, 1553971253095
48, -30354.85, 0.00, 0.00, 0.00, 0.00, 0.00, 0.00, -9485.63, 0.000, 0.000, 0.000, 14:40:53.095, 1553971253095
49, -30360.31, 0.00, 0.00, 0.00, 0.00, 0.00, 0.00, -9450.74, 0.000, 0.000, 0.000, 14:40:53.095, 1553971253095
50, -30345.04, 0.00, 0.00, 0.00, 0.00, 0.00, 0.00, -9484.18, 0.000, 0.000, 0.000, 14:40:53.095, 1553971253095
51, -30327.23, 0.00, 0.00, 0.00, 0.00, 0.00, 0.00, -9521.04, 0.052, 0.090, -1.018, 14:40:53.095, 1553971253095
52, -30343.27, 0.00, 0.00, 0.00, 0.00, 0.00, 0.00, -9493.17, 0.000, 0.000, 0.000, 14:40:53.095, 1553971253095
53, -30361.36, 0.00, 0.00, 0.00, 0.00, 0.00, 0.00, -9451.64, 0.000, 0.000, 0.000, 14:40:53.095, 1553971253095
54, -30348.68, 0.00, 0.00, 0.00, 0.00, 0.00, 0.00, -9471.84, 0.000, 0.000, 0.000, 14:40:53.095, 1553971253095
55, -30331.83, 0.00, 0.00, 0.00, 0.00, 0.00, 0.00, -9515.85, 0.000, 0.000, 0.000, 14:40:53.095, 1553971253095
56, -30336.93, 0.00, 0.00, 0.00, 0.00, 0.00, 0.00, -9498.98, 0.000, 0.000, 0.000, 14:40:53.095, 1553971253095
57, -30354.18, 0.00, 0.00, 0.00, 0.00, 0.00, 0.00, -9446.00, 0.000, 0.000, 0.000, 14:40:53.096, 1553971253096
58, -30346.31, 0.00, 0.00, 0.00, 0.00, 0.00, 0.00, -9459.24, 0.000, 0.000, 0.000, 14:40:53.096, 1553971253096
59, -30327.56, 0.00, 0.00, 0.00, 0.00, 0.00, 0.00, -9505.03, 0.000, 0.000, 0.000, 14:40:53.096, 1553971253096
