%OpenBCI Raw EEG Data
%Number of channels = 8
%Sample Rate = 250.0 Hz
%First Column = SampleIndex
%Last Column = Timestamp 
%Other Columns = EEG data in microvolts followed by Accel Data (in G) interleaved with Aux Data
0, -159484.88, 0.00, 0.00, 0.00, 0.00, 5.45, -22670.75, 0.00, -0.712, 0.594, -0.348, 15:09:55.502, 1551730195502
1, -21251.01, 0.00, 0.00, 0.00, 0.00, 0.00, -16270.73, 0.00, 0.000, 0.000, 0.000, 15:09:55.508, 1551730195508
2, -21132.97, 0.00, 0.00, 0.00, 0.00, 0.00, -16255.57, 0.00, 0.000, 0.000, 0.000, 15:09:55.508, 1551730195508
3, -20998.26, 0.00, 0.00, 0.00, 0.00, 0.00, -16197.50, 0.00, 0.000, 0.000, 0.000, 15:09:55.515, 1551730195515
4, -21091.02, 0.00, 0.00, 0.00, 0.00, 0.00, -16189.84, 0.00, 0.000, 0.000, 0.000, 15:09:55.516, 1551730195516
5, -21261.80, 0.00, 0.00, 0.00, 0.00, 0.00, -16269.14, 0.00, 0.000, 0.000, 0.000, 15:09:55.523, 1551730195523
6, -21156.80, 0.00, 0.00, 0.00, 0.00, 0.00, -16262.55, 0.00, 0.000, 0.000, 0.000, 15:09:55.523, 1551730195523
7, -21025.32, 0.00, 0.00, 0.00, 0.00, 0.00, -16209.89, 0.00, 0.000, 0.000, 0.000, 15:09:55.530, 1551730195530
8, -21065.58, 0.00, 0.00, 0.00, 0.00, 0.00, -16184.32, 0.00, 0.000, 0.000, 0.000, 15:09:55.530, 1551730195530
9, -21272.45, 0.00, 0.00, 0.00, 0.00, 0.00, -16264.83, 0.00, 0.000, 0.000, 0.000, 15:09:55.538, 1551730195538
10, -21169.98, 0.00, 0.00, 0.00, 0.00, 0.00, -16264.20, 0.00, 0.000, 0.000, 0.000, 15:09:55.538, 1551730195538
11, -21041.64, 0.00, 0.00, 0.00, 0.00, 0.00, -16215.12, 0.00, -0.712, 0.592, -0.348, 15:09:55.546, 1551730195546
12, -21026.71, 0.00, 0.00, 0.00, 0.00, 0.00, -16174.97, 0.00, 0.000, 0.000, 0.000, 15:09:55.546, 1551730195546
13, -21244.57, 0.00, 0.00, 0.00, 0.00, 0.00, -16242.74, 0.00, 0.000, 0.000, 0.000, 15:09:55.553, 1551730195553
14, -21190.57, 0.00, 0.00, 0.00, 0.00, 0.00, -16261.43, 0.00, 0.000, 0.000, 0.000, 15:09:55.553, 1551730195553
15, -21061.96, 0.00, 0.00, 0.00, 0.00, 0.00, -16218.42, 0.00, 0.000, 0.000, 0.000, 15:09:55.562, 1551730195562
16, -20994.77, 0.00, 0.00, 0.00, 0.00, 0.00, -16175.20, 0.00, 0.000, 0.000, 0.000, 15:09:55.568, 1551730195568
17, -21208.88, 0.00, 0.00, 0.00, 0.00, 0.00, -16221.98, 0.00, 0.000, 0.000, 0.000, 15:09:55.568, 1551730195568
18, -21215.78, 0.00, 0.00, 0.00, 0.00, 0.00, -16264.89, 0.00, 0.000, 0.000, 0.000, 15:09:55.579, 1551730195579
19, -21089.92, 0.00, 0.00, 0.00, 0.00, 0.00, -16236.44, 0.00, 0.000, 0.000, 0.000, 15:09:55.579, 1551730195579
20, -20982.72, 0.00, 0.00, 0.00, 0.00, 0.00, -16180.25, 0.00, 0.000, 0.000, 0.000, 15:09:55.584, 1551730195584
21, -21160.69, 0.00, 0.00, 0.00, 0.00, 0.00, -16209.48, 0.00, -0.710, 0.596, -0.344, 15:09:55.584, 1551730195584
22, -21232.30, 0.00, 0.00, 0.00, 0.00, 0.00, -16267.60, 0.00, 0.000, 0.000, 0.000, 15:09:55.591, 1551730195591
23, -21115.63, 0.00, 0.00, 0.00, 0.00, 0.00, -16247.84, 0.00, 0.000, 0.000, 0.000, 15:09:55.591, 1551730195591
24, -20985.16, 0.00, 0.00, 0.00, 0.00, 0.00, -16191.74, 0.00, 0.000, 0.000, 0.000, 15:09:55.599, 1551730195599
25, -21110.26, 0.00, 0.00, 0.00, 0.00, 0.00, -16197.10, 0.00, 0.000, 0.000, 0.000, 15:09:55.599, 1551730195599
26, -21247.10, 0.00, 0.00, 0.00, 0.00, 0.00, -16273.86, 0.00, 0.000, 0.000, 0.000, 15:09:55.606, 1551730195606
27, -21133.04, 0.00, 0.00, 0.00, 0.00, 0.00, -16256.29, 0.00, 0.000, 0.000, 0.000, 15:09:55.607, 1551730195607
28, -21009.34, 0.00, 0.00, 0.00, 0.00, 0.00, -16200.92, 0.00, 0.000, 0.000, 0.000, 15:09:55.615, 1551730195615
29, -21072.89, 0.00, 0.00, 0.00, 0.00, 0.00, -16178.21, 0.00, 0.000, 0.000, 0.000, 15:09:55.616, 1551730195616
30, -21243.97, 0.00, 0.00, 0.00, 0.00, 0.00, -16252.60, 0.00, -0.714, 0.590, -0.344, 15:09:55.620, 1551730195620
31, -21148.53, 0.00, 0.00, 0.00, 0.00, 0.00, -16259.35, 0.00, 0.000, 0.000, 0.000, 15:09:55.628, 1551730195628
32, -21018.24, 0.00, 0.00, 0.00, 0.00, 0.00, -16204.86, 0.00, 0.000, 0.000, 0.000, 15:09:55.629, 1551730195629
33, -21022.69, 0.00, 0.00, 0.00, 0.00, 0.00, -16167.62, 0.00, 0.000, 0.000, 0.000, 15:09:55.635, 1551730195635
34, -21230.80, 0.00, 0.00, 0.00, 0.00, 0.00, -16241.72, 0.00, 0.000, 0.000, 0.000, 15:09:55.636, 1551730195636
35, -21180.18, 0.00, 0.00, 0.00, 0.00, 0.00, -16265.86, 0.00, 0.000, 0.000, 0.000, 15:09:55.655, 1551730195655
36, -21034.89, 0.00, 0.00, 0.00, 0.00, 0.00, -16215.30, 0.00, 0.000, 0.000, 0.000, 15:09:55.655, 1551730195655
37, -20986.19, 0.00, 0.00, 0.00, 0.00, 0.00, -16164.78, 0.00, 0.000, 0.000, 0.000, 15:09:55.656, 1551730195656
38, -21213.32, 0.00, 0.00, 0.00, 0.00, 0.00, -16228.51, 0.00, 0.000, 0.000, 0.000, 15:09:55.656, 1551730195656
39, -21193.74, 0.00, 0.00, 0.00, 0.00, 0.00, -16267.58, 0.00, 0.000, 0.000, 0.000, 15:09:55.658, 1551730195658
40, -21065.96, 0.00, 0.00, 0.00, 0.00, 0.00, -16228.33, 0.00, -0.718, 0.590, -0.348, 15:09:55.658, 1551730195658
41, -20970.96, 0.00, 0.00, 0.00, 0.00, 0.00, -16165.27, 0.00, 0.000, 0.000, 0.000, 15:09:55.666, 1551730195666
42, -21183.57, 0.00, 0.00, 0.00, 0.00, 0.00, -16213.93, 0.00, 0.000, 0.000, 0.000, 15:09:55.666, 1551730195666
43, -21220.59, 0.00, 0.00, 0.00, 0.00, 0.00, -16269.97, 0.00, 0.000, 0.000, 0.000, 15:09:55.673, 1551730195673
44, -21086.72, 0.00, 0.00, 0.00, 0.00, 0.00, -16237.56, 0.00, 0.000, 0.000, 0.000, 15:09:55.674, 1551730195674
45, -20982.16, 0.00, 0.00, 0.00, 0.00, 0.00, -16177.70, 0.00, 0.000, 0.000, 0.000, 15:09:55.681, 1551730195681
46, -21169.13, 0.00, 0.00, 0.00, 0.00, 0.00, -16208.99, 0.00, 0.000, 0.000, 0.000, 15:09:55.688, 1551730195688
47, -21227.61, 0.00, 0.00, 0.00, 0.00, 0.00, -16263.02, 0.00, 0.000, 0.000, 0.000, 15:09:55.689, 1551730195689
48, -21108.94, 0.00, 0.00, 0.00, 0.00, 0.00, -16238.70, 0.00, 0.000, 0.000, 0.000, 15:09:55.695, 1551730195695
49, -20975.81, 0.00, 0.00, 0.00, 0.00, 0.00, -16179.18, 0.00, 0.000, 0.000, 0.000, 15:09:55.696, 1551730195696
50, -21099.42, 0.00, 0.00, 0.00, 0.00, 0.00, -16183.13, 0.00, -0.712, 0.592, -0.348, 15:09:55.703, 1551730195703
51, -21250.41, 0.00, 0.00, 0.00, 0.00, 0.00, -16256.11, 0.00, 0.000, 0.000, 0.000, 15:09:55.703, 1551730195703
52, -21128.01, 0.00, 0.00, 0.00, 0.00, 0.00, -16246.68, 0.00, 0.000, 0.000, 0.000, 15:09:55.711, 1551730195711
53, -21002.62, 0.00, 0.00, 0.00, 0.00, 0.00, -16195.96, 0.00, 0.000, 0.000, 0.000, 15:09:55.712, 1551730195712
54, -21054.94, 0.00, 0.00, 0.00, 0.00, 0.00, -16173.14, 0.00, 0.000, 0.000, 0.000, 15:09:55.718, 1551730195718
55, -21246.45, 0.00, 0.00, 0.00, 0.00, 0.00, -16242.52, 0.00, 0.000, 0.000, 0.000, 15:09:55.719, 1551730195719
56, -21159.50, 0.00, 0.00, 0.00, 0.00, 0.00, -16254.03, 0.00, 0.000, 0.000, 0.000, 15:09:55.727, 1551730195727
57, -21021.79, 0.00, 0.00, 0.00, 0.00, 0.00, -16199.25, 0.00, 0.000, 0.000, 0.000, 15:09:55.728, 1551730195728
58, -20999.33, 0.00, 0.00, 0.00, 0.00, 0.00, -16154.43, 0.00, 0.000, 0.000, 0.000, 15:09:55.733, 1551730195733
59, -21224.66, 0.00, 0.00, 0.00, 0.00, 0.00, -16228.46, 0.00, 0.000, 0.000, 0.000, 15:09:55.734, 1551730195734
60, -21170.50, 0.00, 0.00, 0.00, 0.00, 0.00, -16254.23, 0.00, -0.712, 0.594, -0.350, 15:09:55.740, 1551730195740
61, -21045.73, 0.00, 0.00, 0.00, 0.00, 0.00, -16214.49, 0.00, 0.000, 0.000, 0.000, 15:09:55.740, 1551730195740
62, -20980.06, 0.00, 0.00, 0.00, 0.00, 0.00, -16159.77, 0.00, 0.000, 0.000, 0.000, 15:09:55.748, 1551730195748
63, -21197.99, 0.00, 0.00, 0.00, 0.00, 0.00, -16215.88, 0.00, 0.000, 0.000, 0.000, 15:09:55.756, 1551730195756
64, -21197.03, 0.00, 0.00, 0.00, 0.00, 0.00, -16261.07, 0.00, 0.000, 0.000, 0.000, 15:09:55.756, 1551730195756
65, -21069.78, 0.00, 0.00, 0.00, 0.00, 0.00, -16228.17, 0.00, 0.000, 0.000, 0.000, 15:09:55.763, 1551730195763
66, -20974.70, 0.00, 0.00, 0.00, 0.00, 0.00, -16170.41, 0.00, 0.000, 0.000, 0.000, 15:09:55.763, 1551730195763
67, -21172.18, 0.00, 0.00, 0.00, 0.00, 0.00, -16206.42, 0.00, 0.000, 0.000, 0.000, 15:09:55.770, 1551730195770
68, -21230.42, 0.00, 0.00, 0.00, 0.00, 0.00, -16266.86, 0.00, 0.000, 0.000, 0.000, 15:09:55.770, 1551730195770
69, -21107.36, 0.00, 0.00, 0.00, 0.00, 0.00, -16242.21, 0.00, 0.000, 0.000, 0.000, 15:09:55.778, 1551730195778
70, -20975.35, 0.00, 0.00, 0.00, 0.00, 0.00, -16180.25, 0.00, -0.714, 0.596, -0.346, 15:09:55.778, 1551730195778
71, -21123.65, 0.00, 0.00, 0.00, 0.00, 0.00, -16189.17, 0.00, 0.000, 0.000, 0.000, 15:09:55.787, 1551730195787
72, -21254.41, 0.00, 0.00, 0.00, 0.00, 0.00, -16257.72, 0.00, 0.000, 0.000, 0.000, 15:09:55.788, 1551730195788
73, -21130.02, 0.00, 0.00, 0.00, 0.00, 0.00, -16242.05, 0.00, 0.000, 0.000, 0.000, 15:09:55.794, 1551730195794
74, -20987.71, 0.00, 0.00, 0.00, 0.00, 0.00, -16183.69, 0.00, 0.000, 0.000, 0.000, 15:09:55.794, 1551730195794
75, -21083.19, 0.00, 0.00, 0.00, 0.00, 0.00, -16174.75, 0.00, 0.000, 0.000, 0.000, 15:09:55.800, 1551730195800
76, -21255.48, 0.00, 0.00, 0.00, 0.00, 0.00, -16252.76, 0.00, 0.000, 0.000, 0.000, 15:09:55.801, 1551730195801
77, -21160.53, 0.00, 0.00, 0.00, 0.00, 0.00, -16254.84, 0.00, 0.000, 0.000, 0.000, 15:09:55.808, 1551730195808
78, -21016.34, 0.00, 0.00, 0.00, 0.00, 0.00, -16197.93, 0.00, 0.000, 0.000, 0.000, 15:09:55.816, 1551730195816
79, -21034.53, 0.00, 0.00, 0.00, 0.00, 0.00, -16162.63, 0.00, 0.000, 0.000, 0.000, 15:09:55.816, 1551730195816
80, -21243.59, 0.00, 0.00, 0.00, 0.00, 0.00, -16235.01, 0.00, -0.712, 0.592, -0.348, 15:09:55.829, 1551730195829
81, -21166.59, 0.00, 0.00, 0.00, 0.00, 0.00, -16251.44, 0.00, 0.000, 0.000, 0.000, 15:09:55.829, 1551730195829
82, -21043.52, 0.00, 0.00, 0.00, 0.00, 0.00, -16211.97, 0.00, 0.000, 0.000, 0.000, 15:09:55.830, 1551730195830
83, -21003.69, 0.00, 0.00, 0.00, 0.00, 0.00, -16160.78, 0.00, 0.000, 0.000, 0.000, 15:09:55.830, 1551730195830
84, -21226.80, 0.00, 0.00, 0.00, 0.00, 0.00, -16227.32, 0.00, 0.000, 0.000, 0.000, 15:09:55.838, 1551730195838
85, -21200.03, 0.00, 0.00, 0.00, 0.00, 0.00, -16262.15, 0.00, 0.000, 0.000, 0.000, 15:09:55.838, 1551730195838
86, -21075.06, 0.00, 0.00, 0.00, 0.00, 0.00, -16224.19, 0.00, 0.000, 0.000, 0.000, 15:09:55.845, 1551730195845
87, -20998.86, 0.00, 0.00, 0.00, 0.00, 0.00, -16167.20, 0.00, 0.000, 0.000, 0.000, 15:09:55.846, 1551730195846
88, -21227.29, 0.00, 0.00, 0.00, 0.00, 0.00, -16226.49, 0.00, 0.000, 0.000, 0.000, 15:09:55.853, 1551730195853
89, -21249.51, 0.00, 0.00, 0.00, 0.00, 0.00, -16278.04, 0.00, -0.712, 0.598, -0.350, 15:09:55.853, 1551730195853
90, -21091.33, 0.00, 0.00, 0.00, 0.00, 0.00, -16225.40, 0.00, 0.000, 0.000, 0.000, 15:09:55.861, 1551730195861
91, -20987.15, 0.00, 0.00, 0.00, 0.00, 0.00, -16170.68, 0.00, 0.000, 0.000, 0.000, 15:09:55.861, 1551730195861
92, -21164.08, 0.00, 0.00, 0.00, 0.00, 0.00, -16195.31, 0.00, 0.000, 0.000, 0.000, 15:09:55.868, 1551730195868
93, -21247.12, 0.00, 0.00, 0.00, 0.00, 0.00, -16265.10, 0.00, 0.000, 0.000, 0.000, 15:09:55.875, 1551730195875
94, -21122.55, 0.00, 0.00, 0.00, 0.00, 0.00, -16244.06, 0.00, 0.000, 0.000, 0.000, 15:09:55.875, 1551730195875
95, -20996.98, 0.00, 0.00, 0.00, 0.00, 0.00, -16185.28, 0.00, 0.000, 0.000, 0.000, 15:09:55.882, 1551730195882
96, -21127.79, 0.00, 0.00, 0.00, 0.00, 0.00, -16190.06, 0.00, 0.000, 0.000, 0.000, 15:09:55.883, 1551730195883
97, -21269.38, 0.00, 0.00, 0.00, 0.00, 0.00, -16264.00, 0.00, 0.000, 0.000, 0.000, 15:09:55.890, 1551730195890
98, -21148.66, 0.00, 0.00, 0.00, 0.00, 0.00, -16250.30, 0.00, 0.000, 0.000, 0.000, 15:09:55.891, 1551730195891
99, -21004.31, 0.00, 0.00, 0.00, 0.00, 0.00, -16190.62, 0.00, -0.716, 0.598, -0.350, 15:09:55.899, 1551730195899
100, -21076.24, 0.00, 0.00, 0.00, 0.00, 0.00, -16176.72, 0.00, 0.000, 0.000, 0.000, 15:09:55.900, 1551730195900
101, -21261.69, 0.00, 0.00, 0.00, 0.00, 0.00, -16253.85, 0.00, 0.000, 0.000, 0.000, 15:09:55.905, 1551730195905
102, -21163.93, 0.00, 0.00, 0.00, 0.00, 0.00, -16257.56, 0.00, 0.000, 0.000, 0.000, 15:09:55.906, 1551730195906
103, -21030.58, 0.00, 0.00, 0.00, 0.00, 0.00, -16208.97, 0.00, 0.000, 0.000, 0.000, 15:09:55.914, 1551730195914
104, -21043.16, 0.00, 0.00, 0.00, 0.00, 0.00, -16176.34, 0.00, 0.000, 0.000, 0.000, 15:09:55.914, 1551730195914
105, -21261.47, 0.00, 0.00, 0.00, 0.00, 0.00, -16249.52, 0.00, 0.000, 0.000, 0.000, 15:09:55.921, 1551730195921
106, -21189.83, 0.00, 0.00, 0.00, 0.00, 0.00, -16260.45, 0.00, 0.000, 0.000, 0.000, 15:09:55.922, 1551730195922
107, -21058.99, 0.00, 0.00, 0.00, 0.00, 0.00, -16218.78, 0.00, 0.000, 0.000, 0.000, 15:09:55.929, 1551730195929
108, -21018.98, 0.00, 0.00, 0.00, 0.00, 0.00, -16172.47, 0.00, 0.000, 0.000, 0.000, 15:09:55.935, 1551730195935
109, -21260.71, 0.00, 0.00, 0.00, 0.00, 0.00, -16237.18, 0.00, -0.706, 0.596, -0.348, 15:09:55.935, 1551730195935
110, -21198.73, 0.00, 0.00, 0.00, 0.00, 0.00, -16269.59, 0.00, 0.000, 0.000, 0.000, 15:09:55.943, 1551730195943
111, -21079.62, 0.00, 0.00, 0.00, 0.00, 0.00, -16223.50, 0.00, 0.000, 0.000, 0.000, 15:09:55.943, 1551730195943
112, -20991.71, 0.00, 0.00, 0.00, 0.00, 0.00, -16165.14, 0.00, 0.000, 0.000, 0.000, 15:09:55.951, 1551730195951
113, -21185.25, 0.00, 0.00, 0.00, 0.00, 0.00, -16207.61, 0.00, 0.000, 0.000, 0.000, 15:09:55.952, 1551730195952
114, -21219.31, 0.00, 0.00, 0.00, 0.00, 0.00, -16260.18, 0.00, 0.000, 0.000, 0.000, 15:09:55.958, 1551730195958
115, -21109.63, 0.00, 0.00, 0.00, 0.00, 0.00, -16243.62, 0.00, 0.000, 0.000, 0.000, 15:09:55.958, 1551730195958
116, -20984.69, 0.00, 0.00, 0.00, 0.00, 0.00, -16175.38, 0.00, 0.000, 0.000, 0.000, 15:09:55.966, 1551730195966
117, -21148.75, 0.00, 0.00, 0.00, 0.00, 0.00, -16197.06, 0.00, 0.000, 0.000, 0.000, 15:09:55.966, 1551730195966
118, -21251.08, 0.00, 0.00, 0.00, 0.00, 0.00, -16265.05, 0.00, 0.000, 0.000, 0.000, 15:09:55.973, 1551730195973
119, -21128.68, 0.00, 0.00, 0.00, 0.00, 0.00, -16247.82, 0.00, -0.708, 0.596, -0.348, 15:09:55.973, 1551730195973
120, -20998.75, 0.00, 0.00, 0.00, 0.00, 0.00, -16190.62, 0.00, 0.000, 0.000, 0.000, 15:09:55.980, 1551730195980
121, -21102.46, 0.00, 0.00, 0.00, 0.00, 0.00, -16184.38, 0.00, 0.000, 0.000, 0.000, 15:09:55.981, 1551730195981
122, -21260.44, 0.00, 0.00, 0.00, 0.00, 0.00, -16256.51, 0.00, 0.000, 0.000, 0.000, 15:09:55.987, 1551730195987
123, -21148.88, 0.00, 0.00, 0.00, 0.00, 0.00, -16250.10, 0.00, 0.000, 0.000, 0.000, 15:09:55.987, 1551730195987
124, -21019.45, 0.00, 0.00, 0.00, 0.00, 0.00, -16198.78, 0.00, 0.000, 0.000, 0.000, 15:09:55.999, 1551730195999
125, -21057.71, 0.00, 0.00, 0.00, 0.00, 0.00, -16170.44, 0.00, 0.000, 0.000, 0.000, 15:09:56.003, 1551730196003
126, -21258.56, 0.00, 0.00, 0.00, 0.00, 0.00, -16244.24, 0.00, 0.000, 0.000, 0.000, 15:09:56.003, 1551730196003
127, -21172.04, 0.00, 0.00, 0.00, 0.00, 0.00, -16254.70, 0.00, 0.000, 0.000, 0.000, 15:09:56.010, 1551730196010
128, -21038.58, 0.00, 0.00, 0.00, 0.00, 0.00, -16205.42, 0.00, 0.000, 0.000, 0.000, 15:09:56.010, 1551730196010
129, -21016.81, 0.00, 0.00, 0.00, 0.00, 0.00, -16158.34, 0.00, -0.708, 0.598, -0.350, 15:09:56.018, 1551730196018
130, -21242.36, 0.00, 0.00, 0.00, 0.00, 0.00, -16230.52, 0.00, 0.000, 0.000, 0.000, 15:09:56.018, 1551730196018
131, -21211.74, 0.00, 0.00, 0.00, 0.00, 0.00, -16264.34, 0.00, 0.000, 0.000, 0.000, 15:09:56.026, 1551730196026
132, -21069.51, 0.00, 0.00, 0.00, 0.00, 0.00, -16222.58, 0.00, 0.000, 0.000, 0.000, 15:09:56.026, 1551730196026
133, -20991.55, 0.00, 0.00, 0.00, 0.00, 0.00, -16166.46, 0.00, 0.000, 0.000, 0.000, 15:09:56.034, 1551730196034
134, -21216.59, 0.00, 0.00, 0.00, 0.00, 0.00, -16218.63, 0.00, 0.000, 0.000, 0.000, 15:09:56.034, 1551730196034
135, -21225.80, 0.00, 0.00, 0.00, 0.00, 0.00, -16264.72, 0.00, 0.000, 0.000, 0.000, 15:09:56.044, 1551730196044
136, -21099.80, 0.00, 0.00, 0.00, 0.00, 0.00, -16236.96, 0.00, 0.000, 0.000, 0.000, 15:09:56.044, 1551730196044
137, -20993.27, 0.00, 0.00, 0.00, 0.00, 0.00, -16175.78, 0.00, 0.000, 0.000, 0.000, 15:09:56.048, 1551730196048
138, -21190.73, 0.00, 0.00, 0.00, 0.00, 0.00, -16214.98, 0.00, 0.000, 0.000, 0.000, 15:09:56.049, 1551730196049
139, -21248.55, 0.00, 0.00, 0.00, 0.00, 0.00, -16274.13, 0.00, -0.706, 0.596, -0.346, 15:09:56.055, 1551730196055
140, -21125.73, 0.00, 0.00, 0.00, 0.00, 0.00, -16255.82, 0.00, 0.000, 0.000, 0.000, 15:09:56.063, 1551730196063
141, -20995.71, 0.00, 0.00, 0.00, 0.00, 0.00, -16195.40, 0.00, 0.000, 0.000, 0.000, 15:09:56.063, 1551730196063
142, -21142.38, 0.00, 0.00, 0.00, 0.00, 0.00, -16206.11, 0.00, 0.000, 0.000, 0.000, 15:09:56.071, 1551730196071
143, -21271.98, 0.00, 0.00, 0.00, 0.00, 0.00, -16274.42, 0.00, 0.000, 0.000, 0.000, 15:09:56.071, 1551730196071
144, -21142.87, 0.00, 0.00, 0.00, 0.00, 0.00, -16254.12, 0.00, 0.000, 0.000, 0.000, 15:09:56.079, 1551730196079
145, -20994.43, 0.00, 0.00, 0.00, 0.00, 0.00, -16179.38, 0.00, 0.000, 0.000, 0.000, 15:09:56.079, 1551730196079
146, -21079.59, 0.00, 0.00, 0.00, 0.00, 0.00, -16168.89, 0.00, 0.000, 0.000, 0.000, 15:09:56.086, 1551730196086
147, -21250.56, 0.00, 0.00, 0.00, 0.00, 0.00, -16243.41, 0.00, 0.000, 0.000, 0.000, 15:09:56.086, 1551730196086
148, -21150.54, 0.00, 0.00, 0.00, 0.00, 0.00, -16242.74, 0.00, 0.000, 0.000, 0.000, 15:09:56.093, 1551730196093
149, -21024.45, 0.00, 0.00, 0.00, 0.00, 0.00, -16199.34, 0.00, -0.710, 0.596, -0.346, 15:09:56.094, 1551730196094
150, -21041.62, 0.00, 0.00, 0.00, 0.00, 0.00, -16164.02, 0.00, 0.000, 0.000, 0.000, 15:09:56.101, 1551730196101
151, -21255.08, 0.00, 0.00, 0.00, 0.00, 0.00, -16241.96, 0.00, 0.000, 0.000, 0.000, 15:09:56.102, 1551730196102
152, -21186.23, 0.00, 0.00, 0.00, 0.00, 0.00, -16264.58, 0.00, 0.000, 0.000, 0.000, 15:09:56.108, 1551730196108
153, -21054.16, 0.00, 0.00, 0.00, 0.00, 0.00, -16218.87, 0.00, 0.000, 0.000, 0.000, 15:09:56.109, 1551730196109
154, -21013.57, 0.00, 0.00, 0.00, 0.00, 0.00, -16166.39, 0.00, 0.000, 0.000, 0.000, 15:09:56.117, 1551730196117
155, -21233.89, 0.00, 0.00, 0.00, 0.00, 0.00, -16230.56, 0.00, 0.000, 0.000, 0.000, 15:09:56.124, 1551730196124
156, -21205.28, 0.00, 0.00, 0.00, 0.00, 0.00, -16268.69, 0.00, 0.000, 0.000, 0.000, 15:09:56.125, 1551730196125
157, -21080.13, 0.00, 0.00, 0.00, 0.00, 0.00, -16234.12, 0.00, 0.000, 0.000, 0.000, 15:09:56.131, 1551730196131
158, -20994.97, 0.00, 0.00, 0.00, 0.00, 0.00, -16174.30, 0.00, -0.710, 0.590, -0.346, 15:09:56.131, 1551730196131
159, -21212.63, 0.00, 0.00, 0.00, 0.00, 0.00, -16221.71, 0.00, 0.000, 0.000, 0.000, 15:09:56.139, 1551730196139
160, -21236.26, 0.00, 0.00, 0.00, 0.00, 0.00, -16273.23, 0.00, 0.000, 0.000, 0.000, 15:09:56.139, 1551730196139
161, -21102.46, 0.00, 0.00, 0.00, 0.00, 0.00, -16232.55, 0.00, 0.000, 0.000, 0.000, 15:09:56.145, 1551730196145
162, -20989.99, 0.00, 0.00, 0.00, 0.00, 0.00, -16172.63, 0.00, 0.000, 0.000, 0.000, 15:09:56.146, 1551730196146
163, -21162.01, 0.00, 0.00, 0.00, 0.00, 0.00, -16205.93, 0.00, 0.000, 0.000, 0.000, 15:09:56.153, 1551730196153
164, -21244.93, 0.00, 0.00, 0.00, 0.00, 0.00, -16270.71, 0.00, 0.000, 0.000, 0.000, 15:09:56.153, 1551730196153
165, -21130.31, 0.00, 0.00, 0.00, 0.00, 0.00, -16252.42, 0.00, 0.000, 0.000, 0.000, 15:09:56.161, 1551730196161
166, -21004.07, 0.00, 0.00, 0.00, 0.00, 0.00, -16193.26, 0.00, 0.000, 0.000, 0.000, 15:09:56.161, 1551730196161
167, -21123.56, 0.00, 0.00, 0.00, 0.00, 0.00, -16193.48, 0.00, 0.000, 0.000, 0.000, 15:09:56.175, 1551730196175
168, -21260.20, 0.00, 0.00, 0.00, 0.00, 0.00, -16264.72, 0.00, -0.712, 0.588, -0.350, 15:09:56.176, 1551730196176
169, -21151.86, 0.00, 0.00, 0.00, 0.00, 0.00, -16255.24, 0.00, 0.000, 0.000, 0.000, 15:09:56.176, 1551730196176
170, -21020.45, 0.00, 0.00, 0.00, 0.00, 0.00, -16199.14, 0.00, 0.000, 0.000, 0.000, 15:09:56.182, 1551730196182
171, -21075.82, 0.00, 0.00, 0.00, 0.00, 0.00, -16178.17, 0.00, 0.000, 0.000, 0.000, 15:09:56.183, 1551730196183
172, -21269.23, 0.00, 0.00, 0.00, 0.00, 0.00, -16255.51, 0.00, 0.000, 0.000, 0.000, 15:09:56.190, 1551730196190
173, -21184.63, 0.00, 0.00, 0.00, 0.00, 0.00, -16260.51, 0.00, 0.000, 0.000, 0.000, 15:09:56.191, 1551730196191
174, -21038.73, 0.00, 0.00, 0.00, 0.00, 0.00, -16209.06, 0.00, 0.000, 0.000, 0.000, 15:09:56.199, 1551730196199
175, -21031.34, 0.00, 0.00, 0.00, 0.00, 0.00, -16168.54, 0.00, 0.000, 0.000, 0.000, 15:09:56.200, 1551730196200
176, -21255.26, 0.00, 0.00, 0.00, 0.00, 0.00, -16244.53, 0.00, 0.000, 0.000, 0.000, 15:09:56.206, 1551730196206
177, -21201.25, 0.00, 0.00, 0.00, 0.00, 0.00, -16268.05, 0.00, 0.000, 0.000, 0.000, 15:09:56.206, 1551730196206
178, -21071.86, 0.00, 0.00, 0.00, 0.00, 0.00, -16223.88, 0.00, -0.712, 0.592, -0.346, 15:09:56.213, 1551730196213
179, -21011.18, 0.00, 0.00, 0.00, 0.00, 0.00, -16167.37, 0.00, 0.000, 0.000, 0.000, 15:09:56.213, 1551730196213
180, -21235.12, 0.00, 0.00, 0.00, 0.00, 0.00, -16230.94, 0.00, 0.000, 0.000, 0.000, 15:09:56.221, 1551730196221
181, -21226.33, 0.00, 0.00, 0.00, 0.00, 0.00, -16272.11, 0.00, 0.000, 0.000, 0.000, 15:09:56.221, 1551730196221
182, -21094.37, 0.00, 0.00, 0.00, 0.00, 0.00, -16238.81, 0.00, 0.000, 0.000, 0.000, 15:09:56.228, 1551730196228
183, -20999.49, 0.00, 0.00, 0.00, 0.00, 0.00, -16187.74, 0.00, 0.000, 0.000, 0.000, 15:09:56.229, 1551730196229
184, -21209.48, 0.00, 0.00, 0.00, 0.00, 0.00, -16230.63, 0.00, 0.000, 0.000, 0.000, 15:09:56.237, 1551730196237
185, -21256.31, 0.00, 0.00, 0.00, 0.00, 0.00, -16285.91, 0.00, 0.000, 0.000, 0.000, 15:09:56.238, 1551730196238
186, -21127.65, 0.00, 0.00, 0.00, 0.00, 0.00, -16259.93, 0.00, 0.000, 0.000, 0.000, 15:09:56.243, 1551730196243
187, -21016.76, 0.00, 0.00, 0.00, 0.00, 0.00, -16205.33, 0.00, 0.000, 0.000, 0.000, 15:09:56.251, 1551730196251
188, -21160.28, 0.00, 0.00, 0.00, 0.00, 0.00, -16215.99, 0.00, -0.712, 0.590, -0.344, 15:09:56.251, 1551730196251
189, -21268.96, 0.00, 0.00, 0.00, 0.00, 0.00, -16284.18, 0.00, 0.000, 0.000, 0.000, 15:09:56.257, 1551730196257
190, -21151.28, 0.00, 0.00, 0.00, 0.00, 0.00, -16267.35, 0.00, 0.000, 0.000, 0.000, 15:09:56.258, 1551730196258
191, -21019.15, 0.00, 0.00, 0.00, 0.00, 0.00, -16210.80, 0.00, 0.000, 0.000, 0.000, 15:09:56.273, 1551730196273
192, -21124.95, 0.00, 0.00, 0.00, 0.00, 0.00, -16208.34, 0.00, 0.000, 0.000, 0.000, 15:09:56.274, 1551730196274
193, -21288.38, 0.00, 0.00, 0.00, 0.00, 0.00, -16284.05, 0.00, 0.000, 0.000, 0.000, 15:09:56.275, 1551730196275
194, -21181.32, 0.00, 0.00, 0.00, 0.00, 0.00, -16285.39, 0.00, 0.000, 0.000, 0.000, 15:09:56.276, 1551730196276
195, -21048.06, 0.00, 0.00, 0.00, 0.00, 0.00, -16229.82, 0.00, 0.000, 0.000, 0.000, 15:09:56.280, 1551730196280
196, -21083.17, 0.00, 0.00, 0.00, 0.00, 0.00, -16196.95, 0.00, 0.000, 0.000, 0.000, 15:09:56.281, 1551730196281
197, -21290.62, 0.00, 0.00, 0.00, 0.00, 0.00, -16276.09, 0.00, 0.000, 0.000, 0.000, 15:09:56.288, 1551730196288
198, -21204.50, 0.00, 0.00, 0.00, 0.00, 0.00, -16279.71, 0.00, -0.710, 0.592, -0.342, 15:09:56.288, 1551730196288
199, -21068.98, 0.00, 0.00, 0.00, 0.00, 0.00, -16227.32, 0.00, 0.000, 0.000, 0.000, 15:09:56.297, 1551730196297
200, -21044.48, 0.00, 0.00, 0.00, 0.00, 0.00, -16181.77, 0.00, 0.000, 0.000, 0.000, 15:09:56.298, 1551730196298
201, -21268.51, 0.00, 0.00, 0.00, 0.00, 0.00, -16248.64, 0.00, 0.000, 0.000, 0.000, 15:09:56.303, 1551730196303
202, -21226.20, 0.00, 0.00, 0.00, 0.00, 0.00, -16276.92, 0.00, 0.000, 0.000, 0.000, 15:09:56.310, 1551730196310
203, -21100.85, 0.00, 0.00, 0.00, 0.00, 0.00, -16243.39, 0.00, 0.000, 0.000, 0.000, 15:09:56.310, 1551730196310
204, -21022.91, 0.00, 0.00, 0.00, 0.00, 0.00, -16184.70, 0.00, 0.000, 0.000, 0.000, 15:09:56.317, 1551730196317
205, -21238.49, 0.00, 0.00, 0.00, 0.00, 0.00, -16233.22, 0.00, 0.000, 0.000, 0.000, 15:09:56.318, 1551730196318
206, -21248.30, 0.00, 0.00, 0.00, 0.00, 0.00, -16278.26, 0.00, 0.000, 0.000, 0.000, 15:09:56.326, 1551730196326
207, -21116.61, 0.00, 0.00, 0.00, 0.00, 0.00, -16243.97, 0.00, 0.000, 0.000, 0.000, 15:09:56.326, 1551730196326
208, -21012.52, 0.00, 0.00, 0.00, 0.00, 0.00, -16187.33, 0.00, -0.708, 0.590, -0.346, 15:09:56.341, 1551730196341
209, -21201.19, 0.00, 0.00, 0.00, 0.00, 0.00, -16221.49, 0.00, 0.000, 0.000, 0.000, 15:09:56.341, 1551730196341
210, -21266.79, 0.00, 0.00, 0.00, 0.00, 0.00, -16281.66, 0.00, 0.000, 0.000, 0.000, 15:09:56.341, 1551730196341
211, -21145.44, 0.00, 0.00, 0.00, 0.00, 0.00, -16262.21, 0.00, 0.000, 0.000, 0.000, 15:09:56.341, 1551730196341
212, -21021.23, 0.00, 0.00, 0.00, 0.00, 0.00, -16197.30, 0.00, 0.000, 0.000, 0.000, 15:09:56.348, 1551730196348
213, -21166.05, 0.00, 0.00, 0.00, 0.00, 0.00, -16207.70, 0.00, 0.000, 0.000, 0.000, 15:09:56.348, 1551730196348
214, -21286.77, 0.00, 0.00, 0.00, 0.00, 0.00, -16277.34, 0.00, 0.000, 0.000, 0.000, 15:09:56.356, 1551730196356
215, -21172.71, 0.00, 0.00, 0.00, 0.00, 0.00, -16264.72, 0.00, 0.000, 0.000, 0.000, 15:09:56.357, 1551730196357
216, -21036.52, 0.00, 0.00, 0.00, 0.00, 0.00, -16207.96, 0.00, 0.000, 0.000, 0.000, 15:09:56.363, 1551730196363
217, -21110.30, 0.00, 0.00, 0.00, 0.00, 0.00, -16192.54, 0.00, -0.712, 0.590, -0.346, 15:09:56.373, 1551730196373
218, -21287.24, 0.00, 0.00, 0.00, 0.00, 0.00, -16267.69, 0.00, 0.000, 0.000, 0.000, 15:09:56.374, 1551730196374
219, -21187.44, 0.00, 0.00, 0.00, 0.00, 0.00, -16261.74, 0.00, 0.000, 0.000, 0.000, 15:09:56.378, 1551730196378
220, -21053.71, 0.00, 0.00, 0.00, 0.00, 0.00, -16207.61, 0.00, 0.000, 0.000, 0.000, 15:09:56.378, 1551730196378
221, -21065.63, 0.00, 0.00, 0.00, 0.00, 0.00, -16174.79, 0.00, 0.000, 0.000, 0.000, 15:09:56.386, 1551730196386
222, -21279.51, 0.00, 0.00, 0.00, 0.00, 0.00, -16249.25, 0.00, 0.000, 0.000, 0.000, 15:09:56.386, 1551730196386
223, -21209.37, 0.00, 0.00, 0.00, 0.00, 0.00, -16262.37, 0.00, 0.000, 0.000, 0.000, 15:09:56.392, 1551730196392
224, -21080.62, 0.00, 0.00, 0.00, 0.00, 0.00, -16223.43, 0.00, 0.000, 0.000, 0.000, 15:09:56.393, 1551730196393
225, -21035.54, 0.00, 0.00, 0.00, 0.00, 0.00, -16173.92, 0.00, 0.000, 0.000, 0.000, 15:09:56.401, 1551730196401
226, -21261.56, 0.00, 0.00, 0.00, 0.00, 0.00, -16237.69, 0.00, 0.000, 0.000, 0.000, 15:09:56.402, 1551730196402
227, -21228.97, 0.00, 0.00, 0.00, 0.00, 0.00, -16272.40, 0.00, -0.714, 0.592, -0.344, 15:09:56.408, 1551730196408
228, -21103.51, 0.00, 0.00, 0.00, 0.00, 0.00, -16236.87, 0.00, 0.000, 0.000, 0.000, 15:09:56.409, 1551730196409
229, -21008.67, 0.00, 0.00, 0.00, 0.00, 0.00, -16174.97, 0.00, 0.000, 0.000, 0.000, 15:09:56.416, 1551730196416
230, -21219.11, 0.00, 0.00, 0.00, 0.00, 0.00, -16224.50, 0.00, 0.000, 0.000, 0.000, 15:09:56.417, 1551730196417
231, -21257.38, 0.00, 0.00, 0.00, 0.00, 0.00, -16282.96, 0.00, 0.000, 0.000, 0.000, 15:09:56.422, 1551730196422
232, -21135.83, 0.00, 0.00, 0.00, 0.00, 0.00, -16250.39, 0.00, 0.000, 0.000, 0.000, 15:09:56.430, 1551730196430
233, -21017.99, 0.00, 0.00, 0.00, 0.00, 0.00, -16185.86, 0.00, 0.000, 0.000, 0.000, 15:09:56.431, 1551730196431
234, -21180.31, 0.00, 0.00, 0.00, 0.00, 0.00, -16208.30, 0.00, 0.000, 0.000, 0.000, 15:09:56.438, 1551730196438
235, -21269.00, 0.00, 0.00, 0.00, 0.00, 0.00, -16270.64, 0.00, 0.000, 0.000, 0.000, 15:09:56.438, 1551730196438
236, -21156.91, 0.00, 0.00, 0.00, 0.00, 0.00, -16257.23, 0.00, 0.000, 0.000, 0.000, 15:09:56.445, 1551730196445
237, -21028.48, 0.00, 0.00, 0.00, 0.00, 0.00, -16198.15, 0.00, -0.712, 0.594, -0.346, 15:09:56.446, 1551730196446
238, -21142.78, 0.00, 0.00, 0.00, 0.00, 0.00, -16195.22, 0.00, 0.000, 0.000, 0.000, 15:09:56.454, 1551730196454
239, -21293.30, 0.00, 0.00, 0.00, 0.00, 0.00, -16267.76, 0.00, 0.000, 0.000, 0.000, 15:09:56.454, 1551730196454
240, -21183.69, 0.00, 0.00, 0.00, 0.00, 0.00, -16266.19, 0.00, 0.000, 0.000, 0.000, 15:09:56.461, 1551730196461
241, -21060.24, 0.00, 0.00, 0.00, 0.00, 0.00, -16217.33, 0.00, 0.000, 0.000, 0.000, 15:09:56.462, 1551730196462
242, -21115.60, 0.00, 0.00, 0.00, 0.00, 0.00, -16195.16, 0.00, 0.000, 0.000, 0.000, 15:09:56.468, 1551730196468
243, -21300.18, 0.00, 0.00, 0.00, 0.00, 0.00, -16264.87, 0.00, 0.000, 0.000, 0.000, 15:09:56.468, 1551730196468
244, -21216.70, 0.00, 0.00, 0.00, 0.00, 0.00, -16283.60, 0.00, 0.000, 0.000, 0.000, 15:09:56.475, 1551730196475
245, -21091.08, 0.00, 0.00, 0.00, 0.00, 0.00, -16241.76, 0.00, 0.000, 0.000, 0.000, 15:09:56.476, 1551730196476
246, -21081.85, 0.00, 0.00, 0.00, 0.00, 0.00, -16200.34, 0.00, 0.000, 0.000, 0.000, 15:09:56.483, 1551730196483
247, -21306.26, 0.00, 0.00, 0.00, 0.00, 0.00, -16279.09, 0.00, -0.710, 0.596, -0.348, 15:09:56.483, 1551730196483
248, -21248.44, 0.00, 0.00, 0.00, 0.00, 0.00, -16297.53, 0.00, 0.000, 0.000, 0.000, 15:09:56.492, 1551730196492
249, -21127.07, 0.00, 0.00, 0.00, 0.00, 0.00, -16258.66, 0.00, 0.000, 0.000, 0.000, 15:09:56.498, 1551730196498
250, -21073.80, 0.00, 0.00, 0.00, 0.00, 0.00, -16213.04, 0.00, 0.000, 0.000, 0.000, 15:09:56.498, 1551730196498
251, -21290.24, 0.00, 0.00, 0.00, 0.00, 0.00, -16264.31, 0.00, 0.000, 0.000, 0.000, 15:09:56.505, 1551730196505
252, -21287.55, 0.00, 0.00, 0.00, 0.00, 0.00, -16311.21, 0.00, 0.000, 0.000, 0.000, 15:09:56.505, 1551730196505
253, -21157.47, 0.00, 0.00, 0.00, 0.00, 0.00, -16275.13, 0.00, 0.000, 0.000, 0.000, 15:09:56.515, 1551730196515
254, -21057.22, 0.00, 0.00, 0.00, 0.00, 0.00, -16214.45, 0.00, 0.000, 0.000, 0.000, 15:09:56.515, 1551730196515
255, -21255.66, 0.00, 0.00, 0.00, 0.00, 0.00, -16255.44, 0.00, 0.000, 0.000, 0.000, 15:09:56.521, 1551730196521
0, -21319.25, 0.00, 0.00, 0.00, 0.00, 0.00, -16317.35, 0.00, 0.000, 0.000, 0.000, 15:09:56.522, 1551730196522
1, -21183.46, 0.00, 0.00, 0.00, 0.00, 0.00, -16289.93, 0.00, -0.708, 0.596, -0.346, 15:09:56.528, 1551730196528
2, -21055.92, 0.00, 0.00, 0.00, 0.00, 0.00, -16227.95, 0.00, 0.000, 0.000, 0.000, 15:09:56.529, 1551730196529
3, -21216.25, 0.00, 0.00, 0.00, 0.00, 0.00, -16245.60, 0.00, 0.000, 0.000, 0.000, 15:09:56.536, 1551730196536
4, -21316.86, 0.00, 0.00, 0.00, 0.00, 0.00, -16305.98, 0.00, 0.000, 0.000, 0.000, 15:09:56.537, 1551730196537
5, -21193.68, 0.00, 0.00, 0.00, 0.00, 0.00, -16284.45, 0.00, 0.000, 0.000, 0.000, 15:09:56.544, 1551730196544
6, -21060.82, 0.00, 0.00, 0.00, 0.00, 0.00, -16225.78, 0.00, 0.000, 0.000, 0.000, 15:09:56.544, 1551730196544
7, -21164.84, 0.00, 0.00, 0.00, 0.00, 0.00, -16221.67, 0.00, 0.000, 0.000, 0.000, 15:09:56.551, 1551730196551
8, -21317.33, 0.00, 0.00, 0.00, 0.00, 0.00, -16292.57, 0.00, 0.000, 0.000, 0.000, 15:09:56.558, 1551730196558
9, -21208.56, 0.00, 0.00, 0.00, 0.00, 0.00, -16285.41, 0.00, 0.000, 0.000, 0.000, 15:09:56.559, 1551730196559
10, -21079.30, 0.00, 0.00, 0.00, 0.00, 0.00, -16232.04, 0.00, 0.000, 0.000, 0.000, 15:09:56.566, 1551730196566
11, -21112.50, 0.00, 0.00, 0.00, 0.00, 0.00, -16203.72, 0.00, -0.712, 0.594, -0.346, 15:09:56.567, 1551730196567
12, -21317.21, 0.00, 0.00, 0.00, 0.00, 0.00, -16280.50, 0.00, 0.000, 0.000, 0.000, 15:09:56.573, 1551730196573
13, -21234.22, 0.00, 0.00, 0.00, 0.00, 0.00, -16291.11, 0.00, 0.000, 0.000, 0.000, 15:09:56.574, 1551730196574
14, -21098.28, 0.00, 0.00, 0.00, 0.00, 0.00, -16238.90, 0.00, 0.000, 0.000, 0.000, 15:09:56.580, 1551730196580
15, -21071.12, 0.00, 0.00, 0.00, 0.00, 0.00, -16195.45, 0.00, 0.000, 0.000, 0.000, 15:09:56.581, 1551730196581
16, -21293.32, 0.00, 0.00, 0.00, 0.00, 0.00, -16264.63, 0.00, 0.000, 0.000, 0.000, 15:09:56.589, 1551730196589
17, -21246.40, 0.00, 0.00, 0.00, 0.00, 0.00, -16291.34, 0.00, 0.000, 0.000, 0.000, 15:09:56.589, 1551730196589
18, -21121.95, 0.00, 0.00, 0.00, 0.00, 0.00, -16253.76, 0.00, 0.000, 0.000, 0.000, 15:09:56.598, 1551730196598
19, -21046.00, 0.00, 0.00, 0.00, 0.00, 0.00, -16199.09, 0.00, 0.000, 0.000, 0.000, 15:09:56.598, 1551730196598
20, -21266.34, 0.00, 0.00, 0.00, 0.00, 0.00, -16255.33, 0.00, -0.710, 0.600, -0.350, 15:09:56.603, 1551730196603
21, -21281.45, 0.00, 0.00, 0.00, 0.00, 0.00, -16301.42, 0.00, 0.000, 0.000, 0.000, 15:09:56.603, 1551730196603
22, -21143.68, 0.00, 0.00, 0.00, 0.00, 0.00, -16256.60, 0.00, 0.000, 0.000, 0.000, 15:09:56.610, 1551730196610
23, -21034.15, 0.00, 0.00, 0.00, 0.00, 0.00, -16190.69, 0.00, 0.000, 0.000, 0.000, 15:09:56.618, 1551730196618
24, -21208.81, 0.00, 0.00, 0.00, 0.00, 0.00, -16217.98, 0.00, 0.000, 0.000, 0.000, 15:09:56.618, 1551730196618
25, -21282.37, 0.00, 0.00, 0.00, 0.00, 0.00, -16281.39, 0.00, 0.000, 0.000, 0.000, 15:09:56.626, 1551730196626
26, -21166.10, 0.00, 0.00, 0.00, 0.00, 0.00, -16262.15, 0.00, 0.000, 0.000, 0.000, 15:09:56.627, 1551730196627
27, -21030.33, 0.00, 0.00, 0.00, 0.00, 0.00, -16197.79, 0.00, 0.000, 0.000, 0.000, 15:09:56.633, 1551730196633
28, -21165.45, 0.00, 0.00, 0.00, 0.00, 0.00, -16201.82, 0.00, 0.000, 0.000, 0.000, 15:09:56.634, 1551730196634
29, -21297.35, 0.00, 0.00, 0.00, 0.00, 0.00, -16272.76, 0.00, 0.000, 0.000, 0.000, 15:09:56.640, 1551730196640
30, -21181.18, 0.00, 0.00, 0.00, 0.00, 0.00, -16262.03, 0.00, -0.704, 0.600, -0.346, 15:09:56.640, 1551730196640
31, -21042.98, 0.00, 0.00, 0.00, 0.00, 0.00, -16203.92, 0.00, 0.000, 0.000, 0.000, 15:09:56.649, 1551730196649
32, -21112.41, 0.00, 0.00, 0.00, 0.00, 0.00, -16187.20, 0.00, 0.000, 0.000, 0.000, 15:09:56.649, 1551730196649
33, -21292.63, 0.00, 0.00, 0.00, 0.00, 0.00, -16263.82, 0.00, 0.000, 0.000, 0.000, 15:09:56.656, 1551730196656
34, -21196.70, 0.00, 0.00, 0.00, 0.00, 0.00, -16268.69, 0.00, 0.000, 0.000, 0.000, 15:09:56.656, 1551730196656
35, -21063.84, 0.00, 0.00, 0.00, 0.00, 0.00, -16217.89, 0.00, 0.000, 0.000, 0.000, 15:09:56.663, 1551730196663
36, -21081.85, 0.00, 0.00, 0.00, 0.00, 0.00, -16184.09, 0.00, 0.000, 0.000, 0.000, 15:09:56.663, 1551730196663
37, -21285.07, 0.00, 0.00, 0.00, 0.00, 0.00, -16255.80, 0.00, 0.000, 0.000, 0.000, 15:09:56.670, 1551730196670
38, -21224.46, 0.00, 0.00, 0.00, 0.00, 0.00, -16281.23, 0.00, 0.000, 0.000, 0.000, 15:09:56.678, 1551730196678
39, -21091.87, 0.00, 0.00, 0.00, 0.00, 0.00, -16239.82, 0.00, 0.000, 0.000, 0.000, 15:09:56.678, 1551730196678
40, -21045.87, 0.00, 0.00, 0.00, 0.00, 0.00, -16186.15, 0.00, -0.708, 0.598, -0.346, 15:09:56.686, 1551730196686
41, -21271.42, 0.00, 0.00, 0.00, 0.00, 0.00, -16241.96, 0.00, 0.000, 0.000, 0.000, 15:09:56.686, 1551730196686
42, -21247.03, 0.00, 0.00, 0.00, 0.00, 0.00, -16274.57, 0.00, 0.000, 0.000, 0.000, 15:09:56.693, 1551730196693
43, -21116.74, 0.00, 0.00, 0.00, 0.00, 0.00, -16240.20, 0.00, 0.000, 0.000, 0.000, 15:09:56.693, 1551730196693
44, -21024.56, 0.00, 0.00, 0.00, 0.00, 0.00, -16181.01, 0.00, 0.000, 0.000, 0.000, 15:09:56.701, 1551730196701
45, -21232.57, 0.00, 0.00, 0.00, 0.00, 0.00, -16221.31, 0.00, 0.000, 0.000, 0.000, 15:09:56.702, 1551730196702
46, -21266.03, 0.00, 0.00, 0.00, 0.00, 0.00, -16270.33, 0.00, 0.000, 0.000, 0.000, 15:09:56.708, 1551730196708
47, -21137.64, 0.00, 0.00, 0.00, 0.00, 0.00, -16240.87, 0.00, 0.000, 0.000, 0.000, 15:09:56.709, 1551730196709
48, -21022.84, 0.00, 0.00, 0.00, 0.00, 0.00, -16178.73, 0.00, 0.000, 0.000, 0.000, 15:09:56.716, 1551730196716
49, -21186.01, 0.00, 0.00, 0.00, 0.00, 0.00, -16198.80, 0.00, 0.000, 0.000, 0.000, 15:09:56.716, 1551730196716
50, -21280.65, 0.00, 0.00, 0.00, 0.00, 0.00, -16264.54, 0.00, -0.706, 0.594, -0.348, 15:09:56.723, 1551730196723
51, -21162.14, 0.00, 0.00, 0.00, 0.00, 0.00, -16246.45, 0.00, 0.000, 0.000, 0.000, 15:09:56.723, 1551730196723
52, -21029.46, 0.00, 0.00, 0.00, 0.00, 0.00, -16186.78, 0.00, 0.000, 0.000, 0.000, 15:09:56.733, 1551730196733
53, -21131.47, 0.00, 0.00, 0.00, 0.00, 0.00, -16184.58, 0.00, 0.000, 0.000, 0.000, 15:09:56.733, 1551730196733
54, -21279.24, 0.00, 0.00, 0.00, 0.00, 0.00, -16259.04, 0.00, 0.000, 0.000, 0.000, 15:09:56.738, 1551730196738
55, -21173.83, 0.00, 0.00, 0.00, 0.00, 0.00, -16256.62, 0.00, 0.000, 0.000, 0.000, 15:09:56.745, 1551730196745
56, -21039.67, 0.00, 0.00, 0.00, 0.00, 0.00, -16199.78, 0.00, 0.000, 0.000, 0.000, 15:09:56.745, 1551730196745
57, -21099.71, 0.00, 0.00, 0.00, 0.00, 0.00, -16177.54, 0.00, 0.000, 0.000, 0.000, 15:09:56.753, 1551730196753
58, -21298.37, 0.00, 0.00, 0.00, 0.00, 0.00, -16254.43, 0.00, 0.000, 0.000, 0.000, 15:09:56.753, 1551730196753
59, -21190.77, 0.00, 0.00, 0.00, 0.00, 0.00, -16254.61, 0.00, 0.000, 0.000, 0.000, 15:09:56.761, 1551730196761
60, -21069.85, 0.00, 0.00, 0.00, 0.00, 0.00, -16211.59, 0.00, -0.710, 0.586, -0.348, 15:09:56.762, 1551730196762
61, -21049.73, 0.00, 0.00, 0.00, 0.00, 0.00, -16168.94, 0.00, 0.000, 0.000, 0.000, 15:09:56.769, 1551730196769
62, -21272.38, 0.00, 0.00, 0.00, 0.00, 0.00, -16243.62, 0.00, 0.000, 0.000, 0.000, 15:09:56.769, 1551730196769
63, -21219.90, 0.00, 0.00, 0.00, 0.00, 0.00, -16263.51, 0.00, 0.000, 0.000, 0.000, 15:09:56.775, 1551730196775
64, -21092.16, 0.00, 0.00, 0.00, 0.00, 0.00, -16220.75, 0.00, 0.000, 0.000, 0.000, 15:09:56.776, 1551730196776
65, -21027.89, 0.00, 0.00, 0.00, 0.00, 0.00, -16162.86, 0.00, 0.000, 0.000, 0.000, 15:09:56.783, 1551730196783
66, -21250.72, 0.00, 0.00, 0.00, 0.00, 0.00, -16219.92, 0.00, 0.000, 0.000, 0.000, 15:09:56.784, 1551730196784
67, -21257.45, 0.00, 0.00, 0.00, 0.00, 0.00, -16263.20, 0.00, 0.000, 0.000, 0.000, 15:09:56.793, 1551730196793
68, -21131.14, 0.00, 0.00, 0.00, 0.00, 0.00, -16232.26, 0.00, 0.000, 0.000, 0.000, 15:09:56.793, 1551730196793
69, -21027.47, 0.00, 0.00, 0.00, 0.00, 0.00, -16171.93, 0.00, 0.000, 0.000, 0.000, 15:09:56.798, 1551730196798
70, -21197.75, 0.00, 0.00, 0.00, 0.00, 0.00, -16197.82, 0.00, -0.704, 0.598, -0.348, 15:09:56.807, 1551730196807
71, -21261.27, 0.00, 0.00, 0.00, 0.00, 0.00, -16258.23, 0.00, 0.000, 0.000, 0.000, 15:09:56.807, 1551730196807
72, -21146.92, 0.00, 0.00, 0.00, 0.00, 0.00, -16237.40, 0.00, 0.000, 0.000, 0.000, 15:09:56.813, 1551730196813
73, -21002.62, 0.00, 0.00, 0.00, 0.00, 0.00, -16170.19, 0.00, 0.000, 0.000, 0.000, 15:09:56.813, 1551730196813
74, -21164.35, 0.00, 0.00, 0.00, 0.00, 0.00, -16190.17, 0.00, 0.000, 0.000, 0.000, 15:09:56.821, 1551730196821
75, -21276.98, 0.00, 0.00, 0.00, 0.00, 0.00, -16259.15, 0.00, 0.000, 0.000, 0.000, 15:09:56.821, 1551730196821
76, -21153.73, 0.00, 0.00, 0.00, 0.00, 0.00, -16249.81, 0.00, 0.000, 0.000, 0.000, 15:09:56.828, 1551730196828
77, -21025.99, 0.00, 0.00, 0.00, 0.00, 0.00, -16194.60, 0.00, 0.000, 0.000, 0.000, 15:09:56.828, 1551730196828
78, -21114.22, 0.00, 0.00, 0.00, 0.00, 0.00, -16183.71, 0.00, 0.000, 0.000, 0.000, 15:09:56.838, 1551730196838
79, -21281.14, 0.00, 0.00, 0.00, 0.00, 0.00, -16260.85, 0.00, 0.000, 0.000, 0.000, 15:09:56.839, 1551730196839
80, -21175.01, 0.00, 0.00, 0.00, 0.00, 0.00, -16258.86, 0.00, -0.706, 0.598, -0.346, 15:09:56.844, 1551730196844
81, -21047.61, 0.00, 0.00, 0.00, 0.00, 0.00, -16206.29, 0.00, 0.000, 0.000, 0.000, 15:09:56.844, 1551730196844
82, -21080.06, 0.00, 0.00, 0.00, 0.00, 0.00, -16179.26, 0.00, 0.000, 0.000, 0.000, 15:09:56.851, 1551730196851
83, -21280.02, 0.00, 0.00, 0.00, 0.00, 0.00, -16251.91, 0.00, 0.000, 0.000, 0.000, 15:09:56.852, 1551730196852
84, -21203.36, 0.00, 0.00, 0.00, 0.00, 0.00, -16264.40, 0.00, 0.000, 0.000, 0.000, 15:09:56.857, 1551730196857
85, -21071.93, 0.00, 0.00, 0.00, 0.00, 0.00, -16217.62, 0.00, 0.000, 0.000, 0.000, 15:09:56.866, 1551730196866
86, -21040.01, 0.00, 0.00, 0.00, 0.00, 0.00, -16171.24, 0.00, 0.000, 0.000, 0.000, 15:09:56.866, 1551730196866
87, -21277.03, 0.00, 0.00, 0.00, 0.00, 0.00, -16243.46, 0.00, 0.000, 0.000, 0.000, 15:09:56.874, 1551730196874
88, -21255.08, 0.00, 0.00, 0.00, 0.00, 0.00, -16275.58, 0.00, 0.000, 0.000, 0.000, 15:09:56.874, 1551730196874
89, -21107.85, 0.00, 0.00, 0.00, 0.00, 0.00, -16228.44, 0.00, -0.704, 0.598, -0.346, 15:09:56.880, 1551730196880
90, -21032.99, 0.00, 0.00, 0.00, 0.00, 0.00, -16175.11, 0.00, 0.000, 0.000, 0.000, 15:09:56.880, 1551730196880
91, -21238.96, 0.00, 0.00, 0.00, 0.00, 0.00, -16222.76, 0.00, 0.000, 0.000, 0.000, 15:09:56.888, 1551730196888
92, -21266.68, 0.00, 0.00, 0.00, 0.00, 0.00, -16275.56, 0.00, 0.000, 0.000, 0.000, 15:09:56.888, 1551730196888
93, -21127.00, 0.00, 0.00, 0.00, 0.00, 0.00, -16235.12, 0.00, 0.000, 0.000, 0.000, 15:09:56.896, 1551730196896
94, -21018.64, 0.00, 0.00, 0.00, 0.00, 0.00, -16177.68, 0.00, 0.000, 0.000, 0.000, 15:09:56.896, 1551730196896
95, -21197.70, 0.00, 0.00, 0.00, 0.00, 0.00, -16210.20, 0.00, 0.000, 0.000, 0.000, 15:09:56.903, 1551730196903
96, -21273.00, 0.00, 0.00, 0.00, 0.00, 0.00, -16270.15, 0.00, 0.000, 0.000, 0.000, 15:09:56.903, 1551730196903
97, -21159.64, 0.00, 0.00, 0.00, 0.00, 0.00, -16249.92, 0.00, 0.000, 0.000, 0.000, 15:09:56.911, 1551730196911
98, -21025.82, 0.00, 0.00, 0.00, 0.00, 0.00, -16190.04, 0.00, 0.000, 0.000, 0.000, 15:09:56.911, 1551730196911
99, -21151.50, 0.00, 0.00, 0.00, 0.00, 0.00, -16196.45, 0.00, -0.708, 0.596, -0.348, 15:09:56.918, 1551730196918
100, -21296.07, 0.00, 0.00, 0.00, 0.00, 0.00, -16272.58, 0.00, 0.000, 0.000, 0.000, 15:09:56.926, 1551730196926
101, -21163.68, 0.00, 0.00, 0.00, 0.00, 0.00, -16261.25, 0.00, 0.000, 0.000, 0.000, 15:09:56.926, 1551730196926
102, -21026.20, 0.00, 0.00, 0.00, 0.00, 0.00, -16196.81, 0.00, 0.000, 0.000, 0.000, 15:09:56.933, 1551730196933
103, -21129.44, 0.00, 0.00, 0.00, 0.00, 0.00, -16191.27, 0.00, 0.000, 0.000, 0.000, 15:09:56.934, 1551730196934
104, -21293.81, 0.00, 0.00, 0.00, 0.00, 0.00, -16260.51, 0.00, 0.000, 0.000, 0.000, 15:09:56.941, 1551730196941
105, -21183.51, 0.00, 0.00, 0.00, 0.00, 0.00, -16258.37, 0.00, 0.000, 0.000, 0.000, 15:09:56.941, 1551730196941
106, -21054.61, 0.00, 0.00, 0.00, 0.00, 0.00, -16209.42, 0.00, 0.000, 0.000, 0.000, 15:09:56.950, 1551730196950
107, -21063.59, 0.00, 0.00, 0.00, 0.00, 0.00, -16178.04, 0.00, 0.000, 0.000, 0.000, 15:09:56.950, 1551730196950
108, -21283.35, 0.00, 0.00, 0.00, 0.00, 0.00, -16249.81, 0.00, 0.000, 0.000, 0.000, 15:09:56.956, 1551730196956
109, -21228.26, 0.00, 0.00, 0.00, 0.00, 0.00, -16274.21, 0.00, -0.714, 0.596, -0.348, 15:09:56.957, 1551730196957
110, -21092.54, 0.00, 0.00, 0.00, 0.00, 0.00, -16229.91, 0.00, 0.000, 0.000, 0.000, 15:09:56.965, 1551730196965
111, -21052.48, 0.00, 0.00, 0.00, 0.00, 0.00, -16184.45, 0.00, 0.000, 0.000, 0.000, 15:09:56.965, 1551730196965
112, -21279.38, 0.00, 0.00, 0.00, 0.00, 0.00, -16244.40, 0.00, 0.000, 0.000, 0.000, 15:09:56.971, 1551730196971
113, -21265.09, 0.00, 0.00, 0.00, 0.00, 0.00, -16275.13, 0.00, 0.000, 0.000, 0.000, 15:09:56.972, 1551730196972
114, -21146.11, 0.00, 0.00, 0.00, 0.00, 0.00, -16235.88, 0.00, 0.000, 0.000, 0.000, 15:09:56.978, 1551730196978
115, -21054.65, 0.00, 0.00, 0.00, 0.00, 0.00, -16167.60, 0.00, 0.000, 0.000, 0.000, 15:09:56.978, 1551730196978
116, -21235.95, 0.00, 0.00, 0.00, 0.00, 0.00, -16202.60, 0.00, 0.000, 0.000, 0.000, 15:09:56.987, 1551730196987
117, -21368.07, 0.00, 0.00, 0.00, 0.00, 0.00, -16293.50, 0.00, 0.000, 0.000, 0.000, 15:09:56.992, 1551730196992
118, -21296.25, 0.00, 0.00, 0.00, 0.00, 0.00, -16270.53, 0.00, 0.000, 0.000, 0.000, 15:09:56.993, 1551730196993
119, -21199.53, 0.00, 0.00, 0.00, 0.00, 0.00, -16210.33, 0.00, -0.708, 0.590, -0.346, 15:09:57.002, 1551730197002
120, -21133.62, 0.00, 0.00, 0.00, 0.00, 0.00, -16191.40, 0.00, 0.000, 0.000, 0.000, 15:09:57.002, 1551730197002
121, -21269.32, 0.00, 0.00, 0.00, 0.00, 0.00, -16263.73, 0.00, 0.000, 0.000, 0.000, 15:09:57.008, 1551730197008
122, -21089.85, 0.00, 0.00, 0.00, 0.00, 0.00, -16223.88, 0.00, 0.000, 0.000, 0.000, 15:09:57.009, 1551730197009
123, -20995.46, 0.00, 0.00, 0.00, 0.00, 0.00, -16190.58, 0.00, 0.000, 0.000, 0.000, 15:09:57.015, 1551730197015
124, -21267.51, 0.00, 0.00, 0.00, 0.00, 0.00, -16212.79, 0.00, 0.000, 0.000, 0.000, 15:09:57.015, 1551730197015
125, -21152.37, 0.00, 0.00, 0.00, 0.00, 0.00, -16224.04, 0.00, 0.000, 0.000, 0.000, 15:09:57.023, 1551730197023
126, -21108.63, 0.00, 0.00, 0.00, 0.00, 0.00, -16249.54, 0.00, 0.000, 0.000, 0.000, 15:09:57.024, 1551730197024
127, -21092.71, 0.00, 0.00, 0.00, 0.00, 0.00, -16219.01, 0.00, 0.000, 0.000, 0.000, 15:09:57.032, 1551730197032
128, -21075.32, 0.00, 0.00, 0.00, 0.00, 0.00, -16177.23, 0.00, 0.000, 0.000, 0.000, 15:09:57.033, 1551730197033
129, -21211.04, 0.00, 0.00, 0.00, 0.00, 0.00, -16236.35, 0.00, -0.712, 0.592, -0.346, 15:09:57.045, 1551730197045
130, -21142.71, 0.00, 0.00, 0.00, 0.00, 0.00, -16251.04, 0.00, 0.000, 0.000, 0.000, 15:09:57.045, 1551730197045
131, -21049.80, 0.00, 0.00, 0.00, 0.00, 0.00, -16219.92, 0.00, 0.000, 0.000, 0.000, 15:09:57.046, 1551730197046
132, -21077.16, 0.00, 0.00, 0.00, 0.00, 0.00, -16197.64, 0.00, 0.000, 0.000, 0.000, 15:09:57.053, 1551730197053
133, -21329.69, 0.00, 0.00, 0.00, 0.00, 0.00, -16273.03, 0.00, 0.000, 0.000, 0.000, 15:09:57.053, 1551730197053
134, -21205.48, 0.00, 0.00, 0.00, 0.00, 0.00, -16265.43, 0.00, 0.000, 0.000, 0.000, 15:09:57.062, 1551730197062
135, -21108.96, 0.00, 0.00, 0.00, 0.00, 0.00, -16240.44, 0.00, 0.000, 0.000, 0.000, 15:09:57.062, 1551730197062
136, -21112.14, 0.00, 0.00, 0.00, 0.00, 0.00, -16197.68, 0.00, 0.000, 0.000, 0.000, 15:09:57.068, 1551730197068
137, -21328.15, 0.00, 0.00, 0.00, 0.00, 0.00, -16247.35, 0.00, 0.000, 0.000, 0.000, 15:09:57.069, 1551730197069
138, -21239.16, 0.00, 0.00, 0.00, 0.00, 0.00, -16270.44, 0.00, 0.000, 0.000, 0.000, 15:09:57.075, 1551730197075
139, -21115.96, 0.00, 0.00, 0.00, 0.00, 0.00, -16223.41, 0.00, -0.712, 0.596, -0.344, 15:09:57.076, 1551730197076
140, -21051.83, 0.00, 0.00, 0.00, 0.00, 0.00, -16174.97, 0.00, 0.000, 0.000, 0.000, 15:09:57.083, 1551730197083
141, -21248.95, 0.00, 0.00, 0.00, 0.00, 0.00, -16206.60, 0.00, 0.000, 0.000, 0.000, 15:09:57.084, 1551730197084
142, -21250.90, 0.00, 0.00, 0.00, 0.00, 0.00, -16255.28, 0.00, 0.000, 0.000, 0.000, 15:09:57.092, 1551730197092
143, -21124.79, 0.00, 0.00, 0.00, 0.00, 0.00, -16232.91, 0.00, 0.000, 0.000, 0.000, 15:09:57.092, 1551730197092
144, -20989.96, 0.00, 0.00, 0.00, 0.00, 0.00, -16169.61, 0.00, 0.000, 0.000, 0.000, 15:09:57.098, 1551730197098
145, -21195.20, 0.00, 0.00, 0.00, 0.00, 0.00, -16206.62, 0.00, 0.000, 0.000, 0.000, 15:09:57.099, 1551730197099
146, -21258.23, 0.00, 0.00, 0.00, 0.00, 0.00, -16253.70, 0.00, 0.000, 0.000, 0.000, 15:09:57.106, 1551730197106
147, -21148.44, 0.00, 0.00, 0.00, 0.00, 0.00, -16252.49, 0.00, 0.000, 0.000, 0.000, 15:09:57.113, 1551730197113
148, -21037.77, 0.00, 0.00, 0.00, 0.00, 0.00, -16199.29, 0.00, -0.706, 0.590, -0.344, 15:09:57.113, 1551730197113
149, -21141.49, 0.00, 0.00, 0.00, 0.00, 0.00, -16189.35, 0.00, 0.000, 0.000, 0.000, 15:09:57.121, 1551730197121
150, -21305.84, 0.00, 0.00, 0.00, 0.00, 0.00, -16270.33, 0.00, 0.000, 0.000, 0.000, 15:09:57.121, 1551730197121
151, -21222.87, 0.00, 0.00, 0.00, 0.00, 0.00, -16268.81, 0.00, 0.000, 0.000, 0.000, 15:09:57.128, 1551730197128
152, -21107.04, 0.00, 0.00, 0.00, 0.00, 0.00, -16234.65, 0.00, 0.000, 0.000, 0.000, 15:09:57.128, 1551730197128
153, -21152.15, 0.00, 0.00, 0.00, 0.00, 0.00, -16212.79, 0.00, 0.000, 0.000, 0.000, 15:09:57.136, 1551730197136
154, -21293.10, 0.00, 0.00, 0.00, 0.00, 0.00, -16253.45, 0.00, 0.000, 0.000, 0.000, 15:09:57.136, 1551730197136
155, -21232.30, 0.00, 0.00, 0.00, 0.00, 0.00, -16281.17, 0.00, 0.000, 0.000, 0.000, 15:09:57.144, 1551730197144
156, -21050.36, 0.00, 0.00, 0.00, 0.00, 0.00, -16222.60, 0.00, 0.000, 0.000, 0.000, 15:09:57.145, 1551730197145
157, -21095.04, 0.00, 0.00, 0.00, 0.00, 0.00, -16192.09, 0.00, 0.000, 0.000, 0.000, 15:09:57.158, 1551730197158
158, -21316.52, 0.00, 0.00, 0.00, 0.00, 0.00, -16242.23, 0.00, -0.706, 0.598, -0.348, 15:09:57.158, 1551730197158
159, -21203.82, 0.00, 0.00, 0.00, 0.00, 0.00, -16262.61, 0.00, 0.000, 0.000, 0.000, 15:09:57.159, 1551730197159
160, -21104.72, 0.00, 0.00, 0.00, 0.00, 0.00, -16225.13, 0.00, 0.000, 0.000, 0.000, 15:09:57.159, 1551730197159
161, -21010.04, 0.00, 0.00, 0.00, 0.00, 0.00, -16165.56, 0.00, 0.000, 0.000, 0.000, 15:09:57.165, 1551730197165
162, -21275.84, 0.00, 0.00, 0.00, 0.00, 0.00, -16229.76, 0.00, 0.000, 0.000, 0.000, 15:09:57.173, 1551730197173
163, -21274.37, 0.00, 0.00, 0.00, 0.00, 0.00, -16269.68, 0.00, 0.000, 0.000, 0.000, 15:09:57.173, 1551730197173
164, -21199.20, 0.00, 0.00, 0.00, 0.00, 0.00, -16255.64, 0.00, 0.000, 0.000, 0.000, 15:09:57.180, 1551730197180
165, -21095.04, 0.00, 0.00, 0.00, 0.00, 0.00, -16199.11, 0.00, 0.000, 0.000, 0.000, 15:09:57.181, 1551730197181
166, -21215.13, 0.00, 0.00, 0.00, 0.00, 0.00, -16212.35, 0.00, 0.000, 0.000, 0.000, 15:09:57.188, 1551730197188
167, -21312.21, 0.00, 0.00, 0.00, 0.00, 0.00, -16283.40, 0.00, 0.000, 0.000, 0.000, 15:09:57.189, 1551730197189
168, -21126.71, 0.00, 0.00, 0.00, 0.00, 0.00, -16246.52, 0.00, -0.712, 0.596, -0.354, 15:09:57.197, 1551730197197
169, -20993.56, 0.00, 0.00, 0.00, 0.00, 0.00, -16181.97, 0.00, 0.000, 0.000, 0.000, 15:09:57.197, 1551730197197
170, -21143.56, 0.00, 0.00, 0.00, 0.00, 0.00, -16198.02, 0.00, 0.000, 0.000, 0.000, 15:09:57.203, 1551730197203
171, -21297.43, 0.00, 0.00, 0.00, 0.00, 0.00, -16275.56, 0.00, 0.000, 0.000, 0.000, 15:09:57.203, 1551730197203
172, -21146.67, 0.00, 0.00, 0.00, 0.00, 0.00, -16258.70, 0.00, 0.000, 0.000, 0.000, 15:09:57.211, 1551730197211
173, -21043.32, 0.00, 0.00, 0.00, 0.00, 0.00, -16215.39, 0.00, 0.000, 0.000, 0.000, 15:09:57.211, 1551730197211
174, -21116.56, 0.00, 0.00, 0.00, 0.00, 0.00, -16197.62, 0.00, 0.000, 0.000, 0.000, 15:09:57.219, 1551730197219
175, -21296.94, 0.00, 0.00, 0.00, 0.00, 0.00, -16270.48, 0.00, 0.000, 0.000, 0.000, 15:09:57.219, 1551730197219
176, -21209.05, 0.00, 0.00, 0.00, 0.00, 0.00, -16274.73, 0.00, 0.000, 0.000, 0.000, 15:09:57.227, 1551730197227
177, -21087.33, 0.00, 0.00, 0.00, 0.00, 0.00, -16223.59, 0.00, 0.000, 0.000, 0.000, 15:09:57.228, 1551730197228
178, -21090.35, 0.00, 0.00, 0.00, 0.00, 0.00, -16189.50, 0.00, -0.712, 0.596, -0.352, 15:09:57.233, 1551730197233
179, -21288.47, 0.00, 0.00, 0.00, 0.00, 0.00, -16250.01, 0.00, 0.000, 0.000, 0.000, 15:09:57.240, 1551730197240
180, -21265.92, 0.00, 0.00, 0.00, 0.00, 0.00, -16282.53, 0.00, 0.000, 0.000, 0.000, 15:09:57.240, 1551730197240
181, -21138.60, 0.00, 0.00, 0.00, 0.00, 0.00, -16233.42, 0.00, 0.000, 0.000, 0.000, 15:09:57.248, 1551730197248
182, -21027.45, 0.00, 0.00, 0.00, 0.00, 0.00, -16169.59, 0.00, 0.000, 0.000, 0.000, 15:09:57.248, 1551730197248
183, -21287.89, 0.00, 0.00, 0.00, 0.00, 0.00, -16237.78, 0.00, 0.000, 0.000, 0.000, 15:09:57.256, 1551730197256
184, -21241.78, 0.00, 0.00, 0.00, 0.00, 0.00, -16263.04, 0.00, 0.000, 0.000, 0.000, 15:09:57.256, 1551730197256
185, -21125.53, 0.00, 0.00, 0.00, 0.00, 0.00, -16223.83, 0.00, 0.000, 0.000, 0.000, 15:09:57.263, 1551730197263
186, -21048.66, 0.00, 0.00, 0.00, 0.00, 0.00, -16169.18, 0.00, 0.000, 0.000, 0.000, 15:09:57.263, 1551730197263
187, -21267.37, 0.00, 0.00, 0.00, 0.00, 0.00, -16215.65, 0.00, 0.000, 0.000, 0.000, 15:09:57.271, 1551730197271
188, -21267.51, 0.00, 0.00, 0.00, 0.00, 0.00, -16262.99, 0.00, -0.716, 0.596, -0.346, 15:09:57.271, 1551730197271
189, -21142.27, 0.00, 0.00, 0.00, 0.00, 0.00, -16236.44, 0.00, 0.000, 0.000, 0.000, 15:09:57.279, 1551730197279
190, -21031.02, 0.00, 0.00, 0.00, 0.00, 0.00, -16178.42, 0.00, 0.000, 0.000, 0.000, 15:09:57.279, 1551730197279
191, -21177.38, 0.00, 0.00, 0.00, 0.00, 0.00, -16190.33, 0.00, 0.000, 0.000, 0.000, 15:09:57.285, 1551730197285
192, -21302.98, 0.00, 0.00, 0.00, 0.00, 0.00, -16268.58, 0.00, 0.000, 0.000, 0.000, 15:09:57.286, 1551730197286
193, -21170.10, 0.00, 0.00, 0.00, 0.00, 0.00, -16248.09, 0.00, 0.000, 0.000, 0.000, 15:09:57.293, 1551730197293
194, -21019.40, 0.00, 0.00, 0.00, 0.00, 0.00, -16183.53, 0.00, 0.000, 0.000, 0.000, 15:09:57.301, 1551730197301
195, -21138.00, 0.00, 0.00, 0.00, 0.00, 0.00, -16185.10, 0.00, 0.000, 0.000, 0.000, 15:09:57.301, 1551730197301
196, -21289.79, 0.00, 0.00, 0.00, 0.00, 0.00, -16260.47, 0.00, 0.000, 0.000, 0.000, 15:09:57.308, 1551730197308
197, -21184.16, 0.00, 0.00, 0.00, 0.00, 0.00, -16254.10, 0.00, 0.000, 0.000, 0.000, 15:09:57.309, 1551730197309
198, -21063.88, 0.00, 0.00, 0.00, 0.00, 0.00, -16206.56, 0.00, -0.712, 0.596, -0.344, 15:09:57.316, 1551730197316
199, -21084.36, 0.00, 0.00, 0.00, 0.00, 0.00, -16173.68, 0.00, 0.000, 0.000, 0.000, 15:09:57.316, 1551730197316
200, -21291.51, 0.00, 0.00, 0.00, 0.00, 0.00, -16250.30, 0.00, 0.000, 0.000, 0.000, 15:09:57.323, 1551730197323
201, -21212.68, 0.00, 0.00, 0.00, 0.00, 0.00, -16263.26, 0.00, 0.000, 0.000, 0.000, 15:09:57.323, 1551730197323
202, -21083.75, 0.00, 0.00, 0.00, 0.00, 0.00, -16213.60, 0.00, 0.000, 0.000, 0.000, 15:09:57.332, 1551730197332
203, -21062.54, 0.00, 0.00, 0.00, 0.00, 0.00, -16167.58, 0.00, 0.000, 0.000, 0.000, 15:09:57.333, 1551730197333
204, -21286.59, 0.00, 0.00, 0.00, 0.00, 0.00, -16235.23, 0.00, 0.000, 0.000, 0.000, 15:09:57.339, 1551730197339
205, -21243.97, 0.00, 0.00, 0.00, 0.00, 0.00, -16258.14, 0.00, 0.000, 0.000, 0.000, 15:09:57.339, 1551730197339
206, -21104.45, 0.00, 0.00, 0.00, 0.00, 0.00, -16209.28, 0.00, 0.000, 0.000, 0.000, 15:09:57.347, 1551730197347
207, -21039.79, 0.00, 0.00, 0.00, 0.00, 0.00, -16152.02, 0.00, 0.000, 0.000, 0.000, 15:09:57.348, 1551730197348
208, -21261.87, 0.00, 0.00, 0.00, 0.00, 0.00, -16208.95, 0.00, -0.712, 0.594, -0.346, 15:09:57.353, 1551730197353
209, -21265.14, 0.00, 0.00, 0.00, 0.00, 0.00, -16252.29, 0.00, 0.000, 0.000, 0.000, 15:09:57.363, 1551730197363
210, -21136.88, 0.00, 0.00, 0.00, 0.00, 0.00, -16219.68, 0.00, 0.000, 0.000, 0.000, 15:09:57.363, 1551730197363
211, -21033.13, 0.00, 0.00, 0.00, 0.00, 0.00, -16167.33, 0.00, 0.000, 0.000, 0.000, 15:09:57.368, 1551730197368
212, -21227.36, 0.00, 0.00, 0.00, 0.00, 0.00, -16207.23, 0.00, 0.000, 0.000, 0.000, 15:09:57.369, 1551730197369
213, -21295.02, 0.00, 0.00, 0.00, 0.00, 0.00, -16266.64, 0.00, 0.000, 0.000, 0.000, 15:09:57.376, 1551730197376
214, -21167.30, 0.00, 0.00, 0.00, 0.00, 0.00, -16235.77, 0.00, 0.000, 0.000, 0.000, 15:09:57.376, 1551730197376
215, -21035.96, 0.00, 0.00, 0.00, 0.00, 0.00, -16176.90, 0.00, 0.000, 0.000, 0.000, 15:09:57.383, 1551730197383
216, -21174.61, 0.00, 0.00, 0.00, 0.00, 0.00, -16187.56, 0.00, 0.000, 0.000, 0.000, 15:09:57.384, 1551730197384
217, -21301.46, 0.00, 0.00, 0.00, 0.00, 0.00, -16262.44, 0.00, -0.708, 0.588, -0.348, 15:09:57.392, 1551730197392
218, -21184.47, 0.00, 0.00, 0.00, 0.00, 0.00, -16252.89, 0.00, 0.000, 0.000, 0.000, 15:09:57.392, 1551730197392
219, -21046.80, 0.00, 0.00, 0.00, 0.00, 0.00, -16196.59, 0.00, 0.000, 0.000, 0.000, 15:09:57.399, 1551730197399
220, -21126.29, 0.00, 0.00, 0.00, 0.00, 0.00, -16183.98, 0.00, 0.000, 0.000, 0.000, 15:09:57.400, 1551730197400
221, -21303.22, 0.00, 0.00, 0.00, 0.00, 0.00, -16260.94, 0.00, 0.000, 0.000, 0.000, 15:09:57.407, 1551730197407
222, -21199.49, 0.00, 0.00, 0.00, 0.00, 0.00, -16261.00, 0.00, 0.000, 0.000, 0.000, 15:09:57.407, 1551730197407
223, -21069.85, 0.00, 0.00, 0.00, 0.00, 0.00, -16210.69, 0.00, 0.000, 0.000, 0.000, 15:09:57.413, 1551730197413
224, -21093.56, 0.00, 0.00, 0.00, 0.00, 0.00, -16181.75, 0.00, 0.000, 0.000, 0.000, 15:09:57.420, 1551730197420
225, -21309.71, 0.00, 0.00, 0.00, 0.00, 0.00, -16258.81, 0.00, 0.000, 0.000, 0.000, 15:09:57.420, 1551730197420
226, -21228.79, 0.00, 0.00, 0.00, 0.00, 0.00, -16267.64, 0.00, 0.000, 0.000, 0.000, 15:09:57.428, 1551730197428
227, -21098.84, 0.00, 0.00, 0.00, 0.00, 0.00, -16223.21, 0.00, -0.708, 0.588, -0.356, 15:09:57.429, 1551730197429
228, -21064.91, 0.00, 0.00, 0.00, 0.00, 0.00, -16172.47, 0.00, 0.000, 0.000, 0.000, 15:09:57.438, 1551730197438
229, -21285.10, 0.00, 0.00, 0.00, 0.00, 0.00, -16235.46, 0.00, 0.000, 0.000, 0.000, 15:09:57.438, 1551730197438
230, -21255.41, 0.00, 0.00, 0.00, 0.00, 0.00, -16260.89, 0.00, 0.000, 0.000, 0.000, 15:09:57.444, 1551730197444
231, -21128.25, 0.00, 0.00, 0.00, 0.00, 0.00, -16223.16, 0.00, 0.000, 0.000, 0.000, 15:09:57.444, 1551730197444
232, -21045.62, 0.00, 0.00, 0.00, 0.00, 0.00, -16169.52, 0.00, 0.000, 0.000, 0.000, 15:09:57.450, 1551730197450
233, -21254.92, 0.00, 0.00, 0.00, 0.00, 0.00, -16219.70, 0.00, 0.000, 0.000, 0.000, 15:09:57.450, 1551730197450
234, -21287.24, 0.00, 0.00, 0.00, 0.00, 0.00, -16274.21, 0.00, 0.000, 0.000, 0.000, 15:09:57.458, 1551730197458
235, -21159.64, 0.00, 0.00, 0.00, 0.00, 0.00, -16241.02, 0.00, 0.000, 0.000, 0.000, 15:09:57.458, 1551730197458
236, -21037.10, 0.00, 0.00, 0.00, 0.00, 0.00, -16178.01, 0.00, 0.000, 0.000, 0.000, 15:09:57.474, 1551730197474
237, -21210.17, 0.00, 0.00, 0.00, 0.00, 0.00, -16206.51, 0.00, -0.710, 0.592, -0.348, 15:09:57.474, 1551730197474
238, -21294.69, 0.00, 0.00, 0.00, 0.00, 0.00, -16271.44, 0.00, 0.000, 0.000, 0.000, 15:09:57.474, 1551730197474
239, -21170.88, 0.00, 0.00, 0.00, 0.00, 0.00, -16252.13, 0.00, 0.000, 0.000, 0.000, 15:09:57.475, 1551730197475
240, -21040.97, 0.00, 0.00, 0.00, 0.00, 0.00, -16194.24, 0.00, 0.000, 0.000, 0.000, 15:09:57.480, 1551730197480
241, -21158.92, 0.00, 0.00, 0.00, 0.00, 0.00, -16196.92, 0.00, 0.000, 0.000, 0.000, 15:09:57.488, 1551730197488
242, -21304.95, 0.00, 0.00, 0.00, 0.00, 0.00, -16271.35, 0.00, 0.000, 0.000, 0.000, 15:09:57.489, 1551730197489
243, -21195.82, 0.00, 0.00, 0.00, 0.00, 0.00, -16262.28, 0.00, 0.000, 0.000, 0.000, 15:09:57.496, 1551730197496
244, -21067.46, 0.00, 0.00, 0.00, 0.00, 0.00, -16208.77, 0.00, 0.000, 0.000, 0.000, 15:09:57.496, 1551730197496
245, -21116.77, 0.00, 0.00, 0.00, 0.00, 0.00, -16187.47, 0.00, 0.000, 0.000, 0.000, 15:09:57.506, 1551730197506
246, -21304.03, 0.00, 0.00, 0.00, 0.00, 0.00, -16262.44, 0.00, 0.000, 0.000, 0.000, 15:09:57.507, 1551730197507
247, -21221.35, 0.00, 0.00, 0.00, 0.00, 0.00, -16267.91, 0.00, -0.706, 0.594, -0.348, 15:09:57.512, 1551730197512
248, -21086.54, 0.00, 0.00, 0.00, 0.00, 0.00, -16213.24, 0.00, 0.000, 0.000, 0.000, 15:09:57.513, 1551730197513
249, -21086.19, 0.00, 0.00, 0.00, 0.00, 0.00, -16173.92, 0.00, 0.000, 0.000, 0.000, 15:09:57.519, 1551730197519
250, -21308.50, 0.00, 0.00, 0.00, 0.00, 0.00, -16244.93, 0.00, 0.000, 0.000, 0.000, 15:09:57.519, 1551730197519
251, -21246.70, 0.00, 0.00, 0.00, 0.00, 0.00, -16270.48, 0.00, 0.000, 0.000, 0.000, 15:09:57.528, 1551730197528
252, -21122.91, 0.00, 0.00, 0.00, 0.00, 0.00, -16227.10, 0.00, 0.000, 0.000, 0.000, 15:09:57.528, 1551730197528
253, -21056.28, 0.00, 0.00, 0.00, 0.00, 0.00, -16170.95, 0.00, 0.000, 0.000, 0.000, 15:09:57.533, 1551730197533
254, -21280.38, 0.00, 0.00, 0.00, 0.00, 0.00, -16233.78, 0.00, 0.000, 0.000, 0.000, 15:09:57.534, 1551730197534
255, -21271.15, 0.00, 0.00, 0.00, 0.00, 0.00, -16272.74, 0.00, 0.000, 0.000, 0.000, 15:09:57.540, 1551730197540
0, -21140.30, 0.00, 0.00, 0.00, 0.00, 0.00, -16237.69, 0.00, 0.000, 0.000, 0.000, 15:09:57.548, 1551730197548
1, -21046.54, 0.00, 0.00, 0.00, 0.00, 0.00, -16180.94, 0.00, -0.702, 0.592, -0.348, 15:09:57.549, 1551730197549
2, -21247.99, 0.00, 0.00, 0.00, 0.00, 0.00, -16222.78, 0.00, 0.000, 0.000, 0.000, 15:09:57.556, 1551730197556
3, -21294.93, 0.00, 0.00, 0.00, 0.00, 0.00, -16279.38, 0.00, 0.000, 0.000, 0.000, 15:09:57.557, 1551730197557
4, -21169.92, 0.00, 0.00, 0.00, 0.00, 0.00, -16255.10, 0.00, 0.000, 0.000, 0.000, 15:09:57.564, 1551730197564
5, -21035.63, 0.00, 0.00, 0.00, 0.00, 0.00, -16193.06, 0.00, 0.000, 0.000, 0.000, 15:09:57.565, 1551730197565
6, -21191.64, 0.00, 0.00, 0.00, 0.00, 0.00, -16207.14, 0.00, 0.000, 0.000, 0.000, 15:09:57.571, 1551730197571
7, -21306.22, 0.00, 0.00, 0.00, 0.00, 0.00, -16277.01, 0.00, 0.000, 0.000, 0.000, 15:09:57.572, 1551730197572
8, -21173.34, 0.00, 0.00, 0.00, 0.00, 0.00, -16252.40, 0.00, 0.000, 0.000, 0.000, 15:09:57.579, 1551730197579
9, -21039.07, 0.00, 0.00, 0.00, 0.00, 0.00, -16191.33, 0.00, 0.000, 0.000, 0.000, 15:09:57.580, 1551730197580
10, -21139.88, 0.00, 0.00, 0.00, 0.00, 0.00, -16184.05, 0.00, 0.000, 0.000, 0.000, 15:09:57.586, 1551730197586
11, -21306.49, 0.00, 0.00, 0.00, 0.00, 0.00, -16260.13, 0.00, -0.706, 0.594, -0.342, 15:09:57.586, 1551730197586
12, -21198.91, 0.00, 0.00, 0.00, 0.00, 0.00, -16254.77, 0.00, 0.000, 0.000, 0.000, 15:09:57.594, 1551730197594
13, -21074.88, 0.00, 0.00, 0.00, 0.00, 0.00, -16204.77, 0.00, 0.000, 0.000, 0.000, 15:09:57.594, 1551730197594
14, -21096.58, 0.00, 0.00, 0.00, 0.00, 0.00, -16165.32, 0.00, 0.000, 0.000, 0.000, 15:09:57.600, 1551730197600
15, -21296.52, 0.00, 0.00, 0.00, 0.00, 0.00, -16236.87, 0.00, 0.000, 0.000, 0.000, 15:09:57.610, 1551730197610
16, -21221.21, 0.00, 0.00, 0.00, 0.00, 0.00, -16253.00, 0.00, 0.000, 0.000, 0.000, 15:09:57.611, 1551730197611
17, -21089.47, 0.00, 0.00, 0.00, 0.00, 0.00, -16208.03, 0.00, 0.000, 0.000, 0.000, 15:09:57.615, 1551730197615
18, -21060.57, 0.00, 0.00, 0.00, 0.00, 0.00, -16163.98, 0.00, 0.000, 0.000, 0.000, 15:09:57.615, 1551730197615
19, -21283.71, 0.00, 0.00, 0.00, 0.00, 0.00, -16235.86, 0.00, 0.000, 0.000, 0.000, 15:09:57.623, 1551730197623
20, -21247.39, 0.00, 0.00, 0.00, 0.00, 0.00, -16265.88, 0.00, -0.714, 0.594, -0.346, 15:09:57.623, 1551730197623
21, -21113.37, 0.00, 0.00, 0.00, 0.00, 0.00, -16227.57, 0.00, 0.000, 0.000, 0.000, 15:09:57.632, 1551730197632
22, -21034.71, 0.00, 0.00, 0.00, 0.00, 0.00, -16176.94, 0.00, 0.000, 0.000, 0.000, 15:09:57.633, 1551730197633
23, -21250.72, 0.00, 0.00, 0.00, 0.00, 0.00, -16232.37, 0.00, 0.000, 0.000, 0.000, 15:09:57.646, 1551730197646
24, -21260.35, 0.00, 0.00, 0.00, 0.00, 0.00, -16272.76, 0.00, 0.000, 0.000, 0.000, 15:09:57.647, 1551730197647
25, -21141.98, 0.00, 0.00, 0.00, 0.00, 0.00, -16253.07, 0.00, 0.000, 0.000, 0.000, 15:09:57.648, 1551730197648
26, -21027.80, 0.00, 0.00, 0.00, 0.00, 0.00, -16191.85, 0.00, 0.000, 0.000, 0.000, 15:09:57.648, 1551730197648
27, -21217.93, 0.00, 0.00, 0.00, 0.00, 0.00, -16219.03, 0.00, 0.000, 0.000, 0.000, 15:09:57.654, 1551730197654
28, -21287.96, 0.00, 0.00, 0.00, 0.00, 0.00, -16276.41, 0.00, 0.000, 0.000, 0.000, 15:09:57.654, 1551730197654
29, -21159.03, 0.00, 0.00, 0.00, 0.00, 0.00, -16250.37, 0.00, 0.000, 0.000, 0.000, 15:09:57.661, 1551730197661
30, -21030.64, 0.00, 0.00, 0.00, 0.00, 0.00, -16187.20, 0.00, -0.708, 0.590, -0.348, 15:09:57.668, 1551730197668
31, -21175.37, 0.00, 0.00, 0.00, 0.00, 0.00, -16196.63, 0.00, 0.000, 0.000, 0.000, 15:09:57.668, 1551730197668
32, -21300.34, 0.00, 0.00, 0.00, 0.00, 0.00, -16267.42, 0.00, 0.000, 0.000, 0.000, 15:09:57.679, 1551730197679
33, -21180.85, 0.00, 0.00, 0.00, 0.00, 0.00, -16251.06, 0.00, 0.000, 0.000, 0.000, 15:09:57.680, 1551730197680
34, -21054.34, 0.00, 0.00, 0.00, 0.00, 0.00, -16194.80, 0.00, 0.000, 0.000, 0.000, 15:09:57.686, 1551730197686
35, -21129.30, 0.00, 0.00, 0.00, 0.00, 0.00, -16174.37, 0.00, 0.000, 0.000, 0.000, 15:09:57.687, 1551730197687
36, -21315.20, 0.00, 0.00, 0.00, 0.00, 0.00, -16254.66, 0.00, 0.000, 0.000, 0.000, 15:09:57.690, 1551730197690
37, -21219.09, 0.00, 0.00, 0.00, 0.00, 0.00, -16260.54, 0.00, 0.000, 0.000, 0.000, 15:09:57.691, 1551730197691
38, -21082.97, 0.00, 0.00, 0.00, 0.00, 0.00, -16205.75, 0.00, 0.000, 0.000, 0.000, 15:09:57.698, 1551730197698
39, -21087.93, 0.00, 0.00, 0.00, 0.00, 0.00, -16169.05, 0.00, 0.000, 0.000, 0.000, 15:09:57.698, 1551730197698
40, -21308.74, 0.00, 0.00, 0.00, 0.00, 0.00, -16249.81, 0.00, -0.706, 0.596, -0.350, 15:09:57.706, 1551730197706
41, -21231.09, 0.00, 0.00, 0.00, 0.00, 0.00, -16257.29, 0.00, 0.000, 0.000, 0.000, 15:09:57.706, 1551730197706
42, -21097.52, 0.00, 0.00, 0.00, 0.00, 0.00, -16215.32, 0.00, 0.000, 0.000, 0.000, 15:09:57.714, 1551730197714
43, -21061.98, 0.00, 0.00, 0.00, 0.00, 0.00, -16170.17, 0.00, 0.000, 0.000, 0.000, 15:09:57.715, 1551730197715
44, -21284.27, 0.00, 0.00, 0.00, 0.00, 0.00, -16233.69, 0.00, 0.000, 0.000, 0.000, 15:09:57.720, 1551730197720
45, -21255.39, 0.00, 0.00, 0.00, 0.00, 0.00, -16270.06, 0.00, 0.000, 0.000, 0.000, 15:09:57.720, 1551730197720
46, -21124.48, 0.00, 0.00, 0.00, 0.00, 0.00, -16236.37, 0.00, 0.000, 0.000, 0.000, 15:09:57.728, 1551730197728
47, -21033.19, 0.00, 0.00, 0.00, 0.00, 0.00, -16177.52, 0.00, 0.000, 0.000, 0.000, 15:09:57.736, 1551730197736
48, -21241.46, 0.00, 0.00, 0.00, 0.00, 0.00, -16223.88, 0.00, 0.000, 0.000, 0.000, 15:09:57.736, 1551730197736
49, -21268.15, 0.00, 0.00, 0.00, 0.00, 0.00, -16270.66, 0.00, 0.000, 0.000, 0.000, 15:09:57.746, 1551730197746
50, -21147.86, 0.00, 0.00, 0.00, 0.00, 0.00, -16239.15, 0.00, -0.710, 0.594, -0.346, 15:09:57.746, 1551730197746
51, -21029.79, 0.00, 0.00, 0.00, 0.00, 0.00, -16172.89, 0.00, 0.000, 0.000, 0.000, 15:09:57.751, 1551730197751
52, -21196.63, 0.00, 0.00, 0.00, 0.00, 0.00, -16190.31, 0.00, 0.000, 0.000, 0.000, 15:09:57.751, 1551730197751
53, -21289.50, 0.00, 0.00, 0.00, 0.00, 0.00, -16253.79, 0.00, 0.000, 0.000, 0.000, 15:09:57.758, 1551730197758
54, -21169.94, 0.00, 0.00, 0.00, 0.00, 0.00, -16235.32, 0.00, 0.000, 0.000, 0.000, 15:09:57.759, 1551730197759
55, -21033.42, 0.00, 0.00, 0.00, 0.00, 0.00, -16169.94, 0.00, 0.000, 0.000, 0.000, 15:09:57.767, 1551730197767
56, -21150.81, 0.00, 0.00, 0.00, 0.00, 0.00, -16164.89, 0.00, 0.000, 0.000, 0.000, 15:09:57.767, 1551730197767
57, -21301.48, 0.00, 0.00, 0.00, 0.00, 0.00, -16241.02, 0.00, 0.000, 0.000, 0.000, 15:09:57.774, 1551730197774
58, -21186.93, 0.00, 0.00, 0.00, 0.00, 0.00, -16236.55, 0.00, 0.000, 0.000, 0.000, 15:09:57.774, 1551730197774
59, -21052.93, 0.00, 0.00, 0.00, 0.00, 0.00, -16178.28, 0.00, 0.000, 0.000, 0.000, 15:09:57.781, 1551730197781
60, -21111.69, 0.00, 0.00, 0.00, 0.00, 0.00, -16156.60, 0.00, -0.708, 0.590, -0.346, 15:09:57.781, 1551730197781
61, -21306.04, 0.00, 0.00, 0.00, 0.00, 0.00, -16235.30, 0.00, 0.000, 0.000, 0.000, 15:09:57.789, 1551730197789
62, -21203.78, 0.00, 0.00, 0.00, 0.00, 0.00, -16237.67, 0.00, 0.000, 0.000, 0.000, 15:09:57.796, 1551730197796
63, -21074.39, 0.00, 0.00, 0.00, 0.00, 0.00, -16191.07, 0.00, 0.000, 0.000, 0.000, 15:09:57.797, 1551730197797
64, -21061.85, 0.00, 0.00, 0.00, 0.00, 0.00, -16150.39, 0.00, 0.000, 0.000, 0.000, 15:09:57.803, 1551730197803
65, -21279.06, 0.00, 0.00, 0.00, 0.00, 0.00, -16222.85, 0.00, 0.000, 0.000, 0.000, 15:09:57.803, 1551730197803
66, -21224.57, 0.00, 0.00, 0.00, 0.00, 0.00, -16249.63, 0.00, 0.000, 0.000, 0.000, 15:09:57.819, 1551730197819
67, -21101.30, 0.00, 0.00, 0.00, 0.00, 0.00, -16207.76, 0.00, 0.000, 0.000, 0.000, 15:09:57.819, 1551730197819
68, -21038.15, 0.00, 0.00, 0.00, 0.00, 0.00, -16158.30, 0.00, 0.000, 0.000, 0.000, 15:09:57.820, 1551730197820
69, -21259.77, 0.00, 0.00, 0.00, 0.00, 0.00, -16219.86, 0.00, 0.000, 0.000, 0.000, 15:09:57.820, 1551730197820
70, -21251.90, 0.00, 0.00, 0.00, 0.00, 0.00, -16260.89, 0.00, -0.704, 0.596, -0.346, 15:09:57.826, 1551730197826
71, -21131.54, 0.00, 0.00, 0.00, 0.00, 0.00, -16229.42, 0.00, 0.000, 0.000, 0.000, 15:09:57.826, 1551730197826
72, -21024.65, 0.00, 0.00, 0.00, 0.00, 0.00, -16165.36, 0.00, 0.000, 0.000, 0.000, 15:09:57.833, 1551730197833
73, -21221.35, 0.00, 0.00, 0.00, 0.00, 0.00, -16206.15, 0.00, 0.000, 0.000, 0.000, 15:09:57.834, 1551730197834
74, -21280.45, 0.00, 0.00, 0.00, 0.00, 0.00, -16265.83, 0.00, 0.000, 0.000, 0.000, 15:09:57.841, 1551730197841
75, -21157.38, 0.00, 0.00, 0.00, 0.00, 0.00, -16239.41, 0.00, 0.000, 0.000, 0.000, 15:09:57.841, 1551730197841
76, -21039.92, 0.00, 0.00, 0.00, 0.00, 0.00, -16181.28, 0.00, 0.000, 0.000, 0.000, 15:09:57.849, 1551730197849
77, -21192.87, 0.00, 0.00, 0.00, 0.00, 0.00, -16194.89, 0.00, 0.000, 0.000, 0.000, 15:09:57.855, 1551730197855
78, -21301.64, 0.00, 0.00, 0.00, 0.00, 0.00, -16264.67, 0.00, 0.000, 0.000, 0.000, 15:09:57.856, 1551730197856
79, -21182.21, 0.00, 0.00, 0.00, 0.00, 0.00, -16251.13, 0.00, 0.000, 0.000, 0.000, 15:09:57.863, 1551730197863
80, -21048.90, 0.00, 0.00, 0.00, 0.00, 0.00, -16183.91, 0.00, -0.706, 0.594, -0.348, 15:09:57.863, 1551730197863
81, -21147.50, 0.00, 0.00, 0.00, 0.00, 0.00, -16176.18, 0.00, 0.000, 0.000, 0.000, 15:09:57.871, 1551730197871
82, -21315.36, 0.00, 0.00, 0.00, 0.00, 0.00, -16254.39, 0.00, 0.000, 0.000, 0.000, 15:09:57.871, 1551730197871
83, -21207.49, 0.00, 0.00, 0.00, 0.00, 0.00, -16251.98, 0.00, 0.000, 0.000, 0.000, 15:09:57.879, 1551730197879
84, -21073.54, 0.00, 0.00, 0.00, 0.00, 0.00, -16200.90, 0.00, 0.000, 0.000, 0.000, 15:09:57.880, 1551730197880
85, -21098.62, 0.00, 0.00, 0.00, 0.00, 0.00, -16173.30, 0.00, 0.000, 0.000, 0.000, 15:09:57.888, 1551730197888
86, -21309.17, 0.00, 0.00, 0.00, 0.00, 0.00, -16250.81, 0.00, 0.000, 0.000, 0.000, 15:09:57.889, 1551730197889
87, -21237.20, 0.00, 0.00, 0.00, 0.00, 0.00, -16264.67, 0.00, 0.000, 0.000, 0.000, 15:09:57.893, 1551730197893
88, -21095.20, 0.00, 0.00, 0.00, 0.00, 0.00, -16215.77, 0.00, 0.000, 0.000, 0.000, 15:09:57.894, 1551730197894
89, -21061.51, 0.00, 0.00, 0.00, 0.00, 0.00, -16170.30, 0.00, -0.708, 0.596, -0.344, 15:09:57.902, 1551730197902
90, -21293.05, 0.00, 0.00, 0.00, 0.00, 0.00, -16246.19, 0.00, 0.000, 0.000, 0.000, 15:09:57.902, 1551730197902
91, -21246.99, 0.00, 0.00, 0.00, 0.00, 0.00, -16274.39, 0.00, 0.000, 0.000, 0.000, 15:09:57.909, 1551730197909
92, -21118.80, 0.00, 0.00, 0.00, 0.00, 0.00, -16236.17, 0.00, 0.000, 0.000, 0.000, 15:09:57.916, 1551730197916
93, -21040.41, 0.00, 0.00, 0.00, 0.00, 0.00, -16178.73, 0.00, 0.000, 0.000, 0.000, 15:09:57.916, 1551730197916
94, -21255.41, 0.00, 0.00, 0.00, 0.00, 0.00, -16228.66, 0.00, 0.000, 0.000, 0.000, 15:09:57.924, 1551730197924
95, -21270.41, 0.00, 0.00, 0.00, 0.00, 0.00, -16277.68, 0.00, 0.000, 0.000, 0.000, 15:09:57.924, 1551730197924
96, -21137.48, 0.00, 0.00, 0.00, 0.00, 0.00, -16243.46, 0.00, 0.000, 0.000, 0.000, 15:09:57.931, 1551730197931
97, -21035.94, 0.00, 0.00, 0.00, 0.00, 0.00, -16181.39, 0.00, 0.000, 0.000, 0.000, 15:09:57.932, 1551730197932
98, -21227.72, 0.00, 0.00, 0.00, 0.00, 0.00, -16218.92, 0.00, 0.000, 0.000, 0.000, 15:09:57.938, 1551730197938
99, -21290.04, 0.00, 0.00, 0.00, 0.00, 0.00, -16272.00, 0.00, -0.714, 0.592, -0.346, 15:09:57.938, 1551730197938
100, -21170.61, 0.00, 0.00, 0.00, 0.00, 0.00, -16246.48, 0.00, 0.000, 0.000, 0.000, 15:09:57.946, 1551730197946
101, -21048.14, 0.00, 0.00, 0.00, 0.00, 0.00, -16186.13, 0.00, 0.000, 0.000, 0.000, 15:09:57.947, 1551730197947
102, -21175.73, 0.00, 0.00, 0.00, 0.00, 0.00, -16190.17, 0.00, 0.000, 0.000, 0.000, 15:09:57.955, 1551730197955
103, -21322.51, 0.00, 0.00, 0.00, 0.00, 0.00, -16269.72, 0.00, 0.000, 0.000, 0.000, 15:09:57.955, 1551730197955
104, -21191.53, 0.00, 0.00, 0.00, 0.00, 0.00, -16250.12, 0.00, 0.000, 0.000, 0.000, 15:09:57.961, 1551730197961
105, -21060.30, 0.00, 0.00, 0.00, 0.00, 0.00, -16196.57, 0.00, 0.000, 0.000, 0.000, 15:09:57.961, 1551730197961
106, -21126.13, 0.00, 0.00, 0.00, 0.00, 0.00, -16184.58, 0.00, 0.000, 0.000, 0.000, 15:09:57.967, 1551730197967
107, -21309.17, 0.00, 0.00, 0.00, 0.00, 0.00, -16261.50, 0.00, 0.000, 0.000, 0.000, 15:09:57.968, 1551730197968
108, -21213.19, 0.00, 0.00, 0.00, 0.00, 0.00, -16264.29, 0.00, 0.000, 0.000, 0.000, 15:09:57.975, 1551730197975
109, -21080.64, 0.00, 0.00, 0.00, 0.00, 0.00, -16217.13, 0.00, -0.712, 0.592, -0.346, 15:09:57.984, 1551730197984
110, -21087.30, 0.00, 0.00, 0.00, 0.00, 0.00, -16183.42, 0.00, 0.000, 0.000, 0.000, 15:09:57.984, 1551730197984
111, -21302.75, 0.00, 0.00, 0.00, 0.00, 0.00, -16257.00, 0.00, 0.000, 0.000, 0.000, 15:09:57.990, 1551730197990
112, -21231.97, 0.00, 0.00, 0.00, 0.00, 0.00, -16276.76, 0.00, 0.000, 0.000, 0.000, 15:09:57.991, 1551730197991
113, -21113.03, 0.00, 0.00, 0.00, 0.00, 0.00, -16240.38, 0.00, 0.000, 0.000, 0.000, 15:09:57.998, 1551730197998
114, -21063.75, 0.00, 0.00, 0.00, 0.00, 0.00, -16193.82, 0.00, 0.000, 0.000, 0.000, 15:09:57.998, 1551730197998
115, -21285.23, 0.00, 0.00, 0.00, 0.00, 0.00, -16252.56, 0.00, 0.000, 0.000, 0.000, 15:09:58.007, 1551730198007
116, -21276.40, 0.00, 0.00, 0.00, 0.00, 0.00, -16296.83, 0.00, 0.000, 0.000, 0.000, 15:09:58.007, 1551730198007
117, -21148.08, 0.00, 0.00, 0.00, 0.00, 0.00, -16257.45, 0.00, 0.000, 0.000, 0.000, 15:09:58.014, 1551730198014
118, -21051.14, 0.00, 0.00, 0.00, 0.00, 0.00, -16192.77, 0.00, 0.000, 0.000, 0.000, 15:09:58.014, 1551730198014
119, -21265.99, 0.00, 0.00, 0.00, 0.00, 0.00, -16236.20, 0.00, -0.714, 0.594, -0.346, 15:09:58.021, 1551730198021
120, -21286.33, 0.00, 0.00, 0.00, 0.00, 0.00, -16277.05, 0.00, 0.000, 0.000, 0.000, 15:09:58.021, 1551730198021
121, -21158.45, 0.00, 0.00, 0.00, 0.00, 0.00, -16241.65, 0.00, 0.000, 0.000, 0.000, 15:09:58.029, 1551730198029
122, -21024.32, 0.00, 0.00, 0.00, 0.00, 0.00, -16169.39, 0.00, 0.000, 0.000, 0.000, 15:09:58.030, 1551730198030
123, -21195.58, 0.00, 0.00, 0.00, 0.00, 0.00, -16194.75, 0.00, 0.000, 0.000, 0.000, 15:09:58.036, 1551730198036
124, -21296.92, 0.00, 0.00, 0.00, 0.00, 0.00, -16265.25, 0.00, 0.000, 0.000, 0.000, 15:09:58.044, 1551730198044
125, -21170.79, 0.00, 0.00, 0.00, 0.00, 0.00, -16243.41, 0.00, 0.000, 0.000, 0.000, 15:09:58.044, 1551730198044
126, -21048.68, 0.00, 0.00, 0.00, 0.00, 0.00, -16189.57, 0.00, 0.000, 0.000, 0.000, 15:09:58.055, 1551730198055
127, -21165.07, 0.00, 0.00, 0.00, 0.00, 0.00, -16194.73, 0.00, 0.000, 0.000, 0.000, 15:09:58.055, 1551730198055
128, -21312.50, 0.00, 0.00, 0.00, 0.00, 0.00, -16269.01, 0.00, 0.000, 0.000, 0.000, 15:09:58.059, 1551730198059
129, -21199.87, 0.00, 0.00, 0.00, 0.00, 0.00, -16260.58, 0.00, -0.714, 0.594, -0.346, 15:09:58.059, 1551730198059
130, -21067.77, 0.00, 0.00, 0.00, 0.00, 0.00, -16208.90, 0.00, 0.000, 0.000, 0.000, 15:09:58.066, 1551730198066
131, -21115.20, 0.00, 0.00, 0.00, 0.00, 0.00, -16188.85, 0.00, 0.000, 0.000, 0.000, 15:09:58.067, 1551730198067
132, -21309.39, 0.00, 0.00, 0.00, 0.00, 0.00, -16261.05, 0.00, 0.000, 0.000, 0.000, 15:09:58.074, 1551730198074
133, -21223.12, 0.00, 0.00, 0.00, 0.00, 0.00, -16268.31, 0.00, 0.000, 0.000, 0.000, 15:09:58.074, 1551730198074
134, -21087.84, 0.00, 0.00, 0.00, 0.00, 0.00, -16219.34, 0.00, 0.000, 0.000, 0.000, 15:09:58.084, 1551730198084
135, -21091.96, 0.00, 0.00, 0.00, 0.00, 0.00, -16188.94, 0.00, 0.000, 0.000, 0.000, 15:09:58.084, 1551730198084
136, -21292.07, 0.00, 0.00, 0.00, 0.00, 0.00, -16249.70, 0.00, 0.000, 0.000, 0.000, 15:09:58.090, 1551730198090
137, -21228.10, 0.00, 0.00, 0.00, 0.00, 0.00, -16270.35, 0.00, 0.000, 0.000, 0.000, 15:09:58.090, 1551730198090
138, -21107.36, 0.00, 0.00, 0.00, 0.00, 0.00, -16230.47, 0.00, 0.000, 0.000, 0.000, 15:09:58.096, 1551730198096
139, -21047.05, 0.00, 0.00, 0.00, 0.00, 0.00, -16179.33, 0.00, -0.714, 0.592, -0.350, 15:09:58.103, 1551730198103
140, -21266.39, 0.00, 0.00, 0.00, 0.00, 0.00, -16236.66, 0.00, 0.000, 0.000, 0.000, 15:09:58.103, 1551730198103
141, -21263.66, 0.00, 0.00, 0.00, 0.00, 0.00, -16273.97, 0.00, 0.000, 0.000, 0.000, 15:09:58.111, 1551730198111
142, -21131.36, 0.00, 0.00, 0.00, 0.00, 0.00, -16236.87, 0.00, 0.000, 0.000, 0.000, 15:09:58.111, 1551730198111
143, -21031.58, 0.00, 0.00, 0.00, 0.00, 0.00, -16175.42, 0.00, 0.000, 0.000, 0.000, 15:09:58.119, 1551730198119
144, -21227.38, 0.00, 0.00, 0.00, 0.00, 0.00, -16211.63, 0.00, 0.000, 0.000, 0.000, 15:09:58.120, 1551730198120
145, -21290.15, 0.00, 0.00, 0.00, 0.00, 0.00, -16271.29, 0.00, 0.000, 0.000, 0.000, 15:09:58.126, 1551730198126
146, -21170.54, 0.00, 0.00, 0.00, 0.00, 0.00, -16249.02, 0.00, 0.000, 0.000, 0.000, 15:09:58.126, 1551730198126
147, -21039.47, 0.00, 0.00, 0.00, 0.00, 0.00, -16188.23, 0.00, 0.000, 0.000, 0.000, 15:09:58.133, 1551730198133
148, -21188.71, 0.00, 0.00, 0.00, 0.00, 0.00, -16205.21, 0.00, -0.712, 0.592, -0.346, 15:09:58.134, 1551730198134
149, -21307.29, 0.00, 0.00, 0.00, 0.00, 0.00, -16274.08, 0.00, 0.000, 0.000, 0.000, 15:09:58.142, 1551730198142
150, -21182.55, 0.00, 0.00, 0.00, 0.00, 0.00, -16254.99, 0.00, 0.000, 0.000, 0.000, 15:09:58.142, 1551730198142
151, -21048.68, 0.00, 0.00, 0.00, 0.00, 0.00, -16202.13, 0.00, 0.000, 0.000, 0.000, 15:09:58.162, 1551730198162
152, -21148.53, 0.00, 0.00, 0.00, 0.00, 0.00, -16191.60, 0.00, 0.000, 0.000, 0.000, 15:09:58.163, 1551730198163
153, -21311.58, 0.00, 0.00, 0.00, 0.00, 0.00, -16270.48, 0.00, 0.000, 0.000, 0.000, 15:09:58.163, 1551730198163
154, -21199.80, 0.00, 0.00, 0.00, 0.00, 0.00, -16263.78, 0.00, 0.000, 0.000, 0.000, 15:09:58.164, 1551730198164
155, -21071.21, 0.00, 0.00, 0.00, 0.00, 0.00, -16213.71, 0.00, 0.000, 0.000, 0.000, 15:09:58.164, 1551730198164
156, -21097.21, 0.00, 0.00, 0.00, 0.00, 0.00, -16184.61, 0.00, 0.000, 0.000, 0.000, 15:09:58.172, 1551730198172
157, -21306.24, 0.00, 0.00, 0.00, 0.00, 0.00, -16261.72, 0.00, 0.000, 0.000, 0.000, 15:09:58.173, 1551730198173
158, -21228.12, 0.00, 0.00, 0.00, 0.00, 0.00, -16275.29, 0.00, -0.710, 0.590, -0.356, 15:09:58.179, 1551730198179
159, -21108.23, 0.00, 0.00, 0.00, 0.00, 0.00, -16235.23, 0.00, 0.000, 0.000, 0.000, 15:09:58.180, 1551730198180
160, -21058.85, 0.00, 0.00, 0.00, 0.00, 0.00, -16181.66, 0.00, 0.000, 0.000, 0.000, 15:09:58.185, 1551730198185
161, -21285.28, 0.00, 0.00, 0.00, 0.00, 0.00, -16248.80, 0.00, 0.000, 0.000, 0.000, 15:09:58.186, 1551730198186
162, -21256.84, 0.00, 0.00, 0.00, 0.00, 0.00, -16280.47, 0.00, 0.000, 0.000, 0.000, 15:09:58.201, 1551730198201
163, -21126.62, 0.00, 0.00, 0.00, 0.00, 0.00, -16240.13, 0.00, 0.000, 0.000, 0.000, 15:09:58.204, 1551730198204
164, -21046.78, 0.00, 0.00, 0.00, 0.00, 0.00, -16186.31, 0.00, 0.000, 0.000, 0.000, 15:09:58.208, 1551730198208
165, -21261.85, 0.00, 0.00, 0.00, 0.00, 0.00, -16233.87, 0.00, 0.000, 0.000, 0.000, 15:09:58.208, 1551730198208
166, -21274.88, 0.00, 0.00, 0.00, 0.00, 0.00, -16276.79, 0.00, 0.000, 0.000, 0.000, 15:09:58.209, 1551730198209
167, -21151.72, 0.00, 0.00, 0.00, 0.00, 0.00, -16250.59, 0.00, 0.000, 0.000, 0.000, 15:09:58.209, 1551730198209
168, -21043.18, 0.00, 0.00, 0.00, 0.00, 0.00, -16191.38, 0.00, -0.706, 0.598, -0.354, 15:09:58.215, 1551730198215
169, -21221.39, 0.00, 0.00, 0.00, 0.00, 0.00, -16221.98, 0.00, 0.000, 0.000, 0.000, 15:09:58.215, 1551730198215
170, -21299.98, 0.00, 0.00, 0.00, 0.00, 0.00, -16283.60, 0.00, 0.000, 0.000, 0.000, 15:09:58.223, 1551730198223
171, -21176.80, 0.00, 0.00, 0.00, 0.00, 0.00, -16260.71, 0.00, 0.000, 0.000, 0.000, 15:09:58.237, 1551730198237
172, -21053.09, 0.00, 0.00, 0.00, 0.00, 0.00, -16200.68, 0.00, 0.000, 0.000, 0.000, 15:09:58.237, 1551730198237
173, -21180.06, 0.00, 0.00, 0.00, 0.00, 0.00, -16206.49, 0.00, 0.000, 0.000, 0.000, 15:09:58.238, 1551730198238
174, -21317.19, 0.00, 0.00, 0.00, 0.00, 0.00, -16278.71, 0.00, 0.000, 0.000, 0.000, 15:09:58.239, 1551730198239
175, -21203.69, 0.00, 0.00, 0.00, 0.00, 0.00, -16268.49, 0.00, 0.000, 0.000, 0.000, 15:09:58.246, 1551730198246
176, -21063.37, 0.00, 0.00, 0.00, 0.00, 0.00, -16210.85, 0.00, 0.000, 0.000, 0.000, 15:09:58.246, 1551730198246
177, -21131.81, 0.00, 0.00, 0.00, 0.00, 0.00, -16193.21, 0.00, 0.000, 0.000, 0.000, 15:09:58.254, 1551730198254
178, -21314.18, 0.00, 0.00, 0.00, 0.00, 0.00, -16269.12, 0.00, -0.708, 0.590, -0.348, 15:09:58.255, 1551730198255
179, -21215.63, 0.00, 0.00, 0.00, 0.00, 0.00, -16271.09, 0.00, 0.000, 0.000, 0.000, 15:09:58.273, 1551730198273
180, -21083.73, 0.00, 0.00, 0.00, 0.00, 0.00, -16220.95, 0.00, 0.000, 0.000, 0.000, 15:09:58.274, 1551730198274
181, -21083.48, 0.00, 0.00, 0.00, 0.00, 0.00, -16181.50, 0.00, 0.000, 0.000, 0.000, 15:09:58.274, 1551730198274
182, -21298.17, 0.00, 0.00, 0.00, 0.00, 0.00, -16254.61, 0.00, 0.000, 0.000, 0.000, 15:09:58.274, 1551730198274
183, -21234.85, 0.00, 0.00, 0.00, 0.00, 0.00, -16276.12, 0.00, 0.000, 0.000, 0.000, 15:09:58.277, 1551730198277
184, -21109.19, 0.00, 0.00, 0.00, 0.00, 0.00, -16235.03, 0.00, 0.000, 0.000, 0.000, 15:09:58.277, 1551730198277
185, -21049.62, 0.00, 0.00, 0.00, 0.00, 0.00, -16177.34, 0.00, 0.000, 0.000, 0.000, 15:09:58.283, 1551730198283
186, -21276.51, 0.00, 0.00, 0.00, 0.00, 0.00, -16244.35, 0.00, 0.000, 0.000, 0.000, 15:09:58.291, 1551730198291
187, -21254.99, 0.00, 0.00, 0.00, 0.00, 0.00, -16273.05, 0.00, 0.000, 0.000, 0.000, 15:09:58.292, 1551730198292
188, -21129.28, 0.00, 0.00, 0.00, 0.00, 0.00, -16230.94, 0.00, -0.708, 0.598, -0.348, 15:09:58.298, 1551730198298
189, -21037.95, 0.00, 0.00, 0.00, 0.00, 0.00, -16173.48, 0.00, 0.000, 0.000, 0.000, 15:09:58.299, 1551730198299
190, -21241.96, 0.00, 0.00, 0.00, 0.00, 0.00, -16213.62, 0.00, 0.000, 0.000, 0.000, 15:09:58.307, 1551730198307
191, -21282.62, 0.00, 0.00, 0.00, 0.00, 0.00, -16265.25, 0.00, 0.000, 0.000, 0.000, 15:09:58.307, 1551730198307
192, -21160.71, 0.00, 0.00, 0.00, 0.00, 0.00, -16239.75, 0.00, 0.000, 0.000, 0.000, 15:09:58.314, 1551730198314
193, -21044.01, 0.00, 0.00, 0.00, 0.00, 0.00, -16182.30, 0.00, 0.000, 0.000, 0.000, 15:09:58.314, 1551730198314
194, -21215.40, 0.00, 0.00, 0.00, 0.00, 0.00, -16204.66, 0.00, 0.000, 0.000, 0.000, 15:09:58.321, 1551730198321
195, -21305.03, 0.00, 0.00, 0.00, 0.00, 0.00, -16265.77, 0.00, 0.000, 0.000, 0.000, 15:09:58.321, 1551730198321
196, -21185.32, 0.00, 0.00, 0.00, 0.00, 0.00, -16248.47, 0.00, 0.000, 0.000, 0.000, 15:09:58.329, 1551730198329
197, -21048.12, 0.00, 0.00, 0.00, 0.00, 0.00, -16186.95, 0.00, 0.000, 0.000, 0.000, 15:09:58.329, 1551730198329
198, -21159.37, 0.00, 0.00, 0.00, 0.00, 0.00, -16185.55, 0.00, -0.716, 0.596, -0.344, 15:09:58.337, 1551730198337
199, -21324.50, 0.00, 0.00, 0.00, 0.00, 0.00, -16262.82, 0.00, 0.000, 0.000, 0.000, 15:09:58.337, 1551730198337
200, -21216.10, 0.00, 0.00, 0.00, 0.00, 0.00, -16257.97, 0.00, 0.000, 0.000, 0.000, 15:09:58.343, 1551730198343
201, -21073.09, 0.00, 0.00, 0.00, 0.00, 0.00, -16205.39, 0.00, 0.000, 0.000, 0.000, 15:09:58.350, 1551730198350
202, -21119.63, 0.00, 0.00, 0.00, 0.00, 0.00, -16182.10, 0.00, 0.000, 0.000, 0.000, 15:09:58.350, 1551730198350
203, -21314.38, 0.00, 0.00, 0.00, 0.00, 0.00, -16251.04, 0.00, 0.000, 0.000, 0.000, 15:09:58.358, 1551730198358
204, -21226.76, 0.00, 0.00, 0.00, 0.00, 0.00, -16261.50, 0.00, 0.000, 0.000, 0.000, 15:09:58.358, 1551730198358
205, -21097.43, 0.00, 0.00, 0.00, 0.00, 0.00, -16218.22, 0.00, 0.000, 0.000, 0.000, 15:09:58.367, 1551730198367
206, -21069.18, 0.00, 0.00, 0.00, 0.00, 0.00, -16171.98, 0.00, 0.000, 0.000, 0.000, 15:09:58.367, 1551730198367
207, -21292.20, 0.00, 0.00, 0.00, 0.00, 0.00, -16239.39, 0.00, -0.710, 0.596, -0.350, 15:09:58.373, 1551730198373
208, -21246.72, 0.00, 0.00, 0.00, 0.00, 0.00, -16266.06, 0.00, 0.000, 0.000, 0.000, 15:09:58.373, 1551730198373
209, -21124.50, 0.00, 0.00, 0.00, 0.00, 0.00, -16229.47, 0.00, 0.000, 0.000, 0.000, 15:09:58.381, 1551730198381
210, -21052.97, 0.00, 0.00, 0.00, 0.00, 0.00, -16172.36, 0.00, 0.000, 0.000, 0.000, 15:09:58.381, 1551730198381
211, -21271.80, 0.00, 0.00, 0.00, 0.00, 0.00, -16225.22, 0.00, 0.000, 0.000, 0.000, 15:09:58.389, 1551730198389
212, -21274.26, 0.00, 0.00, 0.00, 0.00, 0.00, -16266.26, 0.00, 0.000, 0.000, 0.000, 15:09:58.389, 1551730198389
213, -21147.74, 0.00, 0.00, 0.00, 0.00, 0.00, -16232.98, 0.00, 0.000, 0.000, 0.000, 15:09:58.396, 1551730198396
214, -21046.51, 0.00, 0.00, 0.00, 0.00, 0.00, -16173.14, 0.00, 0.000, 0.000, 0.000, 15:09:58.397, 1551730198397
215, -21234.25, 0.00, 0.00, 0.00, 0.00, 0.00, -16207.74, 0.00, 0.000, 0.000, 0.000, 15:09:58.403, 1551730198403
216, -21298.80, 0.00, 0.00, 0.00, 0.00, 0.00, -16271.89, 0.00, 0.000, 0.000, 0.000, 15:09:58.411, 1551730198411
217, -21181.03, 0.00, 0.00, 0.00, 0.00, 0.00, -16248.62, 0.00, -0.708, 0.592, -0.344, 15:09:58.412, 1551730198412
218, -21047.12, 0.00, 0.00, 0.00, 0.00, 0.00, -16183.00, 0.00, 0.000, 0.000, 0.000, 15:09:58.419, 1551730198419
219, -21194.39, 0.00, 0.00, 0.00, 0.00, 0.00, -16195.83, 0.00, 0.000, 0.000, 0.000, 15:09:58.419, 1551730198419
220, -21318.58, 0.00, 0.00, 0.00, 0.00, 0.00, -16267.51, 0.00, 0.000, 0.000, 0.000, 15:09:58.427, 1551730198427
221, -21198.75, 0.00, 0.00, 0.00, 0.00, 0.00, -16253.85, 0.00, 0.000, 0.000, 0.000, 15:09:58.427, 1551730198427
222, -21059.43, 0.00, 0.00, 0.00, 0.00, 0.00, -16193.10, 0.00, 0.000, 0.000, 0.000, 15:09:58.435, 1551730198435
223, -21148.79, 0.00, 0.00, 0.00, 0.00, 0.00, -16184.76, 0.00, 0.000, 0.000, 0.000, 15:09:58.435, 1551730198435
224, -21318.06, 0.00, 0.00, 0.00, 0.00, 0.00, -16265.27, 0.00, 0.000, 0.000, 0.000, 15:09:58.442, 1551730198442
225, -21219.43, 0.00, 0.00, 0.00, 0.00, 0.00, -16258.90, 0.00, 0.000, 0.000, 0.000, 15:09:58.443, 1551730198443
226, -21084.82, 0.00, 0.00, 0.00, 0.00, 0.00, -16203.36, 0.00, 0.000, 0.000, 0.000, 15:09:58.449, 1551730198449
227, -21097.68, 0.00, 0.00, 0.00, 0.00, 0.00, -16170.84, 0.00, -0.712, 0.592, -0.342, 15:09:58.450, 1551730198450
228, -21306.62, 0.00, 0.00, 0.00, 0.00, 0.00, -16245.72, 0.00, 0.000, 0.000, 0.000, 15:09:58.456, 1551730198456
229, -21237.60, 0.00, 0.00, 0.00, 0.00, 0.00, -16262.28, 0.00, 0.000, 0.000, 0.000, 15:09:58.456, 1551730198456
230, -21107.18, 0.00, 0.00, 0.00, 0.00, 0.00, -16215.25, 0.00, 0.000, 0.000, 0.000, 15:09:58.464, 1551730198464
231, -21068.55, 0.00, 0.00, 0.00, 0.00, 0.00, -16168.31, 0.00, 0.000, 0.000, 0.000, 15:09:58.464, 1551730198464
232, -21291.71, 0.00, 0.00, 0.00, 0.00, 0.00, -16231.30, 0.00, 0.000, 0.000, 0.000, 15:09:58.472, 1551730198472
233, -21260.13, 0.00, 0.00, 0.00, 0.00, 0.00, -16262.70, 0.00, 0.000, 0.000, 0.000, 15:09:58.479, 1551730198479
234, -21131.63, 0.00, 0.00, 0.00, 0.00, 0.00, -16225.89, 0.00, 0.000, 0.000, 0.000, 15:09:58.479, 1551730198479
235, -21046.67, 0.00, 0.00, 0.00, 0.00, 0.00, -16166.99, 0.00, 0.000, 0.000, 0.000, 15:09:58.486, 1551730198486
236, -21260.44, 0.00, 0.00, 0.00, 0.00, 0.00, -16214.31, 0.00, 0.000, 0.000, 0.000, 15:09:58.487, 1551730198487
237, -21281.81, 0.00, 0.00, 0.00, 0.00, 0.00, -16263.49, 0.00, -0.714, 0.596, -0.344, 15:09:58.494, 1551730198494
238, -21163.88, 0.00, 0.00, 0.00, 0.00, 0.00, -16238.63, 0.00, 0.000, 0.000, 0.000, 15:09:58.494, 1551730198494
239, -21050.58, 0.00, 0.00, 0.00, 0.00, 0.00, -16180.14, 0.00, 0.000, 0.000, 0.000, 15:09:58.502, 1551730198502
240, -21224.50, 0.00, 0.00, 0.00, 0.00, 0.00, -16206.49, 0.00, 0.000, 0.000, 0.000, 15:09:58.502, 1551730198502
241, -21312.28, 0.00, 0.00, 0.00, 0.00, 0.00, -16273.28, 0.00, 0.000, 0.000, 0.000, 15:09:58.509, 1551730198509
242, -21185.74, 0.00, 0.00, 0.00, 0.00, 0.00, -16250.70, 0.00, 0.000, 0.000, 0.000, 15:09:58.509, 1551730198509
243, -21060.44, 0.00, 0.00, 0.00, 0.00, 0.00, -16191.58, 0.00, 0.000, 0.000, 0.000, 15:09:58.516, 1551730198516
244, -21186.86, 0.00, 0.00, 0.00, 0.00, 0.00, -16198.31, 0.00, 0.000, 0.000, 0.000, 15:09:58.516, 1551730198516
245, -21322.58, 0.00, 0.00, 0.00, 0.00, 0.00, -16274.24, 0.00, 0.000, 0.000, 0.000, 15:09:58.524, 1551730198524
246, -21206.53, 0.00, 0.00, 0.00, 0.00, 0.00, -16262.39, 0.00, 0.000, 0.000, 0.000, 15:09:58.525, 1551730198525
247, -21077.78, 0.00, 0.00, 0.00, 0.00, 0.00, -16201.42, 0.00, -0.714, 0.598, -0.346, 15:09:58.531, 1551730198531
248, -21148.39, 0.00, 0.00, 0.00, 0.00, 0.00, -16189.03, 0.00, 0.000, 0.000, 0.000, 15:09:58.538, 1551730198538
249, -21325.17, 0.00, 0.00, 0.00, 0.00, 0.00, -16264.60, 0.00, 0.000, 0.000, 0.000, 15:09:58.538, 1551730198538
250, -21227.59, 0.00, 0.00, 0.00, 0.00, 0.00, -16268.81, 0.00, 0.000, 0.000, 0.000, 15:09:58.546, 1551730198546
251, -21100.52, 0.00, 0.00, 0.00, 0.00, 0.00, -16219.41, 0.00, 0.000, 0.000, 0.000, 15:09:58.547, 1551730198547
252, -21096.29, 0.00, 0.00, 0.00, 0.00, 0.00, -16180.79, 0.00, 0.000, 0.000, 0.000, 15:09:58.554, 1551730198554
253, -21314.09, 0.00, 0.00, 0.00, 0.00, 0.00, -16249.92, 0.00, 0.000, 0.000, 0.000, 15:09:58.554, 1551730198554
254, -21261.85, 0.00, 0.00, 0.00, 0.00, 0.00, -16274.80, 0.00, 0.000, 0.000, 0.000, 15:09:58.561, 1551730198561
255, -21123.76, 0.00, 0.00, 0.00, 0.00, 0.00, -16229.51, 0.00, 0.000, 0.000, 0.000, 15:09:58.561, 1551730198561
0, -21060.39, 0.00, 0.00, 0.00, 0.00, 0.00, -16170.06, 0.00, 0.000, 0.000, 0.000, 15:09:58.569, 1551730198569
1, -21287.76, 0.00, 0.00, 0.00, 0.00, 0.00, -16232.64, 0.00, -0.714, 0.598, -0.344, 15:09:58.569, 1551730198569
2, -21283.55, 0.00, 0.00, 0.00, 0.00, 0.00, -16276.65, 0.00, 0.000, 0.000, 0.000, 15:09:58.577, 1551730198577
3, -21155.46, 0.00, 0.00, 0.00, 0.00, 0.00, -16242.23, 0.00, 0.000, 0.000, 0.000, 15:09:58.577, 1551730198577
4, -21057.29, 0.00, 0.00, 0.00, 0.00, 0.00, -16183.36, 0.00, 0.000, 0.000, 0.000, 15:09:58.584, 1551730198584
5, -21258.72, 0.00, 0.00, 0.00, 0.00, 0.00, -16227.28, 0.00, 0.000, 0.000, 0.000, 15:09:58.585, 1551730198585
6, -21310.20, 0.00, 0.00, 0.00, 0.00, 0.00, -16279.54, 0.00, 0.000, 0.000, 0.000, 15:09:58.591, 1551730198591
7, -21185.03, 0.00, 0.00, 0.00, 0.00, 0.00, -16254.61, 0.00, 0.000, 0.000, 0.000, 15:09:58.598, 1551730198598
8, -21057.11, 0.00, 0.00, 0.00, 0.00, 0.00, -16190.91, 0.00, 0.000, 0.000, 0.000, 15:09:58.598, 1551730198598
9, -21210.13, 0.00, 0.00, 0.00, 0.00, 0.00, -16205.60, 0.00, 0.000, 0.000, 0.000, 15:09:58.607, 1551730198607
10, -21315.05, 0.00, 0.00, 0.00, 0.00, 0.00, -16273.68, 0.00, 0.000, 0.000, 0.000, 15:09:58.608, 1551730198608
11, -21199.33, 0.00, 0.00, 0.00, 0.00, 0.00, -16258.12, 0.00, -0.704, 0.598, -0.346, 15:09:58.614, 1551730198614
12, -21068.22, 0.00, 0.00, 0.00, 0.00, 0.00, -16200.86, 0.00, 0.000, 0.000, 0.000, 15:09:58.614, 1551730198614
13, -21185.99, 0.00, 0.00, 0.00, 0.00, 0.00, -16200.54, 0.00, 0.000, 0.000, 0.000, 15:09:58.621, 1551730198621
14, -21330.74, 0.00, 0.00, 0.00, 0.00, 0.00, -16271.53, 0.00, 0.000, 0.000, 0.000, 15:09:58.621, 1551730198621
15, -21220.10, 0.00, 0.00, 0.00, 0.00, 0.00, -16267.46, 0.00, 0.000, 0.000, 0.000, 15:09:58.629, 1551730198629
16, -21084.71, 0.00, 0.00, 0.00, 0.00, 0.00, -16211.70, 0.00, 0.000, 0.000, 0.000, 15:09:58.629, 1551730198629
17, -21124.28, 0.00, 0.00, 0.00, 0.00, 0.00, -16183.89, 0.00, 0.000, 0.000, 0.000, 15:09:58.637, 1551730198637
18, -21325.22, 0.00, 0.00, 0.00, 0.00, 0.00, -16260.20, 0.00, 0.000, 0.000, 0.000, 15:09:58.637, 1551730198637
19, -21240.17, 0.00, 0.00, 0.00, 0.00, 0.00, -16267.35, 0.00, 0.000, 0.000, 0.000, 15:09:58.646, 1551730198646
20, -21107.89, 0.00, 0.00, 0.00, 0.00, 0.00, -16220.88, 0.00, -0.706, 0.600, -0.348, 15:09:58.646, 1551730198646
21, -21084.71, 0.00, 0.00, 0.00, 0.00, 0.00, -16180.11, 0.00, 0.000, 0.000, 0.000, 15:09:58.650, 1551730198650
22, -21305.86, 0.00, 0.00, 0.00, 0.00, 0.00, -16242.19, 0.00, 0.000, 0.000, 0.000, 15:09:58.659, 1551730198659
23, -21260.55, 0.00, 0.00, 0.00, 0.00, 0.00, -16268.85, 0.00, 0.000, 0.000, 0.000, 15:09:58.659, 1551730198659
24, -21135.18, 0.00, 0.00, 0.00, 0.00, 0.00, -16228.46, 0.00, 0.000, 0.000, 0.000, 15:09:58.666, 1551730198666
25, -21070.68, 0.00, 0.00, 0.00, 0.00, 0.00, -16177.23, 0.00, 0.000, 0.000, 0.000, 15:09:58.667, 1551730198667
26, -21280.07, 0.00, 0.00, 0.00, 0.00, 0.00, -16225.71, 0.00, 0.000, 0.000, 0.000, 15:09:58.673, 1551730198673
27, -21284.52, 0.00, 0.00, 0.00, 0.00, 0.00, -16267.31, 0.00, 0.000, 0.000, 0.000, 15:09:58.673, 1551730198673
28, -21161.58, 0.00, 0.00, 0.00, 0.00, 0.00, -16236.87, 0.00, 0.000, 0.000, 0.000, 15:09:58.683, 1551730198683
29, -21051.39, 0.00, 0.00, 0.00, 0.00, 0.00, -16176.92, 0.00, 0.000, 0.000, 0.000, 15:09:58.684, 1551730198684
30, -21242.52, 0.00, 0.00, 0.00, 0.00, 0.00, -16212.57, 0.00, -0.708, 0.594, -0.344, 15:09:58.689, 1551730198689
31, -21303.87, 0.00, 0.00, 0.00, 0.00, 0.00, -16266.37, 0.00, 0.000, 0.000, 0.000, 15:09:58.690, 1551730198690
32, -21186.48, 0.00, 0.00, 0.00, 0.00, 0.00, -16244.93, 0.00, 0.000, 0.000, 0.000, 15:09:58.696, 1551730198696
33, -21054.16, 0.00, 0.00, 0.00, 0.00, 0.00, -16182.60, 0.00, 0.000, 0.000, 0.000, 15:09:58.696, 1551730198696
34, -21193.65, 0.00, 0.00, 0.00, 0.00, 0.00, -16193.21, 0.00, 0.000, 0.000, 0.000, 15:09:58.705, 1551730198705
35, -21322.87, 0.00, 0.00, 0.00, 0.00, 0.00, -16263.60, 0.00, 0.000, 0.000, 0.000, 15:09:58.705, 1551730198705
36, -21206.13, 0.00, 0.00, 0.00, 0.00, 0.00, -16250.25, 0.00, 0.000, 0.000, 0.000, 15:09:58.719, 1551730198719
37, -21068.55, 0.00, 0.00, 0.00, 0.00, 0.00, -16194.17, 0.00, 0.000, 0.000, 0.000, 15:09:58.720, 1551730198720
38, -21143.45, 0.00, 0.00, 0.00, 0.00, 0.00, -16175.15, 0.00, 0.000, 0.000, 0.000, 15:09:58.722, 1551730198722
39, -21326.02, 0.00, 0.00, 0.00, 0.00, 0.00, -16247.53, 0.00, 0.000, 0.000, 0.000, 15:09:58.726, 1551730198726
40, -21217.48, 0.00, 0.00, 0.00, 0.00, 0.00, -16246.45, 0.00, -0.710, 0.596, -0.344, 15:09:58.726, 1551730198726
41, -21077.74, 0.00, 0.00, 0.00, 0.00, 0.00, -16192.43, 0.00, 0.000, 0.000, 0.000, 15:09:58.733, 1551730198733
42, -21095.06, 0.00, 0.00, 0.00, 0.00, 0.00, -16162.63, 0.00, 0.000, 0.000, 0.000, 15:09:58.733, 1551730198733
43, -21303.63, 0.00, 0.00, 0.00, 0.00, 0.00, -16232.33, 0.00, 0.000, 0.000, 0.000, 15:09:58.755, 1551730198755
44, -21232.30, 0.00, 0.00, 0.00, 0.00, 0.00, -16244.93, 0.00, 0.000, 0.000, 0.000, 15:09:58.757, 1551730198757
45, -21098.57, 0.00, 0.00, 0.00, 0.00, 0.00, -16195.36, 0.00, 0.000, 0.000, 0.000, 15:09:58.758, 1551730198758
46, -21063.90, 0.00, 0.00, 0.00, 0.00, 0.00, -16151.46, 0.00, 0.000, 0.000, 0.000, 15:09:58.758, 1551730198758
47, -21287.20, 0.00, 0.00, 0.00, 0.00, 0.00, -16218.56, 0.00, 0.000, 0.000, 0.000, 15:09:58.758, 1551730198758
48, -21262.12, 0.00, 0.00, 0.00, 0.00, 0.00, -16256.42, 0.00, 0.000, 0.000, 0.000, 15:09:58.758, 1551730198758
49, -21136.75, 0.00, 0.00, 0.00, 0.00, 0.00, -16222.00, 0.00, 0.000, 0.000, 0.000, 15:09:58.764, 1551730198764
50, -21051.74, 0.00, 0.00, 0.00, 0.00, 0.00, -16165.59, 0.00, -0.706, 0.598, -0.346, 15:09:58.764, 1551730198764
51, -21261.76, 0.00, 0.00, 0.00, 0.00, 0.00, -16216.21, 0.00, 0.000, 0.000, 0.000, 15:09:58.772, 1551730198772
52, -21292.92, 0.00, 0.00, 0.00, 0.00, 0.00, -16270.08, 0.00, 0.000, 0.000, 0.000, 15:09:58.772, 1551730198772
53, -21165.04, 0.00, 0.00, 0.00, 0.00, 0.00, -16239.64, 0.00, 0.000, 0.000, 0.000, 15:09:58.783, 1551730198783
54, -21050.13, 0.00, 0.00, 0.00, 0.00, 0.00, -16176.99, 0.00, 0.000, 0.000, 0.000, 15:09:58.786, 1551730198786
55, -21220.16, 0.00, 0.00, 0.00, 0.00, 0.00, -16201.28, 0.00, 0.000, 0.000, 0.000, 15:09:58.786, 1551730198786
56, -21311.18, 0.00, 0.00, 0.00, 0.00, 0.00, -16267.53, 0.00, 0.000, 0.000, 0.000, 15:09:58.793, 1551730198793
57, -21192.22, 0.00, 0.00, 0.00, 0.00, 0.00, -16252.36, 0.00, 0.000, 0.000, 0.000, 15:09:58.794, 1551730198794
58, -21064.44, 0.00, 0.00, 0.00, 0.00, 0.00, -16187.38, 0.00, 0.000, 0.000, 0.000, 15:09:58.802, 1551730198802
59, -21173.45, 0.00, 0.00, 0.00, 0.00, 0.00, -16181.61, 0.00, 0.000, 0.000, 0.000, 15:09:58.802, 1551730198802
60, -21318.29, 0.00, 0.00, 0.00, 0.00, 0.00, -16254.43, 0.00, -0.708, 0.598, -0.344, 15:09:58.808, 1551730198808
61, -21210.91, 0.00, 0.00, 0.00, 0.00, 0.00, -16247.97, 0.00, 0.000, 0.000, 0.000, 15:09:58.808, 1551730198808
62, -21077.52, 0.00, 0.00, 0.00, 0.00, 0.00, -16194.62, 0.00, 0.000, 0.000, 0.000, 15:09:58.816, 1551730198816
63, -21129.46, 0.00, 0.00, 0.00, 0.00, 0.00, -16173.30, 0.00, 0.000, 0.000, 0.000, 15:09:58.816, 1551730198816
64, -21315.27, 0.00, 0.00, 0.00, 0.00, 0.00, -16246.48, 0.00, 0.000, 0.000, 0.000, 15:09:58.825, 1551730198825
65, -21229.66, 0.00, 0.00, 0.00, 0.00, 0.00, -16252.82, 0.00, 0.000, 0.000, 0.000, 15:09:58.825, 1551730198825
66, -21104.07, 0.00, 0.00, 0.00, 0.00, 0.00, -16204.37, 0.00, 0.000, 0.000, 0.000, 15:09:58.831, 1551730198831
67, -21091.57, 0.00, 0.00, 0.00, 0.00, 0.00, -16163.04, 0.00, 0.000, 0.000, 0.000, 15:09:58.832, 1551730198832
68, -21309.68, 0.00, 0.00, 0.00, 0.00, 0.00, -16234.56, 0.00, 0.000, 0.000, 0.000, 15:09:58.838, 1551730198838
69, -21255.73, 0.00, 0.00, 0.00, 0.00, 0.00, -16259.91, 0.00, 0.000, 0.000, 0.000, 15:09:58.846, 1551730198846
70, -21117.79, 0.00, 0.00, 0.00, 0.00, 0.00, -16211.54, 0.00, -0.714, 0.596, -0.344, 15:09:58.846, 1551730198846
71, -21060.55, 0.00, 0.00, 0.00, 0.00, 0.00, -16163.69, 0.00, 0.000, 0.000, 0.000, 15:09:58.856, 1551730198856
72, -21287.04, 0.00, 0.00, 0.00, 0.00, 0.00, -16224.53, 0.00, 0.000, 0.000, 0.000, 15:09:58.856, 1551730198856
73, -21273.34, 0.00, 0.00, 0.00, 0.00, 0.00, -16265.05, 0.00, 0.000, 0.000, 0.000, 15:09:58.861, 1551730198861
74, -21147.92, 0.00, 0.00, 0.00, 0.00, 0.00, -16233.09, 0.00, 0.000, 0.000, 0.000, 15:09:58.861, 1551730198861
75, -21054.98, 0.00, 0.00, 0.00, 0.00, 0.00, -16179.62, 0.00, 0.000, 0.000, 0.000, 15:09:58.868, 1551730198868
76, -21249.91, 0.00, 0.00, 0.00, 0.00, 0.00, -16223.05, 0.00, 0.000, 0.000, 0.000, 15:09:58.869, 1551730198869
77, -21298.24, 0.00, 0.00, 0.00, 0.00, 0.00, -16273.79, 0.00, 0.000, 0.000, 0.000, 15:09:58.877, 1551730198877
78, -21170.68, 0.00, 0.00, 0.00, 0.00, 0.00, -16243.15, 0.00, 0.000, 0.000, 0.000, 15:09:58.877, 1551730198877
79, -21052.46, 0.00, 0.00, 0.00, 0.00, 0.00, -16188.41, 0.00, -0.712, 0.594, -0.344, 15:09:58.884, 1551730198884
80, -21213.15, 0.00, 0.00, 0.00, 0.00, 0.00, -16207.96, 0.00, 0.000, 0.000, 0.000, 15:09:58.885, 1551730198885
81, -21321.75, 0.00, 0.00, 0.00, 0.00, 0.00, -16271.94, 0.00, 0.000, 0.000, 0.000, 15:09:58.891, 1551730198891
82, -21193.90, 0.00, 0.00, 0.00, 0.00, 0.00, -16252.82, 0.00, 0.000, 0.000, 0.000, 15:09:58.892, 1551730198892
83, -21059.12, 0.00, 0.00, 0.00, 0.00, 0.00, -16193.79, 0.00, 0.000, 0.000, 0.000, 15:09:58.898, 1551730198898
84, -21154.79, 0.00, 0.00, 0.00, 0.00, 0.00, -16186.28, 0.00, 0.000, 0.000, 0.000, 15:09:58.906, 1551730198906
85, -21319.85, 0.00, 0.00, 0.00, 0.00, 0.00, -16259.71, 0.00, 0.000, 0.000, 0.000, 15:09:58.906, 1551730198906
86, -21216.30, 0.00, 0.00, 0.00, 0.00, 0.00, -16254.43, 0.00, 0.000, 0.000, 0.000, 15:09:58.915, 1551730198915
87, -21080.64, 0.00, 0.00, 0.00, 0.00, 0.00, -16201.26, 0.00, 0.000, 0.000, 0.000, 15:09:58.915, 1551730198915
88, -21114.44, 0.00, 0.00, 0.00, 0.00, 0.00, -16174.50, 0.00, 0.000, 0.000, 0.000, 15:09:58.922, 1551730198922
89, -21324.66, 0.00, 0.00, 0.00, 0.00, 0.00, -16251.01, 0.00, -0.712, 0.594, -0.348, 15:09:58.923, 1551730198923
90, -21249.62, 0.00, 0.00, 0.00, 0.00, 0.00, -16264.04, 0.00, 0.000, 0.000, 0.000, 15:09:58.929, 1551730198929
91, -21120.63, 0.00, 0.00, 0.00, 0.00, 0.00, -16219.23, 0.00, 0.000, 0.000, 0.000, 15:09:58.929, 1551730198929
92, -21088.07, 0.00, 0.00, 0.00, 0.00, 0.00, -16171.75, 0.00, 0.000, 0.000, 0.000, 15:09:58.937, 1551730198937
93, -21314.53, 0.00, 0.00, 0.00, 0.00, 0.00, -16238.56, 0.00, 0.000, 0.000, 0.000, 15:09:58.937, 1551730198937
94, -21272.42, 0.00, 0.00, 0.00, 0.00, 0.00, -16264.60, 0.00, 0.000, 0.000, 0.000, 15:09:58.944, 1551730198944
95, -21145.02, 0.00, 0.00, 0.00, 0.00, 0.00, -16226.45, 0.00, 0.000, 0.000, 0.000, 15:09:58.944, 1551730198944
96, -21055.95, 0.00, 0.00, 0.00, 0.00, 0.00, -16164.02, 0.00, 0.000, 0.000, 0.000, 15:09:58.957, 1551730198957
97, -21274.10, 0.00, 0.00, 0.00, 0.00, 0.00, -16209.91, 0.00, 0.000, 0.000, 0.000, 15:09:58.957, 1551730198957
98, -21281.70, 0.00, 0.00, 0.00, 0.00, 0.00, -16255.08, 0.00, 0.000, 0.000, 0.000, 15:09:58.959, 1551730198959
99, -21157.38, 0.00, 0.00, 0.00, 0.00, 0.00, -16226.94, 0.00, -0.710, 0.594, -0.352, 15:09:58.959, 1551730198959
100, -21048.57, 0.00, 0.00, 0.00, 0.00, 0.00, -16167.49, 0.00, 0.000, 0.000, 0.000, 15:09:58.966, 1551730198966
101, -21233.66, 0.00, 0.00, 0.00, 0.00, 0.00, -16202.87, 0.00, 0.000, 0.000, 0.000, 15:09:58.974, 1551730198974
102, -21306.17, 0.00, 0.00, 0.00, 0.00, 0.00, -16267.51, 0.00, 0.000, 0.000, 0.000, 15:09:58.974, 1551730198974
103, -21185.36, 0.00, 0.00, 0.00, 0.00, 0.00, -16249.74, 0.00, 0.000, 0.000, 0.000, 15:09:58.982, 1551730198982
104, -21059.46, 0.00, 0.00, 0.00, 0.00, 0.00, -16187.85, 0.00, 0.000, 0.000, 0.000, 15:09:58.982, 1551730198982
105, -21192.45, 0.00, 0.00, 0.00, 0.00, 0.00, -16192.54, 0.00, 0.000, 0.000, 0.000, 15:09:58.989, 1551730198989
106, -21324.28, 0.00, 0.00, 0.00, 0.00, 0.00, -16264.92, 0.00, 0.000, 0.000, 0.000, 15:09:58.989, 1551730198989
107, -21210.13, 0.00, 0.00, 0.00, 0.00, 0.00, -16257.00, 0.00, 0.000, 0.000, 0.000, 15:09:58.996, 1551730198996
108, -21084.45, 0.00, 0.00, 0.00, 0.00, 0.00, -16203.87, 0.00, 0.000, 0.000, 0.000, 15:09:58.996, 1551730198996
109, -21149.78, 0.00, 0.00, 0.00, 0.00, 0.00, -16186.95, 0.00, -0.708, 0.594, -0.348, 15:09:59.004, 1551730199004
110, -21328.01, 0.00, 0.00, 0.00, 0.00, 0.00, -16262.08, 0.00, 0.000, 0.000, 0.000, 15:09:59.004, 1551730199004
111, -21230.67, 0.00, 0.00, 0.00, 0.00, 0.00, -16262.30, 0.00, 0.000, 0.000, 0.000, 15:09:59.012, 1551730199012
112, -21104.34, 0.00, 0.00, 0.00, 0.00, 0.00, -16214.25, 0.00, 0.000, 0.000, 0.000, 15:09:59.013, 1551730199013
113, -21110.35, 0.00, 0.00, 0.00, 0.00, 0.00, -16176.45, 0.00, 0.000, 0.000, 0.000, 15:09:59.019, 1551730199019
114, -21320.21, 0.00, 0.00, 0.00, 0.00, 0.00, -16246.54, 0.00, 0.000, 0.000, 0.000, 15:09:59.019, 1551730199019
115, -21254.29, 0.00, 0.00, 0.00, 0.00, 0.00, -16259.84, 0.00, 0.000, 0.000, 0.000, 15:09:59.025, 1551730199025
116, -21122.69, 0.00, 0.00, 0.00, 0.00, 0.00, -16216.82, 0.00, 0.000, 0.000, 0.000, 15:09:59.033, 1551730199033
117, -21072.31, 0.00, 0.00, 0.00, 0.00, 0.00, -16169.39, 0.00, 0.000, 0.000, 0.000, 15:09:59.034, 1551730199034
118, -21290.93, 0.00, 0.00, 0.00, 0.00, 0.00, -16227.99, 0.00, 0.000, 0.000, 0.000, 15:09:59.041, 1551730199041
119, -21269.83, 0.00, 0.00, 0.00, 0.00, 0.00, -16263.06, 0.00, -0.706, 0.594, -0.344, 15:09:59.041, 1551730199041
120, -21142.29, 0.00, 0.00, 0.00, 0.00, 0.00, -16227.30, 0.00, 0.000, 0.000, 0.000, 15:09:59.049, 1551730199049
121, -21048.64, 0.00, 0.00, 0.00, 0.00, 0.00, -16168.09, 0.00, 0.000, 0.000, 0.000, 15:09:59.049, 1551730199049
122, -21258.10, 0.00, 0.00, 0.00, 0.00, 0.00, -16215.03, 0.00, 0.000, 0.000, 0.000, 15:09:59.058, 1551730199058
123, -21292.79, 0.00, 0.00, 0.00, 0.00, 0.00, -16268.11, 0.00, 0.000, 0.000, 0.000, 15:09:59.058, 1551730199058
124, -21172.73, 0.00, 0.00, 0.00, 0.00, 0.00, -16245.60, 0.00, 0.000, 0.000, 0.000, 15:09:59.064, 1551730199064
125, -21054.69, 0.00, 0.00, 0.00, 0.00, 0.00, -16184.09, 0.00, 0.000, 0.000, 0.000, 15:09:59.064, 1551730199064
126, -21222.56, 0.00, 0.00, 0.00, 0.00, 0.00, -16206.51, 0.00, 0.000, 0.000, 0.000, 15:09:59.072, 1551730199072
127, -21316.16, 0.00, 0.00, 0.00, 0.00, 0.00, -16269.54, 0.00, 0.000, 0.000, 0.000, 15:09:59.072, 1551730199072
128, -21202.95, 0.00, 0.00, 0.00, 0.00, 0.00, -16254.39, 0.00, 0.000, 0.000, 0.000, 15:09:59.080, 1551730199080
129, -21070.07, 0.00, 0.00, 0.00, 0.00, 0.00, -16193.57, 0.00, -0.704, 0.592, -0.352, 15:09:59.081, 1551730199081
130, -21183.11, 0.00, 0.00, 0.00, 0.00, 0.00, -16192.41, 0.00, 0.000, 0.000, 0.000, 15:09:59.094, 1551730199094
131, -21316.79, 0.00, 0.00, 0.00, 0.00, 0.00, -16259.51, 0.00, 0.000, 0.000, 0.000, 15:09:59.095, 1551730199095
132, -21218.42, 0.00, 0.00, 0.00, 0.00, 0.00, -16250.66, 0.00, 0.000, 0.000, 0.000, 15:09:59.095, 1551730199095
133, -21084.27, 0.00, 0.00, 0.00, 0.00, 0.00, -16196.72, 0.00, 0.000, 0.000, 0.000, 15:09:59.102, 1551730199102
134, -21134.20, 0.00, 0.00, 0.00, 0.00, 0.00, -16175.87, 0.00, 0.000, 0.000, 0.000, 15:09:59.102, 1551730199102
135, -21325.71, 0.00, 0.00, 0.00, 0.00, 0.00, -16253.12, 0.00, 0.000, 0.000, 0.000, 15:09:59.108, 1551730199108
136, -21239.79, 0.00, 0.00, 0.00, 0.00, 0.00, -16262.73, 0.00, 0.000, 0.000, 0.000, 15:09:59.108, 1551730199108
137, -21110.98, 0.00, 0.00, 0.00, 0.00, 0.00, -16216.21, 0.00, 0.000, 0.000, 0.000, 15:09:59.118, 1551730199118
138, -21092.47, 0.00, 0.00, 0.00, 0.00, 0.00, -16171.93, 0.00, 0.000, 0.000, 0.000, 15:09:59.118, 1551730199118
139, -21311.52, 0.00, 0.00, 0.00, 0.00, 0.00, -16241.27, 0.00, -0.704, 0.588, -0.348, 15:09:59.126, 1551730199126
140, -21265.14, 0.00, 0.00, 0.00, 0.00, 0.00, -16268.36, 0.00, 0.000, 0.000, 0.000, 15:09:59.127, 1551730199127
141, -21138.54, 0.00, 0.00, 0.00, 0.00, 0.00, -16230.43, 0.00, 0.000, 0.000, 0.000, 15:09:59.132, 1551730199132
142, -21072.08, 0.00, 0.00, 0.00, 0.00, 0.00, -16177.50, 0.00, 0.000, 0.000, 0.000, 15:09:59.132, 1551730199132
143, -21289.37, 0.00, 0.00, 0.00, 0.00, 0.00, -16230.47, 0.00, 0.000, 0.000, 0.000, 15:09:59.139, 1551730199139
144, -21290.28, 0.00, 0.00, 0.00, 0.00, 0.00, -16275.33, 0.00, 0.000, 0.000, 0.000, 15:09:59.139, 1551730199139
145, -21163.53, 0.00, 0.00, 0.00, 0.00, 0.00, -16243.44, 0.00, 0.000, 0.000, 0.000, 15:09:59.146, 1551730199146
146, -21062.05, 0.00, 0.00, 0.00, 0.00, 0.00, -16183.87, 0.00, 0.000, 0.000, 0.000, 15:09:59.155, 1551730199155
147, -21253.63, 0.00, 0.00, 0.00, 0.00, 0.00, -16220.84, 0.00, 0.000, 0.000, 0.000, 15:09:59.155, 1551730199155
148, -21307.52, 0.00, 0.00, 0.00, 0.00, 0.00, -16280.09, 0.00, -0.712, 0.594, -0.350, 15:09:59.161, 1551730199161
149, -21184.92, 0.00, 0.00, 0.00, 0.00, 0.00, -16256.04, 0.00, 0.000, 0.000, 0.000, 15:09:59.161, 1551730199161
150, -21057.67, 0.00, 0.00, 0.00, 0.00, 0.00, -16200.95, 0.00, 0.000, 0.000, 0.000, 15:09:59.168, 1551730199168
151, -21203.80, 0.00, 0.00, 0.00, 0.00, 0.00, -16206.96, 0.00, 0.000, 0.000, 0.000, 15:09:59.169, 1551730199169
152, -21325.33, 0.00, 0.00, 0.00, 0.00, 0.00, -16272.07, 0.00, 0.000, 0.000, 0.000, 15:09:59.176, 1551730199176
153, -21205.03, 0.00, 0.00, 0.00, 0.00, 0.00, -16259.35, 0.00, 0.000, 0.000, 0.000, 15:09:59.177, 1551730199177
154, -21070.70, 0.00, 0.00, 0.00, 0.00, 0.00, -16199.90, 0.00, 0.000, 0.000, 0.000, 15:09:59.184, 1551730199184
155, -21156.71, 0.00, 0.00, 0.00, 0.00, 0.00, -16190.64, 0.00, 0.000, 0.000, 0.000, 15:09:59.184, 1551730199184
156, -21324.84, 0.00, 0.00, 0.00, 0.00, 0.00, -16265.95, 0.00, 0.000, 0.000, 0.000, 15:09:59.191, 1551730199191
157, -21219.31, 0.00, 0.00, 0.00, 0.00, 0.00, -16260.71, 0.00, 0.000, 0.000, 0.000, 15:09:59.191, 1551730199191
158, -21086.61, 0.00, 0.00, 0.00, 0.00, 0.00, -16210.16, 0.00, -0.710, 0.596, -0.346, 15:09:59.202, 1551730199202
159, -21112.92, 0.00, 0.00, 0.00, 0.00, 0.00, -16179.80, 0.00, 0.000, 0.000, 0.000, 15:09:59.203, 1551730199203
160, -21315.96, 0.00, 0.00, 0.00, 0.00, 0.00, -16252.04, 0.00, 0.000, 0.000, 0.000, 15:09:59.212, 1551730199212
161, -21241.24, 0.00, 0.00, 0.00, 0.00, 0.00, -16265.65, 0.00, 0.000, 0.000, 0.000, 15:09:59.213, 1551730199213
162, -21120.36, 0.00, 0.00, 0.00, 0.00, 0.00, -16222.27, 0.00, 0.000, 0.000, 0.000, 15:09:59.214, 1551730199214
163, -21081.65, 0.00, 0.00, 0.00, 0.00, 0.00, -16172.18, 0.00, 0.000, 0.000, 0.000, 15:09:59.222, 1551730199222
164, -21298.11, 0.00, 0.00, 0.00, 0.00, 0.00, -16233.18, 0.00, 0.000, 0.000, 0.000, 15:09:59.222, 1551730199222
165, -21264.22, 0.00, 0.00, 0.00, 0.00, 0.00, -16262.32, 0.00, 0.000, 0.000, 0.000, 15:09:59.229, 1551730199229
166, -21142.04, 0.00, 0.00, 0.00, 0.00, 0.00, -16225.94, 0.00, 0.000, 0.000, 0.000, 15:09:59.229, 1551730199229
167, -21064.71, 0.00, 0.00, 0.00, 0.00, 0.00, -16171.55, 0.00, 0.000, 0.000, 0.000, 15:09:59.237, 1551730199237
168, -21270.37, 0.00, 0.00, 0.00, 0.00, 0.00, -16216.50, 0.00, -0.706, 0.590, -0.350, 15:09:59.237, 1551730199237
169, -21287.82, 0.00, 0.00, 0.00, 0.00, 0.00, -16262.35, 0.00, 0.000, 0.000, 0.000, 15:09:59.243, 1551730199243
170, -21160.11, 0.00, 0.00, 0.00, 0.00, 0.00, -16231.48, 0.00, 0.000, 0.000, 0.000, 15:09:59.244, 1551730199244
171, -21048.57, 0.00, 0.00, 0.00, 0.00, 0.00, -16176.43, 0.00, 0.000, 0.000, 0.000, 15:09:59.251, 1551730199251
172, -21233.20, 0.00, 0.00, 0.00, 0.00, 0.00, -16208.39, 0.00, 0.000, 0.000, 0.000, 15:09:59.252, 1551730199252
173, -21308.34, 0.00, 0.00, 0.00, 0.00, 0.00, -16267.62, 0.00, 0.000, 0.000, 0.000, 15:09:59.259, 1551730199259
174, -21185.47, 0.00, 0.00, 0.00, 0.00, 0.00, -16235.55, 0.00, 0.000, 0.000, 0.000, 15:09:59.260, 1551730199260
175, -21059.84, 0.00, 0.00, 0.00, 0.00, 0.00, -16175.89, 0.00, 0.000, 0.000, 0.000, 15:09:59.266, 1551730199266
176, -21190.23, 0.00, 0.00, 0.00, 0.00, 0.00, -16185.55, 0.00, 0.000, 0.000, 0.000, 15:09:59.266, 1551730199266
177, -21331.03, 0.00, 0.00, 0.00, 0.00, 0.00, -16262.55, 0.00, 0.000, 0.000, 0.000, 15:09:59.273, 1551730199273
178, -21201.32, 0.00, 0.00, 0.00, 0.00, 0.00, -16243.03, 0.00, -0.708, 0.598, -0.350, 15:09:59.290, 1551730199290
179, -21073.65, 0.00, 0.00, 0.00, 0.00, 0.00, -16186.84, 0.00, 0.000, 0.000, 0.000, 15:09:59.290, 1551730199290
180, -21145.64, 0.00, 0.00, 0.00, 0.00, 0.00, -16174.86, 0.00, 0.000, 0.000, 0.000, 15:09:59.290, 1551730199290
181, -21323.99, 0.00, 0.00, 0.00, 0.00, 0.00, -16249.29, 0.00, 0.000, 0.000, 0.000, 15:09:59.290, 1551730199290
182, -21233.17, 0.00, 0.00, 0.00, 0.00, 0.00, -16252.53, 0.00, 0.000, 0.000, 0.000, 15:09:59.296, 1551730199296
183, -21092.22, 0.00, 0.00, 0.00, 0.00, 0.00, -16198.13, 0.00, 0.000, 0.000, 0.000, 15:09:59.296, 1551730199296
184, -21101.52, 0.00, 0.00, 0.00, 0.00, 0.00, -16166.41, 0.00, 0.000, 0.000, 0.000, 15:09:59.304, 1551730199304
185, -21313.88, 0.00, 0.00, 0.00, 0.00, 0.00, -16239.79, 0.00, 0.000, 0.000, 0.000, 15:09:59.304, 1551730199304
186, -21254.63, 0.00, 0.00, 0.00, 0.00, 0.00, -16262.39, 0.00, 0.000, 0.000, 0.000, 15:09:59.312, 1551730199312
187, -21125.46, 0.00, 0.00, 0.00, 0.00, 0.00, -16219.83, 0.00, 0.000, 0.000, 0.000, 15:09:59.312, 1551730199312
188, -21074.05, 0.00, 0.00, 0.00, 0.00, 0.00, -16172.43, 0.00, -0.708, 0.592, -0.346, 15:09:59.319, 1551730199319
189, -21296.27, 0.00, 0.00, 0.00, 0.00, 0.00, -16232.46, 0.00, 0.000, 0.000, 0.000, 15:09:59.319, 1551730199319
190, -21283.15, 0.00, 0.00, 0.00, 0.00, 0.00, -16271.56, 0.00, 0.000, 0.000, 0.000, 15:09:59.327, 1551730199327
191, -21161.31, 0.00, 0.00, 0.00, 0.00, 0.00, -16237.89, 0.00, 0.000, 0.000, 0.000, 15:09:59.327, 1551730199327
192, -21067.48, 0.00, 0.00, 0.00, 0.00, 0.00, -16180.23, 0.00, 0.000, 0.000, 0.000, 15:09:59.337, 1551730199337
193, -21280.13, 0.00, 0.00, 0.00, 0.00, 0.00, -16232.10, 0.00, 0.000, 0.000, 0.000, 15:09:59.341, 1551730199341
194, -21310.58, 0.00, 0.00, 0.00, 0.00, 0.00, -16279.98, 0.00, 0.000, 0.000, 0.000, 15:09:59.342, 1551730199342
195, -21181.50, 0.00, 0.00, 0.00, 0.00, 0.00, -16243.82, 0.00, 0.000, 0.000, 0.000, 15:09:59.349, 1551730199349
196, -21074.32, 0.00, 0.00, 0.00, 0.00, 0.00, -16187.07, 0.00, 0.000, 0.000, 0.000, 15:09:59.349, 1551730199349
197, -21228.08, 0.00, 0.00, 0.00, 0.00, 0.00, -16205.48, 0.00, 0.000, 0.000, 0.000, 15:09:59.357, 1551730199357
198, -21329.64, 0.00, 0.00, 0.00, 0.00, 0.00, -16275.40, 0.00, -0.712, 0.590, -0.348, 15:09:59.357, 1551730199357
199, -21207.40, 0.00, 0.00, 0.00, 0.00, 0.00, -16256.02, 0.00, 0.000, 0.000, 0.000, 15:09:59.366, 1551730199366
200, -21079.53, 0.00, 0.00, 0.00, 0.00, 0.00, -16198.35, 0.00, 0.000, 0.000, 0.000, 15:09:59.367, 1551730199367
201, -21187.26, 0.00, 0.00, 0.00, 0.00, 0.00, -16196.77, 0.00, 0.000, 0.000, 0.000, 15:09:59.372, 1551730199372
202, -21337.29, 0.00, 0.00, 0.00, 0.00, 0.00, -16269.57, 0.00, 0.000, 0.000, 0.000, 15:09:59.372, 1551730199372
203, -21221.64, 0.00, 0.00, 0.00, 0.00, 0.00, -16262.55, 0.00, 0.000, 0.000, 0.000, 15:09:59.379, 1551730199379
204, -21096.31, 0.00, 0.00, 0.00, 0.00, 0.00, -16212.57, 0.00, 0.000, 0.000, 0.000, 15:09:59.379, 1551730199379
205, -21133.89, 0.00, 0.00, 0.00, 0.00, 0.00, -16185.59, 0.00, 0.000, 0.000, 0.000, 15:09:59.386, 1551730199386
206, -21334.22, 0.00, 0.00, 0.00, 0.00, 0.00, -16261.85, 0.00, 0.000, 0.000, 0.000, 15:09:59.387, 1551730199387
207, -21251.57, 0.00, 0.00, 0.00, 0.00, 0.00, -16269.81, 0.00, -0.708, 0.590, -0.346, 15:09:59.394, 1551730199394
208, -21115.51, 0.00, 0.00, 0.00, 0.00, 0.00, -16222.11, 0.00, 0.000, 0.000, 0.000, 15:09:59.401, 1551730199401
209, -21094.35, 0.00, 0.00, 0.00, 0.00, 0.00, -16176.99, 0.00, 0.000, 0.000, 0.000, 15:09:59.402, 1551730199402
210, -21305.95, 0.00, 0.00, 0.00, 0.00, 0.00, -16244.98, 0.00, 0.000, 0.000, 0.000, 15:09:59.409, 1551730199409
211, -21264.53, 0.00, 0.00, 0.00, 0.00, 0.00, -16277.23, 0.00, 0.000, 0.000, 0.000, 15:09:59.409, 1551730199409
212, -21143.63, 0.00, 0.00, 0.00, 0.00, 0.00, -16238.81, 0.00, 0.000, 0.000, 0.000, 15:09:59.416, 1551730199416
213, -21070.47, 0.00, 0.00, 0.00, 0.00, 0.00, -16175.42, 0.00, 0.000, 0.000, 0.000, 15:09:59.416, 1551730199416
214, -21287.94, 0.00, 0.00, 0.00, 0.00, 0.00, -16230.58, 0.00, 0.000, 0.000, 0.000, 15:09:59.425, 1551730199425
215, -21291.04, 0.00, 0.00, 0.00, 0.00, 0.00, -16275.82, 0.00, 0.000, 0.000, 0.000, 15:09:59.425, 1551730199425
216, -21167.82, 0.00, 0.00, 0.00, 0.00, 0.00, -16245.94, 0.00, 0.000, 0.000, 0.000, 15:09:59.432, 1551730199432
217, -21061.76, 0.00, 0.00, 0.00, 0.00, 0.00, -16184.03, 0.00, -0.710, 0.594, -0.348, 15:09:59.433, 1551730199433
218, -21246.67, 0.00, 0.00, 0.00, 0.00, 0.00, -16218.25, 0.00, 0.000, 0.000, 0.000, 15:09:59.440, 1551730199440
219, -21311.34, 0.00, 0.00, 0.00, 0.00, 0.00, -16272.11, 0.00, 0.000, 0.000, 0.000, 15:09:59.440, 1551730199440
220, -21183.82, 0.00, 0.00, 0.00, 0.00, 0.00, -16246.75, 0.00, 0.000, 0.000, 0.000, 15:09:59.447, 1551730199447
221, -21061.65, 0.00, 0.00, 0.00, 0.00, 0.00, -16188.16, 0.00, 0.000, 0.000, 0.000, 15:09:59.447, 1551730199447
222, -21210.75, 0.00, 0.00, 0.00, 0.00, 0.00, -16202.26, 0.00, 0.000, 0.000, 0.000, 15:09:59.453, 1551730199453
223, -21320.95, 0.00, 0.00, 0.00, 0.00, 0.00, -16270.08, 0.00, 0.000, 0.000, 0.000, 15:09:59.454, 1551730199454
224, -21200.43, 0.00, 0.00, 0.00, 0.00, 0.00, -16257.12, 0.00, 0.000, 0.000, 0.000, 15:09:59.461, 1551730199461
225, -21076.96, 0.00, 0.00, 0.00, 0.00, 0.00, -16201.80, 0.00, 0.000, 0.000, 0.000, 15:09:59.471, 1551730199471
226, -21163.05, 0.00, 0.00, 0.00, 0.00, 0.00, -16190.89, 0.00, 0.000, 0.000, 0.000, 15:09:59.472, 1551730199472
227, -21332.28, 0.00, 0.00, 0.00, 0.00, 0.00, -16266.79, 0.00, -0.712, 0.592, -0.346, 15:09:59.476, 1551730199476
228, -21228.28, 0.00, 0.00, 0.00, 0.00, 0.00, -16266.62, 0.00, 0.000, 0.000, 0.000, 15:09:59.476, 1551730199476
229, -21097.92, 0.00, 0.00, 0.00, 0.00, 0.00, -16215.12, 0.00, 0.000, 0.000, 0.000, 15:09:59.484, 1551730199484
230, -21120.16, 0.00, 0.00, 0.00, 0.00, 0.00, -16187.71, 0.00, 0.000, 0.000, 0.000, 15:09:59.484, 1551730199484
231, -21327.23, 0.00, 0.00, 0.00, 0.00, 0.00, -16252.04, 0.00, 0.000, 0.000, 0.000, 15:09:59.492, 1551730199492
232, -21255.59, 0.00, 0.00, 0.00, 0.00, 0.00, -16266.95, 0.00, 0.000, 0.000, 0.000, 15:09:59.492, 1551730199492
233, -21133.13, 0.00, 0.00, 0.00, 0.00, 0.00, -16225.13, 0.00, 0.000, 0.000, 0.000, 15:09:59.499, 1551730199499
234, -21080.78, 0.00, 0.00, 0.00, 0.00, 0.00, -16172.54, 0.00, 0.000, 0.000, 0.000, 15:09:59.499, 1551730199499
235, -21302.91, 0.00, 0.00, 0.00, 0.00, 0.00, -16237.31, 0.00, 0.000, 0.000, 0.000, 15:09:59.507, 1551730199507
236, -21275.28, 0.00, 0.00, 0.00, 0.00, 0.00, -16271.22, 0.00, 0.000, 0.000, 0.000, 15:09:59.507, 1551730199507
237, -21153.18, 0.00, 0.00, 0.00, 0.00, 0.00, -16236.49, 0.00, -0.716, 0.594, -0.342, 15:09:59.514, 1551730199514
238, -21064.55, 0.00, 0.00, 0.00, 0.00, 0.00, -16174.86, 0.00, 0.000, 0.000, 0.000, 15:09:59.514, 1551730199514
239, -21277.90, 0.00, 0.00, 0.00, 0.00, 0.00, -16223.88, 0.00, 0.000, 0.000, 0.000, 15:09:59.522, 1551730199522
240, -21297.77, 0.00, 0.00, 0.00, 0.00, 0.00, -16271.82, 0.00, 0.000, 0.000, 0.000, 15:09:59.528, 1551730199528
241, -21168.93, 0.00, 0.00, 0.00, 0.00, 0.00, -16242.05, 0.00, 0.000, 0.000, 0.000, 15:09:59.528, 1551730199528
242, -21056.21, 0.00, 0.00, 0.00, 0.00, 0.00, -16187.89, 0.00, 0.000, 0.000, 0.000, 15:09:59.542, 1551730199542
243, -21233.82, 0.00, 0.00, 0.00, 0.00, 0.00, -16212.39, 0.00, 0.000, 0.000, 0.000, 15:09:59.542, 1551730199542
244, -21317.35, 0.00, 0.00, 0.00, 0.00, 0.00, -16266.53, 0.00, 0.000, 0.000, 0.000, 15:09:59.545, 1551730199545
245, -21189.43, 0.00, 0.00, 0.00, 0.00, 0.00, -16241.42, 0.00, 0.000, 0.000, 0.000, 15:09:59.545, 1551730199545
246, -21063.70, 0.00, 0.00, 0.00, 0.00, 0.00, -16184.58, 0.00, 0.000, 0.000, 0.000, 15:09:59.552, 1551730199552
247, -21188.04, 0.00, 0.00, 0.00, 0.00, 0.00, -16188.83, 0.00, -0.716, 0.600, -0.344, 15:09:59.552, 1551730199552
248, -21323.36, 0.00, 0.00, 0.00, 0.00, 0.00, -16259.11, 0.00, 0.000, 0.000, 0.000, 15:09:59.559, 1551730199559
249, -21210.78, 0.00, 0.00, 0.00, 0.00, 0.00, -16248.87, 0.00, 0.000, 0.000, 0.000, 15:09:59.559, 1551730199559
250, -21083.33, 0.00, 0.00, 0.00, 0.00, 0.00, -16196.16, 0.00, 0.000, 0.000, 0.000, 15:09:59.567, 1551730199567
251, -21153.44, 0.00, 0.00, 0.00, 0.00, 0.00, -16185.66, 0.00, 0.000, 0.000, 0.000, 15:09:59.567, 1551730199567
252, -21323.41, 0.00, 0.00, 0.00, 0.00, 0.00, -16251.35, 0.00, 0.000, 0.000, 0.000, 15:09:59.574, 1551730199574
253, -21227.96, 0.00, 0.00, 0.00, 0.00, 0.00, -16253.03, 0.00, 0.000, 0.000, 0.000, 15:09:59.574, 1551730199574
254, -21108.16, 0.00, 0.00, 0.00, 0.00, 0.00, -16209.84, 0.00, 0.000, 0.000, 0.000, 15:09:59.581, 1551730199581
255, -21101.99, 0.00, 0.00, 0.00, 0.00, 0.00, -16171.69, 0.00, 0.000, 0.000, 0.000, 15:09:59.588, 1551730199588
0, -21320.37, 0.00, 0.00, 0.00, 0.00, 0.00, -16242.88, 0.00, 0.000, 0.000, 0.000, 15:09:59.589, 1551730199589
1, -21260.96, 0.00, 0.00, 0.00, 0.00, 0.00, -16266.79, 0.00, -0.716, 0.600, -0.350, 15:09:59.597, 1551730199597
2, -21131.65, 0.00, 0.00, 0.00, 0.00, 0.00, -16224.17, 0.00, 0.000, 0.000, 0.000, 15:09:59.597, 1551730199597
3, -21074.50, 0.00, 0.00, 0.00, 0.00, 0.00, -16172.58, 0.00, 0.000, 0.000, 0.000, 15:09:59.604, 1551730199604
4, -21299.13, 0.00, 0.00, 0.00, 0.00, 0.00, -16233.56, 0.00, 0.000, 0.000, 0.000, 15:09:59.605, 1551730199605
5, -21288.40, 0.00, 0.00, 0.00, 0.00, 0.00, -16274.30, 0.00, 0.000, 0.000, 0.000, 15:09:59.612, 1551730199612
6, -21159.88, 0.00, 0.00, 0.00, 0.00, 0.00, -16238.97, 0.00, 0.000, 0.000, 0.000, 15:09:59.612, 1551730199612
7, -21061.22, 0.00, 0.00, 0.00, 0.00, 0.00, -16178.93, 0.00, 0.000, 0.000, 0.000, 15:09:59.619, 1551730199619
8, -21267.21, 0.00, 0.00, 0.00, 0.00, 0.00, -16222.29, 0.00, 0.000, 0.000, 0.000, 15:09:59.619, 1551730199619
9, -21315.63, 0.00, 0.00, 0.00, 0.00, 0.00, -16278.80, 0.00, 0.000, 0.000, 0.000, 15:09:59.628, 1551730199628
10, -21194.53, 0.00, 0.00, 0.00, 0.00, 0.00, -16252.49, 0.00, 0.000, 0.000, 0.000, 15:09:59.628, 1551730199628
11, -21069.25, 0.00, 0.00, 0.00, 0.00, 0.00, -16189.64, 0.00, -0.712, 0.600, -0.344, 15:09:59.634, 1551730199634
12, -21223.25, 0.00, 0.00, 0.00, 0.00, 0.00, -16206.38, 0.00, 0.000, 0.000, 0.000, 15:09:59.634, 1551730199634
13, -21332.17, 0.00, 0.00, 0.00, 0.00, 0.00, -16276.03, 0.00, 0.000, 0.000, 0.000, 15:09:59.641, 1551730199641
14, -21214.62, 0.00, 0.00, 0.00, 0.00, 0.00, -16261.05, 0.00, 0.000, 0.000, 0.000, 15:09:59.649, 1551730199649
15, -21086.05, 0.00, 0.00, 0.00, 0.00, 0.00, -16202.60, 0.00, 0.000, 0.000, 0.000, 15:09:59.649, 1551730199649
16, -21180.98, 0.00, 0.00, 0.00, 0.00, 0.00, -16199.58, 0.00, 0.000, 0.000, 0.000, 15:09:59.657, 1551730199657
17, -21343.32, 0.00, 0.00, 0.00, 0.00, 0.00, -16278.08, 0.00, 0.000, 0.000, 0.000, 15:09:59.657, 1551730199657
18, -21235.14, 0.00, 0.00, 0.00, 0.00, 0.00, -16265.81, 0.00, 0.000, 0.000, 0.000, 15:09:59.663, 1551730199663
19, -21102.82, 0.00, 0.00, 0.00, 0.00, 0.00, -16213.62, 0.00, 0.000, 0.000, 0.000, 15:09:59.663, 1551730199663
20, -21140.53, 0.00, 0.00, 0.00, 0.00, 0.00, -16186.69, 0.00, -0.710, 0.602, -0.346, 15:09:59.671, 1551730199671
21, -21337.96, 0.00, 0.00, 0.00, 0.00, 0.00, -16258.75, 0.00, 0.000, 0.000, 0.000, 15:09:59.671, 1551730199671
22, -21257.85, 0.00, 0.00, 0.00, 0.00, 0.00, -16269.70, 0.00, 0.000, 0.000, 0.000, 15:09:59.680, 1551730199680
23, -21123.63, 0.00, 0.00, 0.00, 0.00, 0.00, -16221.42, 0.00, 0.000, 0.000, 0.000, 15:09:59.681, 1551730199681
24, -21099.98, 0.00, 0.00, 0.00, 0.00, 0.00, -16177.52, 0.00, 0.000, 0.000, 0.000, 15:09:59.686, 1551730199686
25, -21317.66, 0.00, 0.00, 0.00, 0.00, 0.00, -16240.46, 0.00, 0.000, 0.000, 0.000, 15:09:59.687, 1551730199687
26, -21275.48, 0.00, 0.00, 0.00, 0.00, 0.00, -16264.96, 0.00, 0.000, 0.000, 0.000, 15:09:59.694, 1551730199694
27, -21139.74, 0.00, 0.00, 0.00, 0.00, 0.00, -16221.51, 0.00, 0.000, 0.000, 0.000, 15:09:59.694, 1551730199694
28, -21064.33, 0.00, 0.00, 0.00, 0.00, 0.00, -16166.35, 0.00, 0.000, 0.000, 0.000, 15:09:59.701, 1551730199701
29, -21283.53, 0.00, 0.00, 0.00, 0.00, 0.00, -16218.02, 0.00, 0.000, 0.000, 0.000, 15:09:59.701, 1551730199701
30, -21294.04, 0.00, 0.00, 0.00, 0.00, 0.00, -16263.80, 0.00, -0.714, 0.598, -0.350, 15:09:59.709, 1551730199709
31, -21170.01, 0.00, 0.00, 0.00, 0.00, 0.00, -16232.93, 0.00, 0.000, 0.000, 0.000, 15:09:59.716, 1551730199716
32, -21065.78, 0.00, 0.00, 0.00, 0.00, 0.00, -16175.87, 0.00, 0.000, 0.000, 0.000, 15:09:59.716, 1551730199716
33, -21247.50, 0.00, 0.00, 0.00, 0.00, 0.00, -16207.00, 0.00, 0.000, 0.000, 0.000, 15:09:59.724, 1551730199724
34, -21310.69, 0.00, 0.00, 0.00, 0.00, 0.00, -16264.02, 0.00, 0.000, 0.000, 0.000, 15:09:59.724, 1551730199724
35, -21187.26, 0.00, 0.00, 0.00, 0.00, 0.00, -16240.22, 0.00, 0.000, 0.000, 0.000, 15:09:59.732, 1551730199732
36, -21069.11, 0.00, 0.00, 0.00, 0.00, 0.00, -16185.59, 0.00, 0.000, 0.000, 0.000, 15:09:59.732, 1551730199732
37, -21202.57, 0.00, 0.00, 0.00, 0.00, 0.00, -16193.95, 0.00, 0.000, 0.000, 0.000, 15:09:59.739, 1551730199739
38, -21329.17, 0.00, 0.00, 0.00, 0.00, 0.00, -16263.98, 0.00, 0.000, 0.000, 0.000, 15:09:59.739, 1551730199739
39, -21205.68, 0.00, 0.00, 0.00, 0.00, 0.00, -16246.19, 0.00, 0.000, 0.000, 0.000, 15:09:59.747, 1551730199747
40, -21077.07, 0.00, 0.00, 0.00, 0.00, 0.00, -16189.05, 0.00, -0.714, 0.590, -0.344, 15:09:59.747, 1551730199747
41, -21150.67, 0.00, 0.00, 0.00, 0.00, 0.00, -16175.60, 0.00, 0.000, 0.000, 0.000, 15:09:59.755, 1551730199755
42, -21329.69, 0.00, 0.00, 0.00, 0.00, 0.00, -16250.66, 0.00, 0.000, 0.000, 0.000, 15:09:59.755, 1551730199755
43, -21237.78, 0.00, 0.00, 0.00, 0.00, 0.00, -16253.76, 0.00, 0.000, 0.000, 0.000, 15:09:59.762, 1551730199762
44, -21102.44, 0.00, 0.00, 0.00, 0.00, 0.00, -16205.62, 0.00, 0.000, 0.000, 0.000, 15:09:59.762, 1551730199762
45, -21106.57, 0.00, 0.00, 0.00, 0.00, 0.00, -16165.61, 0.00, 0.000, 0.000, 0.000, 15:09:59.769, 1551730199769
46, -21318.06, 0.00, 0.00, 0.00, 0.00, 0.00, -16235.43, 0.00, 0.000, 0.000, 0.000, 15:09:59.776, 1551730199776
