%OpenBCI Raw EEG Data
%Number of channels = 8
%Sample Rate = 250.0 Hz
%First Column = SampleIndex
%Last Column = Timestamp 
%Other Columns = EEG data in microvolts followed by Accel Data (in G) interleaved with Aux Data
2, -5025.05, 0.00, 0.00, 0.00, 0.00, 0.00, 0.00, 0.00, 0.000, 0.000, 0.000, 14:12:56.382, 1551726776382
4, -5008.91, 0.00, 0.00, 0.00, 0.00, 0.00, 0.00, 0.00, 0.000, 0.000, 0.000, 14:12:56.388, 1551726776388
5, -5027.38, 0.00, 0.00, 0.00, 0.00, 0.00, 0.00, 0.00, 0.000, 0.000, 0.000, 14:12:56.395, 1551726776395
6, -5038.69, 0.00, 0.00, 0.00, 0.00, 0.00, 0.00, 0.00, 0.000, 0.000, 0.000, 14:12:56.395, 1551726776395
7, -5012.96, 0.00, 0.00, 0.00, 0.00, 0.00, 0.00, 0.00, 0.000, 0.000, 0.000, 14:12:56.403, 1551726776403
8, -5004.42, 0.00, 0.00, 0.00, 0.00, 0.00, 0.00, 0.00, 0.000, 0.000, 0.000, 14:12:56.404, 1551726776404
9, -5026.17, 0.00, 0.00, 0.00, 0.00, 0.00, 0.00, 0.00, 0.000, 0.000, 0.000, 14:12:56.411, 1551726776411
10, -5040.27, 0.00, 0.00, 0.00, 0.00, 0.00, 0.00, 0.00, 0.000, 0.000, 0.000, 14:12:56.411, 1551726776411
11, -5013.14, 0.00, 0.00, 0.00, 0.00, 0.00, 0.00, 0.00, -0.272, 0.848, -0.422, 14:12:56.418, 1551726776418
12, -5006.61, 0.00, 0.00, 0.00, 0.00, 0.00, 0.00, 0.00, 0.000, 0.000, 0.000, 14:12:56.418, 1551726776418
13, -5021.43, 0.00, 0.00, 0.00, 0.00, 0.00, 0.00, 0.00, 0.000, 0.000, 0.000, 14:12:56.426, 1551726776426
14, -5042.24, 0.00, 0.00, 0.00, 0.00, 0.00, 0.00, 0.00, 0.000, 0.000, 0.000, 14:12:56.426, 1551726776426
15, -5020.18, 0.00, 0.00, 0.00, 0.00, 0.00, 0.00, 0.00, 0.000, 0.000, 0.000, 14:12:56.433, 1551726776433
16, -5009.65, 0.00, 0.00, 0.00, 0.00, 0.00, 0.00, 0.00, 0.000, 0.000, 0.000, 14:12:56.433, 1551726776433
17, -5023.38, 0.00, 0.00, 0.00, 0.00, 0.00, 0.00, 0.00, 0.000, 0.000, 0.000, 14:12:56.443, 1551726776443
18, -5039.85, 0.00, 0.00, 0.00, 0.00, 0.00, 0.00, 0.00, 0.000, 0.000, 0.000, 14:12:56.444, 1551726776444
19, -5029.05, 0.00, 0.00, 0.00, 0.00, 0.00, 0.00, 0.00, 0.000, 0.000, 0.000, 14:12:56.452, 1551726776452
20, -5015.15, 0.00, 0.00, 0.00, 0.00, 0.00, 0.00, 0.00, 0.000, 0.000, 0.000, 14:12:56.460, 1551726776460
21, -5035.98, 0.00, 0.00, 0.00, 0.00, 0.00, 0.00, 0.00, -0.210, 0.878, -0.446, 14:12:56.460, 1551726776460
22, -5059.34, 0.00, 0.00, 0.00, 0.00, 0.00, 0.00, 0.00, 0.000, 0.000, 0.000, 14:12:56.463, 1551726776463
23, -5037.48, 0.00, 0.00, 0.00, 0.00, 0.00, 0.00, 0.00, 0.000, 0.000, 0.000, 14:12:56.463, 1551726776463
24, -5017.27, 0.00, 0.00, 0.00, 0.00, 0.00, 0.00, 0.00, 0.000, 0.000, 0.000, 14:12:56.472, 1551726776472
25, -5018.95, 0.00, 0.00, 0.00, 0.00, 0.00, 0.00, 0.00, 0.000, 0.000, 0.000, 14:12:56.472, 1551726776472
26, -5037.19, 0.00, 0.00, 0.00, 0.00, 0.00, 0.00, 0.00, 0.000, 0.000, 0.000, 14:12:56.478, 1551726776478
27, -5030.64, 0.00, 0.00, 0.00, 0.00, 0.00, 0.00, 0.00, 0.000, 0.000, 0.000, 14:12:56.478, 1551726776478
28, -5003.53, 0.00, 0.00, 0.00, 0.00, 0.00, 0.00, 0.00, 0.000, 0.000, 0.000, 14:12:56.486, 1551726776486
29, -5008.62, 0.00, 0.00, 0.00, 0.00, 0.00, 0.00, 0.00, 0.000, 0.000, 0.000, 14:12:56.487, 1551726776487
30, -5035.71, 0.00, 0.00, 0.00, 0.00, 0.00, 0.00, 0.00, 0.000, 0.000, 0.000, 14:12:56.493, 1551726776493
31, -5029.72, 0.00, 0.00, 0.00, 0.00, 0.00, 0.00, 0.00, -0.184, 0.884, -0.456, 14:12:56.493, 1551726776493
32, -5004.65, 0.00, 0.00, 0.00, 0.00, 0.00, 0.00, 0.00, 0.000, 0.000, 0.000, 14:12:56.502, 1551726776502
33, -5009.74, 0.00, 0.00, 0.00, 0.00, 0.00, 0.00, 0.00, 0.000, 0.000, 0.000, 14:12:56.502, 1551726776502
34, -5027.89, 0.00, 0.00, 0.00, 0.00, 0.00, 0.00, 0.00, 0.000, 0.000, 0.000, 14:12:56.508, 1551726776508
35, -5040.47, 0.00, 0.00, 0.00, 0.00, 0.00, 0.00, 0.00, 0.000, 0.000, 0.000, 14:12:56.508, 1551726776508
36, -5016.38, 0.00, 0.00, 0.00, 0.00, 0.00, 0.00, 0.00, 0.000, 0.000, 0.000, 14:12:56.517, 1551726776517
37, -5016.67, 0.00, 0.00, 0.00, 0.00, 0.00, 0.00, 0.00, 0.000, 0.000, 0.000, 14:12:56.523, 1551726776523
38, -5019.29, 0.00, 0.00, 0.00, 0.00, 0.00, 0.00, 0.00, 0.000, 0.000, 0.000, 14:12:56.523, 1551726776523
39, -5029.30, 0.00, 0.00, 0.00, 0.00, 0.00, 0.00, 0.00, 0.000, 0.000, 0.000, 14:12:56.531, 1551726776531
40, -5015.98, 0.00, 0.00, 0.00, 0.00, 0.00, 0.00, 0.00, 0.000, 0.000, 0.000, 14:12:56.531, 1551726776531
41, -5004.98, 0.00, 0.00, 0.00, 0.00, 0.00, 0.00, 0.00, -0.172, 0.888, -0.462, 14:12:56.538, 1551726776538
42, -5011.31, 0.00, 0.00, 0.00, 0.00, 0.00, 0.00, 0.00, 0.000, 0.000, 0.000, 14:12:56.539, 1551726776539
43, -5034.48, 0.00, 0.00, 0.00, 0.00, 0.00, 0.00, 0.00, 0.000, 0.000, 0.000, 14:12:56.545, 1551726776545
44, -5023.24, 0.00, 0.00, 0.00, 0.00, 0.00, 0.00, 0.00, 0.000, 0.000, 0.000, 14:12:56.545, 1551726776545
45, -5007.39, 0.00, 0.00, 0.00, 0.00, 0.00, 0.00, 0.00, 0.000, 0.000, 0.000, 14:12:56.553, 1551726776553
46, -5015.04, 0.00, 0.00, 0.00, 0.00, 0.00, 0.00, 0.00, 0.000, 0.000, 0.000, 14:12:56.554, 1551726776554
47, -5032.58, 0.00, 0.00, 0.00, 0.00, 0.00, 0.00, 0.00, 0.000, 0.000, 0.000, 14:12:56.561, 1551726776561
48, -5032.36, 0.00, 0.00, 0.00, 0.00, 0.00, 0.00, 0.00, 0.000, 0.000, 0.000, 14:12:56.562, 1551726776562
49, -5014.84, 0.00, 0.00, 0.00, 0.00, 0.00, 0.00, 0.00, 0.000, 0.000, 0.000, 14:12:56.569, 1551726776569
50, -5019.46, 0.00, 0.00, 0.00, 0.00, 0.00, 0.00, 0.00, 0.000, 0.000, 0.000, 14:12:56.569, 1551726776569
51, -5036.25, 0.00, 0.00, 0.00, 0.00, 0.00, 0.00, 0.00, -0.158, 0.892, -0.470, 14:12:56.576, 1551726776576
52, -5038.80, 0.00, 0.00, 0.00, 0.00, 0.00, 0.00, 0.00, 0.000, 0.000, 0.000, 14:12:56.583, 1551726776583
53, -5015.08, 0.00, 0.00, 0.00, 0.00, 0.00, 0.00, 0.00, 0.000, 0.000, 0.000, 14:12:56.583, 1551726776583
54, -5020.74, 0.00, 0.00, 0.00, 0.00, 0.00, 0.00, 0.00, 0.000, 0.000, 0.000, 14:12:56.591, 1551726776591
55, -5029.90, 0.00, 0.00, 0.00, 0.00, 0.00, 0.00, 0.00, 0.000, 0.000, 0.000, 14:12:56.591, 1551726776591
56, -5036.72, 0.00, 0.00, 0.00, 0.00, 0.00, 0.00, 0.00, 0.000, 0.000, 0.000, 14:12:56.598, 1551726776598
57, -5017.99, 0.00, 0.00, 0.00, 0.00, 0.00, 0.00, 0.00, 0.000, 0.000, 0.000, 14:12:56.599, 1551726776599
58, -5014.75, 0.00, 0.00, 0.00, 0.00, 0.00, 0.00, 0.00, 0.000, 0.000, 0.000, 14:12:56.605, 1551726776605
59, -5031.09, 0.00, 0.00, 0.00, 0.00, 0.00, 0.00, 0.00, 0.000, 0.000, 0.000, 14:12:56.605, 1551726776605
60, -5039.67, 0.00, 0.00, 0.00, 0.00, 0.00, 0.00, 0.00, 0.000, 0.000, 0.000, 14:12:56.615, 1551726776615
61, -5018.66, 0.00, 0.00, 0.00, 0.00, 0.00, 0.00, 0.00, -0.156, 0.894, -0.472, 14:12:56.615, 1551726776615
62, -5012.78, 0.00, 0.00, 0.00, 0.00, 0.00, 0.00, 0.00, 0.000, 0.000, 0.000, 14:12:56.621, 1551726776621
63, -5025.41, 0.00, 0.00, 0.00, 0.00, 0.00, 0.00, 0.00, 0.000, 0.000, 0.000, 14:12:56.621, 1551726776621
64, -5039.51, 0.00, 0.00, 0.00, 0.00, 0.00, 0.00, 0.00, 0.000, 0.000, 0.000, 14:12:56.628, 1551726776628
65, -5023.89, 0.00, 0.00, 0.00, 0.00, 0.00, 0.00, 0.00, 0.000, 0.000, 0.000, 14:12:56.628, 1551726776628
66, -5016.45, 0.00, 0.00, 0.00, 0.00, 0.00, 0.00, 0.00, 0.000, 0.000, 0.000, 14:12:56.635, 1551726776635
67, -5024.16, 0.00, 0.00, 0.00, 0.00, 0.00, 0.00, 0.00, 0.000, 0.000, 0.000, 14:12:56.643, 1551726776643
68, -5050.47, 0.00, 0.00, 0.00, 0.00, 0.00, 0.00, 0.00, 0.000, 0.000, 0.000, 14:12:56.643, 1551726776643
69, -5038.35, 0.00, 0.00, 0.00, 0.00, 0.00, 0.00, 0.00, 0.000, 0.000, 0.000, 14:12:56.652, 1551726776652
70, -5009.12, 0.00, 0.00, 0.00, 0.00, 0.00, 0.00, 0.00, -0.160, 0.898, -0.474, 14:12:56.652, 1551726776652
71, -5018.50, 0.00, 0.00, 0.00, 0.00, 0.00, 0.00, 0.00, 0.000, 0.000, 0.000, 14:12:56.657, 1551726776657
72, -5038.37, 0.00, 0.00, 0.00, 0.00, 0.00, 0.00, 0.00, 0.000, 0.000, 0.000, 14:12:56.658, 1551726776658
73, -5040.25, 0.00, 0.00, 0.00, 0.00, 0.00, 0.00, 0.00, 0.000, 0.000, 0.000, 14:12:56.667, 1551726776667
74, -5018.57, 0.00, 0.00, 0.00, 0.00, 0.00, 0.00, 0.00, 0.000, 0.000, 0.000, 14:12:56.667, 1551726776667
75, -5019.93, 0.00, 0.00, 0.00, 0.00, 0.00, 0.00, 0.00, 0.000, 0.000, 0.000, 14:12:56.674, 1551726776674
76, -5045.44, 0.00, 0.00, 0.00, 0.00, 0.00, 0.00, 0.00, 0.000, 0.000, 0.000, 14:12:56.674, 1551726776674
77, -5049.91, 0.00, 0.00, 0.00, 0.00, 0.00, 0.00, 0.00, 0.000, 0.000, 0.000, 14:12:56.680, 1551726776680
78, -5021.27, 0.00, 0.00, 0.00, 0.00, 0.00, 0.00, 0.00, 0.000, 0.000, 0.000, 14:12:56.680, 1551726776680
79, -5020.47, 0.00, 0.00, 0.00, 0.00, 0.00, 0.00, 0.00, 0.000, 0.000, 0.000, 14:12:56.688, 1551726776688
80, -5043.09, 0.00, 0.00, 0.00, 0.00, 0.00, 0.00, 0.00, -0.156, 0.904, -0.470, 14:12:56.688, 1551726776688
81, -5051.02, 0.00, 0.00, 0.00, 0.00, 0.00, 0.00, 0.00, 0.000, 0.000, 0.000, 14:12:56.695, 1551726776695
82, -5033.68, 0.00, 0.00, 0.00, 0.00, 0.00, 0.00, 0.00, 0.000, 0.000, 0.000, 14:12:56.703, 1551726776703
83, -5035.11, 0.00, 0.00, 0.00, 0.00, 0.00, 0.00, 0.00, 0.000, 0.000, 0.000, 14:12:56.704, 1551726776704
84, -5035.60, 0.00, 0.00, 0.00, 0.00, 0.00, 0.00, 0.00, 0.000, 0.000, 0.000, 14:12:56.710, 1551726776710
85, -5050.13, 0.00, 0.00, 0.00, 0.00, 0.00, 0.00, 0.00, 0.000, 0.000, 0.000, 14:12:56.711, 1551726776711
86, -5031.09, 0.00, 0.00, 0.00, 0.00, 0.00, 0.00, 0.00, 0.000, 0.000, 0.000, 14:12:56.718, 1551726776718
87, -5018.84, 0.00, 0.00, 0.00, 0.00, 0.00, 0.00, 0.00, 0.000, 0.000, 0.000, 14:12:56.718, 1551726776718
88, -5029.95, 0.00, 0.00, 0.00, 0.00, 0.00, 0.00, 0.00, 0.000, 0.000, 0.000, 14:12:56.726, 1551726776726
89, -5054.71, 0.00, 0.00, 0.00, 0.00, 0.00, 0.00, 0.00, 0.000, 0.000, 0.000, 14:12:56.726, 1551726776726
90, -5031.74, 0.00, 0.00, 0.00, 0.00, 0.00, 0.00, 0.00, -0.152, 0.904, -0.468, 14:12:56.733, 1551726776733
91, -5013.45, 0.00, 0.00, 0.00, 0.00, 0.00, 0.00, 0.00, 0.000, 0.000, 0.000, 14:12:56.733, 1551726776733
92, -5024.63, 0.00, 0.00, 0.00, 0.00, 0.00, 0.00, 0.00, 0.000, 0.000, 0.000, 14:12:56.740, 1551726776740
93, -5050.80, 0.00, 0.00, 0.00, 0.00, 0.00, 0.00, 0.00, 0.000, 0.000, 0.000, 14:12:56.741, 1551726776741
94, -5031.96, 0.00, 0.00, 0.00, 0.00, 0.00, 0.00, 0.00, 0.000, 0.000, 0.000, 14:12:56.748, 1551726776748
95, -5010.32, 0.00, 0.00, 0.00, 0.00, 0.00, 0.00, 0.00, 0.000, 0.000, 0.000, 14:12:56.749, 1551726776749
96, -5016.00, 0.00, 0.00, 0.00, 0.00, 0.00, 0.00, 0.00, 0.000, 0.000, 0.000, 14:12:56.756, 1551726776756
97, -5039.02, 0.00, 0.00, 0.00, 0.00, 0.00, 0.00, 0.00, 0.000, 0.000, 0.000, 14:12:56.756, 1551726776756
98, -5036.65, 0.00, 0.00, 0.00, 0.00, 0.00, 0.00, 0.00, 0.000, 0.000, 0.000, 14:12:56.763, 1551726776763
99, -5015.33, 0.00, 0.00, 0.00, 0.00, 0.00, 0.00, 0.00, 0.000, 0.000, 0.000, 14:12:56.770, 1551726776770
100, -5017.01, 0.00, 0.00, 0.00, 0.00, 0.00, 0.00, 0.00, -0.150, 0.898, -0.468, 14:12:56.771, 1551726776771
101, -5036.65, 0.00, 0.00, 0.00, 0.00, 0.00, 0.00, 0.00, 0.000, 0.000, 0.000, 14:12:56.778, 1551726776778
102, -5039.85, 0.00, 0.00, 0.00, 0.00, 0.00, 0.00, 0.00, 0.000, 0.000, 0.000, 14:12:56.778, 1551726776778
103, -5019.67, 0.00, 0.00, 0.00, 0.00, 0.00, 0.00, 0.00, 0.000, 0.000, 0.000, 14:12:56.786, 1551726776786
104, -5013.29, 0.00, 0.00, 0.00, 0.00, 0.00, 0.00, 0.00, 0.000, 0.000, 0.000, 14:12:56.787, 1551726776787
105, -5025.05, 0.00, 0.00, 0.00, 0.00, 0.00, 0.00, 0.00, 0.000, 0.000, 0.000, 14:12:56.793, 1551726776793
106, -5042.42, 0.00, 0.00, 0.00, 0.00, 0.00, 0.00, 0.00, 0.000, 0.000, 0.000, 14:12:56.793, 1551726776793
107, -5017.70, 0.00, 0.00, 0.00, 0.00, 0.00, 0.00, 0.00, 0.000, 0.000, 0.000, 14:12:56.801, 1551726776801
108, -5012.51, 0.00, 0.00, 0.00, 0.00, 0.00, 0.00, 0.00, 0.000, 0.000, 0.000, 14:12:56.801, 1551726776801
109, -5025.21, 0.00, 0.00, 0.00, 0.00, 0.00, 0.00, 0.00, 0.000, 0.000, 0.000, 14:12:56.809, 1551726776809
110, -5040.47, 0.00, 0.00, 0.00, 0.00, 0.00, 0.00, 0.00, -0.150, 0.898, -0.466, 14:12:56.809, 1551726776809
111, -5018.68, 0.00, 0.00, 0.00, 0.00, 0.00, 0.00, 0.00, 0.000, 0.000, 0.000, 14:12:56.815, 1551726776815
112, -5004.87, 0.00, 0.00, 0.00, 0.00, 0.00, 0.00, 0.00, 0.000, 0.000, 0.000, 14:12:56.815, 1551726776815
113, -5016.98, 0.00, 0.00, 0.00, 0.00, 0.00, 0.00, 0.00, 0.000, 0.000, 0.000, 14:12:56.823, 1551726776823
114, -5041.75, 0.00, 0.00, 0.00, 0.00, 0.00, 0.00, 0.00, 0.000, 0.000, 0.000, 14:12:56.831, 1551726776831
115, -5029.16, 0.00, 0.00, 0.00, 0.00, 0.00, 0.00, 0.00, 0.000, 0.000, 0.000, 14:12:56.831, 1551726776831
116, -5008.62, 0.00, 0.00, 0.00, 0.00, 0.00, 0.00, 0.00, 0.000, 0.000, 0.000, 14:12:56.840, 1551726776840
117, -5021.07, 0.00, 0.00, 0.00, 0.00, 0.00, 0.00, 0.00, 0.000, 0.000, 0.000, 14:12:56.840, 1551726776840
118, -5041.84, 0.00, 0.00, 0.00, 0.00, 0.00, 0.00, 0.00, 0.000, 0.000, 0.000, 14:12:56.845, 1551726776845
119, -5031.91, 0.00, 0.00, 0.00, 0.00, 0.00, 0.00, 0.00, 0.000, 0.000, 0.000, 14:12:56.845, 1551726776845
120, -5012.47, 0.00, 0.00, 0.00, 0.00, 0.00, 0.00, 0.00, -0.152, 0.900, -0.466, 14:12:56.854, 1551726776854
121, -5022.24, 0.00, 0.00, 0.00, 0.00, 0.00, 0.00, 0.00, 0.000, 0.000, 0.000, 14:12:56.855, 1551726776855
122, -5033.81, 0.00, 0.00, 0.00, 0.00, 0.00, 0.00, 0.00, 0.000, 0.000, 0.000, 14:12:56.861, 1551726776861
123, -5038.84, 0.00, 0.00, 0.00, 0.00, 0.00, 0.00, 0.00, 0.000, 0.000, 0.000, 14:12:56.862, 1551726776862
124, -5011.69, 0.00, 0.00, 0.00, 0.00, 0.00, 0.00, 0.00, 0.000, 0.000, 0.000, 14:12:56.868, 1551726776868
125, -5007.17, 0.00, 0.00, 0.00, 0.00, 0.00, 0.00, 0.00, 0.000, 0.000, 0.000, 14:12:56.869, 1551726776869
126, -5025.72, 0.00, 0.00, 0.00, 0.00, 0.00, 0.00, 0.00, 0.000, 0.000, 0.000, 14:12:56.876, 1551726776876
127, -5037.81, 0.00, 0.00, 0.00, 0.00, 0.00, 0.00, 0.00, 0.000, 0.000, 0.000, 14:12:56.876, 1551726776876
128, -5009.38, 0.00, 0.00, 0.00, 0.00, 0.00, 0.00, 0.00, 0.000, 0.000, 0.000, 14:12:56.883, 1551726776883
129, -5006.01, 0.00, 0.00, 0.00, 0.00, 0.00, 0.00, 0.00, -0.156, 0.896, -0.464, 14:12:56.891, 1551726776891
130, -5024.67, 0.00, 0.00, 0.00, 0.00, 0.00, 0.00, 0.00, 0.000, 0.000, 0.000, 14:12:56.891, 1551726776891
131, -5039.78, 0.00, 0.00, 0.00, 0.00, 0.00, 0.00, 0.00, 0.000, 0.000, 0.000, 14:12:56.901, 1551726776901
132, -5017.16, 0.00, 0.00, 0.00, 0.00, 0.00, 0.00, 0.00, 0.000, 0.000, 0.000, 14:12:56.902, 1551726776902
133, -5002.57, 0.00, 0.00, 0.00, 0.00, 0.00, 0.00, 0.00, 0.000, 0.000, 0.000, 14:12:56.905, 1551726776905
134, -5012.07, 0.00, 0.00, 0.00, 0.00, 0.00, 0.00, 0.00, 0.000, 0.000, 0.000, 14:12:56.906, 1551726776906
135, -5042.26, 0.00, 0.00, 0.00, 0.00, 0.00, 0.00, 0.00, 0.000, 0.000, 0.000, 14:12:56.913, 1551726776913
136, -5020.36, 0.00, 0.00, 0.00, 0.00, 0.00, 0.00, 0.00, 0.000, 0.000, 0.000, 14:12:56.914, 1551726776914
137, -4994.81, 0.00, 0.00, 0.00, 0.00, 0.00, 0.00, 0.00, 0.000, 0.000, 0.000, 14:12:56.922, 1551726776922
138, -5016.49, 0.00, 0.00, 0.00, 0.00, 0.00, 0.00, 0.00, 0.000, 0.000, 0.000, 14:12:56.922, 1551726776922
139, -5045.15, 0.00, 0.00, 0.00, 0.00, 0.00, 0.00, 0.00, -0.150, 0.892, -0.464, 14:12:56.928, 1551726776928
140, -5025.25, 0.00, 0.00, 0.00, 0.00, 0.00, 0.00, 0.00, 0.000, 0.000, 0.000, 14:12:56.928, 1551726776928
141, -4982.74, 0.00, 0.00, 0.00, 0.00, 0.00, 0.00, 0.00, 0.000, 0.000, 0.000, 14:12:56.938, 1551726776938
142, -4997.27, 0.00, 0.00, 0.00, 0.00, 0.00, 0.00, 0.00, 0.000, 0.000, 0.000, 14:12:56.938, 1551726776938
143, -5043.98, 0.00, 0.00, 0.00, 0.00, 0.00, 0.00, 0.00, 0.000, 0.000, 0.000, 14:12:56.943, 1551726776943
144, -5040.79, 0.00, 0.00, 0.00, 0.00, 0.00, 0.00, 0.00, 0.000, 0.000, 0.000, 14:12:56.950, 1551726776950
145, -4988.26, 0.00, 0.00, 0.00, 0.00, 0.00, 0.00, 0.00, 0.000, 0.000, 0.000, 14:12:56.951, 1551726776951
146, -4993.92, 0.00, 0.00, 0.00, 0.00, 0.00, 0.00, 0.00, 0.000, 0.000, 0.000, 14:12:56.958, 1551726776958
147, -5039.60, 0.00, 0.00, 0.00, 0.00, 0.00, 0.00, 0.00, 0.000, 0.000, 0.000, 14:12:56.958, 1551726776958
148, -5046.93, 0.00, 0.00, 0.00, 0.00, 0.00, 0.00, 0.00, 0.000, 0.000, 0.000, 14:12:56.968, 1551726776968
149, -4990.45, 0.00, 0.00, 0.00, 0.00, 0.00, 0.00, 0.00, -0.148, 0.892, -0.462, 14:12:56.968, 1551726776968
150, -4990.21, 0.00, 0.00, 0.00, 0.00, 0.00, 0.00, 0.00, 0.000, 0.000, 0.000, 14:12:56.974, 1551726776974
151, -5034.62, 0.00, 0.00, 0.00, 0.00, 0.00, 0.00, 0.00, 0.000, 0.000, 0.000, 14:12:56.974, 1551726776974
152, -5053.22, 0.00, 0.00, 0.00, 0.00, 0.00, 0.00, 0.00, 0.000, 0.000, 0.000, 14:12:56.981, 1551726776981
153, -4992.96, 0.00, 0.00, 0.00, 0.00, 0.00, 0.00, 0.00, 0.000, 0.000, 0.000, 14:12:56.981, 1551726776981
154, -4989.11, 0.00, 0.00, 0.00, 0.00, 0.00, 0.00, 0.00, 0.000, 0.000, 0.000, 14:12:56.988, 1551726776988
155, -5027.69, 0.00, 0.00, 0.00, 0.00, 0.00, 0.00, 0.00, 0.000, 0.000, 0.000, 14:12:56.989, 1551726776989
156, -5068.57, 0.00, 0.00, 0.00, 0.00, 0.00, 0.00, 0.00, 0.000, 0.000, 0.000, 14:12:56.997, 1551726776997
157, -5018.03, 0.00, 0.00, 0.00, 0.00, 0.00, 0.00, 0.00, 0.000, 0.000, 0.000, 14:12:56.997, 1551726776997
158, -4983.97, 0.00, 0.00, 0.00, 0.00, 0.00, 0.00, 0.00, 0.000, 0.000, 0.000, 14:12:57.004, 1551726777004
159, -5017.39, 0.00, 0.00, 0.00, 0.00, 0.00, 0.00, 0.00, -0.150, 0.892, -0.462, 14:12:57.004, 1551726777004
160, -5068.91, 0.00, 0.00, 0.00, 0.00, 0.00, 0.00, 0.00, 0.000, 0.000, 0.000, 14:12:57.010, 1551726777010
161, -5028.20, 0.00, 0.00, 0.00, 0.00, 0.00, 0.00, 0.00, 0.000, 0.000, 0.000, 14:12:57.018, 1551726777018
162, -4990.59, 0.00, 0.00, 0.00, 0.00, 0.00, 0.00, 0.00, 0.000, 0.000, 0.000, 14:12:57.018, 1551726777018
163, -5012.31, 0.00, 0.00, 0.00, 0.00, 0.00, 0.00, 0.00, 0.000, 0.000, 0.000, 14:12:57.026, 1551726777026
164, -5068.10, 0.00, 0.00, 0.00, 0.00, 0.00, 0.00, 0.00, 0.000, 0.000, 0.000, 14:12:57.026, 1551726777026
165, -5037.86, 0.00, 0.00, 0.00, 0.00, 0.00, 0.00, 0.00, 0.000, 0.000, 0.000, 14:12:57.034, 1551726777034
166, -4987.93, 0.00, 0.00, 0.00, 0.00, 0.00, 0.00, 0.00, 0.000, 0.000, 0.000, 14:12:57.034, 1551726777034
167, -5005.43, 0.00, 0.00, 0.00, 0.00, 0.00, 0.00, 0.00, 0.000, 0.000, 0.000, 14:12:57.041, 1551726777041
168, -5058.38, 0.00, 0.00, 0.00, 0.00, 0.00, 0.00, 0.00, 0.000, 0.000, 0.000, 14:12:57.041, 1551726777041
169, -5044.36, 0.00, 0.00, 0.00, 0.00, 0.00, 0.00, 0.00, -0.150, 0.892, -0.464, 14:12:57.050, 1551726777050
170, -4987.70, 0.00, 0.00, 0.00, 0.00, 0.00, 0.00, 0.00, 0.000, 0.000, 0.000, 14:12:57.050, 1551726777050
171, -5001.40, 0.00, 0.00, 0.00, 0.00, 0.00, 0.00, 0.00, 0.000, 0.000, 0.000, 14:12:57.057, 1551726777057
172, -5050.02, 0.00, 0.00, 0.00, 0.00, 0.00, 0.00, 0.00, 0.000, 0.000, 0.000, 14:12:57.057, 1551726777057
173, -5067.03, 0.00, 0.00, 0.00, 0.00, 0.00, 0.00, 0.00, 0.000, 0.000, 0.000, 14:12:57.064, 1551726777064
174, -4988.37, 0.00, 0.00, 0.00, 0.00, 0.00, 0.00, 0.00, 0.000, 0.000, 0.000, 14:12:57.064, 1551726777064
175, -4989.16, 0.00, 0.00, 0.00, 0.00, 0.00, 0.00, 0.00, 0.000, 0.000, 0.000, 14:12:57.071, 1551726777071
176, -5037.57, 0.00, 0.00, 0.00, 0.00, 0.00, 0.00, 0.00, 0.000, 0.000, 0.000, 14:12:57.078, 1551726777078
177, -5065.40, 0.00, 0.00, 0.00, 0.00, 0.00, 0.00, 0.00, 0.000, 0.000, 0.000, 14:12:57.079, 1551726777079
178, -5002.54, 0.00, 0.00, 0.00, 0.00, 0.00, 0.00, 0.00, 0.000, 0.000, 0.000, 14:12:57.085, 1551726777085
179, -4989.58, 0.00, 0.00, 0.00, 0.00, 0.00, 0.00, 0.00, -0.154, 0.894, -0.464, 14:12:57.086, 1551726777086
180, -5030.80, 0.00, 0.00, 0.00, 0.00, 0.00, 0.00, 0.00, 0.000, 0.000, 0.000, 14:12:57.093, 1551726777093
181, -5068.95, 0.00, 0.00, 0.00, 0.00, 0.00, 0.00, 0.00, 0.000, 0.000, 0.000, 14:12:57.093, 1551726777093
182, -5009.79, 0.00, 0.00, 0.00, 0.00, 0.00, 0.00, 0.00, 0.000, 0.000, 0.000, 14:12:57.102, 1551726777102
183, -4993.25, 0.00, 0.00, 0.00, 0.00, 0.00, 0.00, 0.00, 0.000, 0.000, 0.000, 14:12:57.102, 1551726777102
184, -5023.15, 0.00, 0.00, 0.00, 0.00, 0.00, 0.00, 0.00, 0.000, 0.000, 0.000, 14:12:57.109, 1551726777109
185, -5071.28, 0.00, 0.00, 0.00, 0.00, 0.00, 0.00, 0.00, 0.000, 0.000, 0.000, 14:12:57.110, 1551726777110
186, -5028.70, 0.00, 0.00, 0.00, 0.00, 0.00, 0.00, 0.00, 0.000, 0.000, 0.000, 14:12:57.116, 1551726777116
187, -4988.17, 0.00, 0.00, 0.00, 0.00, 0.00, 0.00, 0.00, 0.000, 0.000, 0.000, 14:12:57.119, 1551726777119
188, -5016.98, 0.00, 0.00, 0.00, 0.00, 0.00, 0.00, 0.00, 0.000, 0.000, 0.000, 14:12:57.124, 1551726777124
189, -5071.07, 0.00, 0.00, 0.00, 0.00, 0.00, 0.00, 0.00, -0.148, 0.892, -0.468, 14:12:57.124, 1551726777124
190, -5038.13, 0.00, 0.00, 0.00, 0.00, 0.00, 0.00, 0.00, 0.000, 0.000, 0.000, 14:12:57.130, 1551726777130
191, -4986.27, 0.00, 0.00, 0.00, 0.00, 0.00, 0.00, 0.00, 0.000, 0.000, 0.000, 14:12:57.138, 1551726777138
192, -5003.48, 0.00, 0.00, 0.00, 0.00, 0.00, 0.00, 0.00, 0.000, 0.000, 0.000, 14:12:57.139, 1551726777139
193, -5057.13, 0.00, 0.00, 0.00, 0.00, 0.00, 0.00, 0.00, 0.000, 0.000, 0.000, 14:12:57.145, 1551726777145
194, -5051.83, 0.00, 0.00, 0.00, 0.00, 0.00, 0.00, 0.00, 0.000, 0.000, 0.000, 14:12:57.146, 1551726777146
195, -4995.53, 0.00, 0.00, 0.00, 0.00, 0.00, 0.00, 0.00, 0.000, 0.000, 0.000, 14:12:57.153, 1551726777153
196, -5003.04, 0.00, 0.00, 0.00, 0.00, 0.00, 0.00, 0.00, 0.000, 0.000, 0.000, 14:12:57.154, 1551726777154
197, -5051.96, 0.00, 0.00, 0.00, 0.00, 0.00, 0.00, 0.00, 0.000, 0.000, 0.000, 14:12:57.162, 1551726777162
198, -5061.22, 0.00, 0.00, 0.00, 0.00, 0.00, 0.00, 0.00, -0.148, 0.896, -0.468, 14:12:57.162, 1551726777162
199, -4998.30, 0.00, 0.00, 0.00, 0.00, 0.00, 0.00, 0.00, 0.000, 0.000, 0.000, 14:12:57.170, 1551726777170
200, -5001.52, 0.00, 0.00, 0.00, 0.00, 0.00, 0.00, 0.00, 0.000, 0.000, 0.000, 14:12:57.170, 1551726777170
201, -5038.55, 0.00, 0.00, 0.00, 0.00, 0.00, 0.00, 0.00, 0.000, 0.000, 0.000, 14:12:57.176, 1551726777176
202, -5062.92, 0.00, 0.00, 0.00, 0.00, 0.00, 0.00, 0.00, 0.000, 0.000, 0.000, 14:12:57.176, 1551726777176
203, -4998.83, 0.00, 0.00, 0.00, 0.00, 0.00, 0.00, 0.00, 0.000, 0.000, 0.000, 14:12:57.184, 1551726777184
204, -4983.66, 0.00, 0.00, 0.00, 0.00, 0.00, 0.00, 0.00, 0.000, 0.000, 0.000, 14:12:57.184, 1551726777184
205, -5018.86, 0.00, 0.00, 0.00, 0.00, 0.00, 0.00, 0.00, 0.000, 0.000, 0.000, 14:12:57.191, 1551726777191
206, -5069.00, 0.00, 0.00, 0.00, 0.00, 0.00, 0.00, 0.00, 0.000, 0.000, 0.000, 14:12:57.198, 1551726777198
207, -5009.56, 0.00, 0.00, 0.00, 0.00, 0.00, 0.00, 0.00, 0.000, 0.000, 0.000, 14:12:57.198, 1551726777198
208, -4976.66, 0.00, 0.00, 0.00, 0.00, 0.00, 0.00, 0.00, -0.150, 0.896, -0.472, 14:12:57.206, 1551726777206
209, -5008.09, 0.00, 0.00, 0.00, 0.00, 0.00, 0.00, 0.00, 0.000, 0.000, 0.000, 14:12:57.206, 1551726777206
210, -5057.48, 0.00, 0.00, 0.00, 0.00, 0.00, 0.00, 0.00, 0.000, 0.000, 0.000, 14:12:57.213, 1551726777213
211, -5019.37, 0.00, 0.00, 0.00, 0.00, 0.00, 0.00, 0.00, 0.000, 0.000, 0.000, 14:12:57.214, 1551726777214
212, -4979.23, 0.00, 0.00, 0.00, 0.00, 0.00, 0.00, 0.00, 0.000, 0.000, 0.000, 14:12:57.221, 1551726777221
213, -5006.88, 0.00, 0.00, 0.00, 0.00, 0.00, 0.00, 0.00, 0.000, 0.000, 0.000, 14:12:57.221, 1551726777221
214, -5058.56, 0.00, 0.00, 0.00, 0.00, 0.00, 0.00, 0.00, 0.000, 0.000, 0.000, 14:12:57.228, 1551726777228
215, -5037.05, 0.00, 0.00, 0.00, 0.00, 0.00, 0.00, 0.00, 0.000, 0.000, 0.000, 14:12:57.229, 1551726777229
216, -4979.19, 0.00, 0.00, 0.00, 0.00, 0.00, 0.00, 0.00, 0.000, 0.000, 0.000, 14:12:57.236, 1551726777236
217, -4999.06, 0.00, 0.00, 0.00, 0.00, 0.00, 0.00, 0.00, 0.000, 0.000, 0.000, 14:12:57.236, 1551726777236
218, -5050.22, 0.00, 0.00, 0.00, 0.00, 0.00, 0.00, 0.00, -0.150, 0.900, -0.472, 14:12:57.244, 1551726777244
219, -5044.23, 0.00, 0.00, 0.00, 0.00, 0.00, 0.00, 0.00, 0.000, 0.000, 0.000, 14:12:57.245, 1551726777245
220, -4979.90, 0.00, 0.00, 0.00, 0.00, 0.00, 0.00, 0.00, 0.000, 0.000, 0.000, 14:12:57.250, 1551726777250
221, -4990.45, 0.00, 0.00, 0.00, 0.00, 0.00, 0.00, 0.00, 0.000, 0.000, 0.000, 14:12:57.250, 1551726777250
222, -5033.19, 0.00, 0.00, 0.00, 0.00, 0.00, 0.00, 0.00, 0.000, 0.000, 0.000, 14:12:57.258, 1551726777258
223, -5047.85, 0.00, 0.00, 0.00, 0.00, 0.00, 0.00, 0.00, 0.000, 0.000, 0.000, 14:12:57.266, 1551726777266
224, -4992.28, 0.00, 0.00, 0.00, 0.00, 0.00, 0.00, 0.00, 0.000, 0.000, 0.000, 14:12:57.266, 1551726777266
225, -4985.29, 0.00, 0.00, 0.00, 0.00, 0.00, 0.00, 0.00, 0.000, 0.000, 0.000, 14:12:57.274, 1551726777274
226, -5023.60, 0.00, 0.00, 0.00, 0.00, 0.00, 0.00, 0.00, 0.000, 0.000, 0.000, 14:12:57.274, 1551726777274
227, -5059.14, 0.00, 0.00, 0.00, 0.00, 0.00, 0.00, 0.00, 0.000, 0.000, 0.000, 14:12:57.280, 1551726777280
228, -5005.16, 0.00, 0.00, 0.00, 0.00, 0.00, 0.00, 0.00, -0.152, 0.900, -0.470, 14:12:57.280, 1551726777280
229, -4983.86, 0.00, 0.00, 0.00, 0.00, 0.00, 0.00, 0.00, 0.000, 0.000, 0.000, 14:12:57.288, 1551726777288
230, -5016.31, 0.00, 0.00, 0.00, 0.00, 0.00, 0.00, 0.00, 0.000, 0.000, 0.000, 14:12:57.288, 1551726777288
231, -5071.54, 0.00, 0.00, 0.00, 0.00, 0.00, 0.00, 0.00, 0.000, 0.000, 0.000, 14:12:57.296, 1551726777296
232, -5023.53, 0.00, 0.00, 0.00, 0.00, 0.00, 0.00, 0.00, 0.000, 0.000, 0.000, 14:12:57.297, 1551726777297
233, -4983.19, 0.00, 0.00, 0.00, 0.00, 0.00, 0.00, 0.00, 0.000, 0.000, 0.000, 14:12:57.304, 1551726777304
234, -5012.09, 0.00, 0.00, 0.00, 0.00, 0.00, 0.00, 0.00, 0.000, 0.000, 0.000, 14:12:57.304, 1551726777304
235, -5058.83, 0.00, 0.00, 0.00, 0.00, 0.00, 0.00, 0.00, 0.000, 0.000, 0.000, 14:12:57.311, 1551726777311
236, -5030.93, 0.00, 0.00, 0.00, 0.00, 0.00, 0.00, 0.00, 0.000, 0.000, 0.000, 14:12:57.311, 1551726777311
237, -4992.53, 0.00, 0.00, 0.00, 0.00, 0.00, 0.00, 0.00, 0.000, 0.000, 0.000, 14:12:57.318, 1551726777318
238, -5000.58, 0.00, 0.00, 0.00, 0.00, 0.00, 0.00, 0.00, -0.150, 0.898, -0.466, 14:12:57.326, 1551726777326
239, -5046.40, 0.00, 0.00, 0.00, 0.00, 0.00, 0.00, 0.00, 0.000, 0.000, 0.000, 14:12:57.327, 1551726777327
240, -5048.19, 0.00, 0.00, 0.00, 0.00, 0.00, 0.00, 0.00, 0.000, 0.000, 0.000, 14:12:57.333, 1551726777333
241, -5001.07, 0.00, 0.00, 0.00, 0.00, 0.00, 0.00, 0.00, 0.000, 0.000, 0.000, 14:12:57.333, 1551726777333
242, -5003.48, 0.00, 0.00, 0.00, 0.00, 0.00, 0.00, 0.00, 0.000, 0.000, 0.000, 14:12:57.341, 1551726777341
243, -5035.27, 0.00, 0.00, 0.00, 0.00, 0.00, 0.00, 0.00, 0.000, 0.000, 0.000, 14:12:57.341, 1551726777341
244, -5042.69, 0.00, 0.00, 0.00, 0.00, 0.00, 0.00, 0.00, 0.000, 0.000, 0.000, 14:12:57.349, 1551726777349
245, -5012.31, 0.00, 0.00, 0.00, 0.00, 0.00, 0.00, 0.00, 0.000, 0.000, 0.000, 14:12:57.349, 1551726777349
246, -5010.28, 0.00, 0.00, 0.00, 0.00, 0.00, 0.00, 0.00, 0.000, 0.000, 0.000, 14:12:57.356, 1551726777356
247, -5030.28, 0.00, 0.00, 0.00, 0.00, 0.00, 0.00, 0.00, 0.000, 0.000, 0.000, 14:12:57.356, 1551726777356
248, -5038.06, 0.00, 0.00, 0.00, 0.00, 0.00, 0.00, 0.00, -0.154, 0.896, -0.462, 14:12:57.363, 1551726777363
249, -5013.29, 0.00, 0.00, 0.00, 0.00, 0.00, 0.00, 0.00, 0.000, 0.000, 0.000, 14:12:57.364, 1551726777364
250, -5006.81, 0.00, 0.00, 0.00, 0.00, 0.00, 0.00, 0.00, 0.000, 0.000, 0.000, 14:12:57.371, 1551726777371
251, -5034.57, 0.00, 0.00, 0.00, 0.00, 0.00, 0.00, 0.00, 0.000, 0.000, 0.000, 14:12:57.372, 1551726777372
252, -5039.71, 0.00, 0.00, 0.00, 0.00, 0.00, 0.00, 0.00, 0.000, 0.000, 0.000, 14:12:57.378, 1551726777378
253, -5015.78, 0.00, 0.00, 0.00, 0.00, 0.00, 0.00, 0.00, 0.000, 0.000, 0.000, 14:12:57.386, 1551726777386
254, -5007.60, 0.00, 0.00, 0.00, 0.00, 0.00, 0.00, 0.00, 0.000, 0.000, 0.000, 14:12:57.386, 1551726777386
255, -5023.82, 0.00, 0.00, 0.00, 0.00, 0.00, 0.00, 0.00, 0.000, 0.000, 0.000, 14:12:57.393, 1551726777393
0, -5043.85, 0.00, 0.00, 0.00, 0.00, 0.00, 0.00, 0.00, 0.000, 0.000, 0.000, 14:12:57.393, 1551726777393
1, -5029.63, 0.00, 0.00, 0.00, 0.00, 0.00, 0.00, 0.00, -0.154, 0.894, -0.466, 14:12:57.401, 1551726777401
2, -5010.59, 0.00, 0.00, 0.00, 0.00, 0.00, 0.00, 0.00, 0.000, 0.000, 0.000, 14:12:57.402, 1551726777402
3, -5019.35, 0.00, 0.00, 0.00, 0.00, 0.00, 0.00, 0.00, 0.000, 0.000, 0.000, 14:12:57.409, 1551726777409
4, -5047.78, 0.00, 0.00, 0.00, 0.00, 0.00, 0.00, 0.00, 0.000, 0.000, 0.000, 14:12:57.409, 1551726777409
5, -5045.95, 0.00, 0.00, 0.00, 0.00, 0.00, 0.00, 0.00, 0.000, 0.000, 0.000, 14:12:57.415, 1551726777415
6, -4997.22, 0.00, 0.00, 0.00, 0.00, 0.00, 0.00, 0.00, 0.000, 0.000, 0.000, 14:12:57.416, 1551726777416
7, -4999.35, 0.00, 0.00, 0.00, 0.00, 0.00, 0.00, 0.00, 0.000, 0.000, 0.000, 14:12:57.423, 1551726777423
8, -5053.15, 0.00, 0.00, 0.00, 0.00, 0.00, 0.00, 0.00, 0.000, 0.000, 0.000, 14:12:57.424, 1551726777424
9, -5042.82, 0.00, 0.00, 0.00, 0.00, 0.00, 0.00, 0.00, 0.000, 0.000, 0.000, 14:12:57.432, 1551726777432
10, -4982.70, 0.00, 0.00, 0.00, 0.00, 0.00, 0.00, 0.00, 0.000, 0.000, 0.000, 14:12:57.432, 1551726777432
11, -4998.74, 0.00, 0.00, 0.00, 0.00, 0.00, 0.00, 0.00, -0.148, 0.896, -0.464, 14:12:57.438, 1551726777438
12, -5036.45, 0.00, 0.00, 0.00, 0.00, 0.00, 0.00, 0.00, 0.000, 0.000, 0.000, 14:12:57.445, 1551726777445
13, -5060.41, 0.00, 0.00, 0.00, 0.00, 0.00, 0.00, 0.00, 0.000, 0.000, 0.000, 14:12:57.445, 1551726777445
14, -5006.37, 0.00, 0.00, 0.00, 0.00, 0.00, 0.00, 0.00, 0.000, 0.000, 0.000, 14:12:57.454, 1551726777454
15, -5000.49, 0.00, 0.00, 0.00, 0.00, 0.00, 0.00, 0.00, 0.000, 0.000, 0.000, 14:12:57.454, 1551726777454
16, -5042.58, 0.00, 0.00, 0.00, 0.00, 0.00, 0.00, 0.00, 0.000, 0.000, 0.000, 14:12:57.461, 1551726777461
17, -5076.57, 0.00, 0.00, 0.00, 0.00, 0.00, 0.00, 0.00, 0.000, 0.000, 0.000, 14:12:57.461, 1551726777461
18, -5016.69, 0.00, 0.00, 0.00, 0.00, 0.00, 0.00, 0.00, 0.000, 0.000, 0.000, 14:12:57.468, 1551726777468
19, -4992.40, 0.00, 0.00, 0.00, 0.00, 0.00, 0.00, 0.00, 0.000, 0.000, 0.000, 14:12:57.468, 1551726777468
20, -5019.84, 0.00, 0.00, 0.00, 0.00, 0.00, 0.00, 0.00, 0.000, 0.000, 0.000, 14:12:57.476, 1551726777476
21, -5054.82, 0.00, 0.00, 0.00, 0.00, 0.00, 0.00, 0.00, -0.152, 0.894, -0.462, 14:12:57.476, 1551726777476
22, -5010.61, 0.00, 0.00, 0.00, 0.00, 0.00, 0.00, 0.00, 0.000, 0.000, 0.000, 14:12:57.484, 1551726777484
23, -4989.29, 0.00, 0.00, 0.00, 0.00, 0.00, 0.00, 0.00, 0.000, 0.000, 0.000, 14:12:57.484, 1551726777484
24, -5001.96, 0.00, 0.00, 0.00, 0.00, 0.00, 0.00, 0.00, 0.000, 0.000, 0.000, 14:12:57.491, 1551726777491
25, -5054.15, 0.00, 0.00, 0.00, 0.00, 0.00, 0.00, 0.00, 0.000, 0.000, 0.000, 14:12:57.491, 1551726777491
26, -5022.93, 0.00, 0.00, 0.00, 0.00, 0.00, 0.00, 0.00, 0.000, 0.000, 0.000, 14:12:57.497, 1551726777497
27, -4983.97, 0.00, 0.00, 0.00, 0.00, 0.00, 0.00, 0.00, 0.000, 0.000, 0.000, 14:12:57.497, 1551726777497
28, -4997.38, 0.00, 0.00, 0.00, 0.00, 0.00, 0.00, 0.00, 0.000, 0.000, 0.000, 14:12:57.505, 1551726777505
29, -5046.89, 0.00, 0.00, 0.00, 0.00, 0.00, 0.00, 0.00, 0.000, 0.000, 0.000, 14:12:57.513, 1551726777513
30, -5033.66, 0.00, 0.00, 0.00, 0.00, 0.00, 0.00, 0.00, 0.000, 0.000, 0.000, 14:12:57.514, 1551726777514
31, -4985.53, 0.00, 0.00, 0.00, 0.00, 0.00, 0.00, 0.00, -0.152, 0.900, -0.464, 14:12:57.520, 1551726777520
32, -4990.99, 0.00, 0.00, 0.00, 0.00, 0.00, 0.00, 0.00, 0.000, 0.000, 0.000, 14:12:57.521, 1551726777521
33, -5036.47, 0.00, 0.00, 0.00, 0.00, 0.00, 0.00, 0.00, 0.000, 0.000, 0.000, 14:12:57.528, 1551726777528
34, -5054.00, 0.00, 0.00, 0.00, 0.00, 0.00, 0.00, 0.00, 0.000, 0.000, 0.000, 14:12:57.529, 1551726777529
35, -4995.88, 0.00, 0.00, 0.00, 0.00, 0.00, 0.00, 0.00, 0.000, 0.000, 0.000, 14:12:57.537, 1551726777537
36, -4987.30, 0.00, 0.00, 0.00, 0.00, 0.00, 0.00, 0.00, 0.000, 0.000, 0.000, 14:12:57.537, 1551726777537
37, -5035.83, 0.00, 0.00, 0.00, 0.00, 0.00, 0.00, 0.00, 0.000, 0.000, 0.000, 14:12:57.543, 1551726777543
38, -5057.64, 0.00, 0.00, 0.00, 0.00, 0.00, 0.00, 0.00, 0.000, 0.000, 0.000, 14:12:57.543, 1551726777543
39, -5001.81, 0.00, 0.00, 0.00, 0.00, 0.00, 0.00, 0.00, 0.000, 0.000, 0.000, 14:12:57.551, 1551726777551
40, -4991.73, 0.00, 0.00, 0.00, 0.00, 0.00, 0.00, 0.00, 0.000, 0.000, 0.000, 14:12:57.551, 1551726777551
41, -5028.70, 0.00, 0.00, 0.00, 0.00, 0.00, 0.00, 0.00, -0.162, 0.898, -0.458, 14:12:57.559, 1551726777559
42, -5077.18, 0.00, 0.00, 0.00, 0.00, 0.00, 0.00, 0.00, 0.000, 0.000, 0.000, 14:12:57.559, 1551726777559
43, -5025.16, 0.00, 0.00, 0.00, 0.00, 0.00, 0.00, 0.00, 0.000, 0.000, 0.000, 14:12:57.566, 1551726777566
44, -4994.21, 0.00, 0.00, 0.00, 0.00, 0.00, 0.00, 0.00, 0.000, 0.000, 0.000, 14:12:57.573, 1551726777573
45, -5022.35, 0.00, 0.00, 0.00, 0.00, 0.00, 0.00, 0.00, 0.000, 0.000, 0.000, 14:12:57.573, 1551726777573
46, -5064.95, 0.00, 0.00, 0.00, 0.00, 0.00, 0.00, 0.00, 0.000, 0.000, 0.000, 14:12:57.580, 1551726777580
47, -5023.53, 0.00, 0.00, 0.00, 0.00, 0.00, 0.00, 0.00, 0.000, 0.000, 0.000, 14:12:57.581, 1551726777581
48, -4993.25, 0.00, 0.00, 0.00, 0.00, 0.00, 0.00, 0.00, 0.000, 0.000, 0.000, 14:12:57.589, 1551726777589
49, -5019.51, 0.00, 0.00, 0.00, 0.00, 0.00, 0.00, 0.00, 0.000, 0.000, 0.000, 14:12:57.589, 1551726777589
50, -5059.92, 0.00, 0.00, 0.00, 0.00, 0.00, 0.00, 0.00, 0.000, 0.000, 0.000, 14:12:57.596, 1551726777596
51, -5032.12, 0.00, 0.00, 0.00, 0.00, 0.00, 0.00, 0.00, -0.158, 0.902, -0.466, 14:12:57.596, 1551726777596
52, -4984.26, 0.00, 0.00, 0.00, 0.00, 0.00, 0.00, 0.00, 0.000, 0.000, 0.000, 14:12:57.603, 1551726777603
53, -5004.51, 0.00, 0.00, 0.00, 0.00, 0.00, 0.00, 0.00, 0.000, 0.000, 0.000, 14:12:57.604, 1551726777604
54, -5053.15, 0.00, 0.00, 0.00, 0.00, 0.00, 0.00, 0.00, 0.000, 0.000, 0.000, 14:12:57.611, 1551726777611
55, -5043.34, 0.00, 0.00, 0.00, 0.00, 0.00, 0.00, 0.00, 0.000, 0.000, 0.000, 14:12:57.611, 1551726777611
56, -4994.12, 0.00, 0.00, 0.00, 0.00, 0.00, 0.00, 0.00, 0.000, 0.000, 0.000, 14:12:57.619, 1551726777619
57, -5006.88, 0.00, 0.00, 0.00, 0.00, 0.00, 0.00, 0.00, 0.000, 0.000, 0.000, 14:12:57.619, 1551726777619
58, -5059.23, 0.00, 0.00, 0.00, 0.00, 0.00, 0.00, 0.00, 0.000, 0.000, 0.000, 14:12:57.626, 1551726777626
59, -5065.87, 0.00, 0.00, 0.00, 0.00, 0.00, 0.00, 0.00, 0.000, 0.000, 0.000, 14:12:57.633, 1551726777633
60, -5008.38, 0.00, 0.00, 0.00, 0.00, 0.00, 0.00, 0.00, 0.000, 0.000, 0.000, 14:12:57.633, 1551726777633
61, -5002.19, 0.00, 0.00, 0.00, 0.00, 0.00, 0.00, 0.00, -0.152, 0.894, -0.462, 14:12:57.641, 1551726777641
62, -5044.21, 0.00, 0.00, 0.00, 0.00, 0.00, 0.00, 0.00, 0.000, 0.000, 0.000, 14:12:57.642, 1551726777642
63, -5068.17, 0.00, 0.00, 0.00, 0.00, 0.00, 0.00, 0.00, 0.000, 0.000, 0.000, 14:12:57.649, 1551726777649
64, -5008.96, 0.00, 0.00, 0.00, 0.00, 0.00, 0.00, 0.00, 0.000, 0.000, 0.000, 14:12:57.649, 1551726777649
65, -5003.42, 0.00, 0.00, 0.00, 0.00, 0.00, 0.00, 0.00, 0.000, 0.000, 0.000, 14:12:57.656, 1551726777656
66, -5030.55, 0.00, 0.00, 0.00, 0.00, 0.00, 0.00, 0.00, 0.000, 0.000, 0.000, 14:12:57.656, 1551726777656
67, -5070.69, 0.00, 0.00, 0.00, 0.00, 0.00, 0.00, 0.00, 0.000, 0.000, 0.000, 14:12:57.663, 1551726777663
68, -5020.29, 0.00, 0.00, 0.00, 0.00, 0.00, 0.00, 0.00, 0.000, 0.000, 0.000, 14:12:57.663, 1551726777663
69, -4990.90, 0.00, 0.00, 0.00, 0.00, 0.00, 0.00, 0.00, 0.000, 0.000, 0.000, 14:12:57.672, 1551726777672
70, -5021.86, 0.00, 0.00, 0.00, 0.00, 0.00, 0.00, 0.00, -0.150, 0.894, -0.466, 14:12:57.672, 1551726777672
71, -5071.61, 0.00, 0.00, 0.00, 0.00, 0.00, 0.00, 0.00, 0.000, 0.000, 0.000, 14:12:57.678, 1551726777678
72, -5040.27, 0.00, 0.00, 0.00, 0.00, 0.00, 0.00, 0.00, 0.000, 0.000, 0.000, 14:12:57.678, 1551726777678
73, -5000.22, 0.00, 0.00, 0.00, 0.00, 0.00, 0.00, 0.00, 0.000, 0.000, 0.000, 14:12:57.685, 1551726777685
74, -5016.60, 0.00, 0.00, 0.00, 0.00, 0.00, 0.00, 0.00, 0.000, 0.000, 0.000, 14:12:57.693, 1551726777693
75, -5047.85, 0.00, 0.00, 0.00, 0.00, 0.00, 0.00, 0.00, 0.000, 0.000, 0.000, 14:12:57.693, 1551726777693
76, -5036.63, 0.00, 0.00, 0.00, 0.00, 0.00, 0.00, 0.00, 0.000, 0.000, 0.000, 14:12:57.701, 1551726777701
77, -5018.77, 0.00, 0.00, 0.00, 0.00, 0.00, 0.00, 0.00, 0.000, 0.000, 0.000, 14:12:57.701, 1551726777701
78, -5033.01, 0.00, 0.00, 0.00, 0.00, 0.00, 0.00, 0.00, 0.000, 0.000, 0.000, 14:12:57.709, 1551726777709
79, -5059.83, 0.00, 0.00, 0.00, 0.00, 0.00, 0.00, 0.00, 0.000, 0.000, 0.000, 14:12:57.709, 1551726777709
80, -5040.50, 0.00, 0.00, 0.00, 0.00, 0.00, 0.00, 0.00, -0.152, 0.898, -0.464, 14:12:57.716, 1551726777716
81, -5019.62, 0.00, 0.00, 0.00, 0.00, 0.00, 0.00, 0.00, 0.000, 0.000, 0.000, 14:12:57.716, 1551726777716
82, -5023.69, 0.00, 0.00, 0.00, 0.00, 0.00, 0.00, 0.00, 0.000, 0.000, 0.000, 14:12:57.724, 1551726777724
83, -5040.83, 0.00, 0.00, 0.00, 0.00, 0.00, 0.00, 0.00, 0.000, 0.000, 0.000, 14:12:57.724, 1551726777724
84, -5046.15, 0.00, 0.00, 0.00, 0.00, 0.00, 0.00, 0.00, 0.000, 0.000, 0.000, 14:12:57.731, 1551726777731
85, -5019.46, 0.00, 0.00, 0.00, 0.00, 0.00, 0.00, 0.00, 0.000, 0.000, 0.000, 14:12:57.731, 1551726777731
86, -5014.08, 0.00, 0.00, 0.00, 0.00, 0.00, 0.00, 0.00, 0.000, 0.000, 0.000, 14:12:57.738, 1551726777738
87, -5032.54, 0.00, 0.00, 0.00, 0.00, 0.00, 0.00, 0.00, 0.000, 0.000, 0.000, 14:12:57.738, 1551726777738
88, -5047.96, 0.00, 0.00, 0.00, 0.00, 0.00, 0.00, 0.00, 0.000, 0.000, 0.000, 14:12:57.745, 1551726777745
89, -5029.81, 0.00, 0.00, 0.00, 0.00, 0.00, 0.00, 0.00, 0.000, 0.000, 0.000, 14:12:57.745, 1551726777745
90, -5019.08, 0.00, 0.00, 0.00, 0.00, 0.00, 0.00, 0.00, -0.154, 0.900, -0.458, 14:12:57.753, 1551726777753
91, -5025.21, 0.00, 0.00, 0.00, 0.00, 0.00, 0.00, 0.00, 0.000, 0.000, 0.000, 14:12:57.761, 1551726777761
92, -5042.02, 0.00, 0.00, 0.00, 0.00, 0.00, 0.00, 0.00, 0.000, 0.000, 0.000, 14:12:57.761, 1551726777761
93, -5019.24, 0.00, 0.00, 0.00, 0.00, 0.00, 0.00, 0.00, 0.000, 0.000, 0.000, 14:12:57.768, 1551726777768
94, -4999.33, 0.00, 0.00, 0.00, 0.00, 0.00, 0.00, 0.00, 0.000, 0.000, 0.000, 14:12:57.768, 1551726777768
95, -5018.15, 0.00, 0.00, 0.00, 0.00, 0.00, 0.00, 0.00, 0.000, 0.000, 0.000, 14:12:57.776, 1551726777776
96, -5038.60, 0.00, 0.00, 0.00, 0.00, 0.00, 0.00, 0.00, 0.000, 0.000, 0.000, 14:12:57.776, 1551726777776
97, -5022.15, 0.00, 0.00, 0.00, 0.00, 0.00, 0.00, 0.00, 0.000, 0.000, 0.000, 14:12:57.784, 1551726777784
98, -5005.90, 0.00, 0.00, 0.00, 0.00, 0.00, 0.00, 0.00, 0.000, 0.000, 0.000, 14:12:57.784, 1551726777784
99, -5013.16, 0.00, 0.00, 0.00, 0.00, 0.00, 0.00, 0.00, 0.000, 0.000, 0.000, 14:12:57.791, 1551726777791
100, -5031.80, 0.00, 0.00, 0.00, 0.00, 0.00, 0.00, 0.00, -0.154, 0.892, -0.460, 14:12:57.791, 1551726777791
101, -5025.81, 0.00, 0.00, 0.00, 0.00, 0.00, 0.00, 0.00, 0.000, 0.000, 0.000, 14:12:57.798, 1551726777798
102, -5005.81, 0.00, 0.00, 0.00, 0.00, 0.00, 0.00, 0.00, 0.000, 0.000, 0.000, 14:12:57.798, 1551726777798
103, -5013.72, 0.00, 0.00, 0.00, 0.00, 0.00, 0.00, 0.00, 0.000, 0.000, 0.000, 14:12:57.806, 1551726777806
104, -5031.29, 0.00, 0.00, 0.00, 0.00, 0.00, 0.00, 0.00, 0.000, 0.000, 0.000, 14:12:57.806, 1551726777806
105, -5031.02, 0.00, 0.00, 0.00, 0.00, 0.00, 0.00, 0.00, 0.000, 0.000, 0.000, 14:12:57.814, 1551726777814
106, -5003.82, 0.00, 0.00, 0.00, 0.00, 0.00, 0.00, 0.00, 0.000, 0.000, 0.000, 14:12:57.820, 1551726777820
107, -5009.70, 0.00, 0.00, 0.00, 0.00, 0.00, 0.00, 0.00, 0.000, 0.000, 0.000, 14:12:57.820, 1551726777820
108, -5039.36, 0.00, 0.00, 0.00, 0.00, 0.00, 0.00, 0.00, 0.000, 0.000, 0.000, 14:12:57.828, 1551726777828
109, -5034.66, 0.00, 0.00, 0.00, 0.00, 0.00, 0.00, 0.00, 0.000, 0.000, 0.000, 14:12:57.828, 1551726777828
110, -5004.13, 0.00, 0.00, 0.00, 0.00, 0.00, 0.00, 0.00, -0.152, 0.898, -0.462, 14:12:57.837, 1551726777837
111, -5003.04, 0.00, 0.00, 0.00, 0.00, 0.00, 0.00, 0.00, 0.000, 0.000, 0.000, 14:12:57.837, 1551726777837
112, -5018.64, 0.00, 0.00, 0.00, 0.00, 0.00, 0.00, 0.00, 0.000, 0.000, 0.000, 14:12:57.843, 1551726777843
113, -5035.65, 0.00, 0.00, 0.00, 0.00, 0.00, 0.00, 0.00, 0.000, 0.000, 0.000, 14:12:57.843, 1551726777843
114, -5011.44, 0.00, 0.00, 0.00, 0.00, 0.00, 0.00, 0.00, 0.000, 0.000, 0.000, 14:12:57.851, 1551726777851
115, -4996.75, 0.00, 0.00, 0.00, 0.00, 0.00, 0.00, 0.00, 0.000, 0.000, 0.000, 14:12:57.851, 1551726777851
116, -5012.74, 0.00, 0.00, 0.00, 0.00, 0.00, 0.00, 0.00, 0.000, 0.000, 0.000, 14:12:57.858, 1551726777858
117, -5037.41, 0.00, 0.00, 0.00, 0.00, 0.00, 0.00, 0.00, 0.000, 0.000, 0.000, 14:12:57.859, 1551726777859
118, -5008.82, 0.00, 0.00, 0.00, 0.00, 0.00, 0.00, 0.00, 0.000, 0.000, 0.000, 14:12:57.867, 1551726777867
119, -4992.55, 0.00, 0.00, 0.00, 0.00, 0.00, 0.00, 0.00, 0.000, 0.000, 0.000, 14:12:57.867, 1551726777867
120, -5003.44, 0.00, 0.00, 0.00, 0.00, 0.00, 0.00, 0.00, -0.152, 0.902, -0.468, 14:12:57.873, 1551726777873
121, -5031.18, 0.00, 0.00, 0.00, 0.00, 0.00, 0.00, 0.00, 0.000, 0.000, 0.000, 14:12:57.880, 1551726777880
122, -5022.41, 0.00, 0.00, 0.00, 0.00, 0.00, 0.00, 0.00, 0.000, 0.000, 0.000, 14:12:57.881, 1551726777881
123, -5000.11, 0.00, 0.00, 0.00, 0.00, 0.00, 0.00, 0.00, 0.000, 0.000, 0.000, 14:12:57.888, 1551726777888
124, -5011.35, 0.00, 0.00, 0.00, 0.00, 0.00, 0.00, 0.00, 0.000, 0.000, 0.000, 14:12:57.888, 1551726777888
125, -5038.11, 0.00, 0.00, 0.00, 0.00, 0.00, 0.00, 0.00, 0.000, 0.000, 0.000, 14:12:57.896, 1551726777896
126, -5019.24, 0.00, 0.00, 0.00, 0.00, 0.00, 0.00, 0.00, 0.000, 0.000, 0.000, 14:12:57.896, 1551726777896
127, -4997.49, 0.00, 0.00, 0.00, 0.00, 0.00, 0.00, 0.00, 0.000, 0.000, 0.000, 14:12:57.904, 1551726777904
128, -4996.24, 0.00, 0.00, 0.00, 0.00, 0.00, 0.00, 0.00, 0.000, 0.000, 0.000, 14:12:57.904, 1551726777904
129, -5021.83, 0.00, 0.00, 0.00, 0.00, 0.00, 0.00, 0.00, -0.154, 0.902, -0.472, 14:12:57.911, 1551726777911
130, -5029.41, 0.00, 0.00, 0.00, 0.00, 0.00, 0.00, 0.00, 0.000, 0.000, 0.000, 14:12:57.911, 1551726777911
131, -5000.55, 0.00, 0.00, 0.00, 0.00, 0.00, 0.00, 0.00, 0.000, 0.000, 0.000, 14:12:57.919, 1551726777919
132, -4997.31, 0.00, 0.00, 0.00, 0.00, 0.00, 0.00, 0.00, 0.000, 0.000, 0.000, 14:12:57.920, 1551726777920
133, -5013.81, 0.00, 0.00, 0.00, 0.00, 0.00, 0.00, 0.00, 0.000, 0.000, 0.000, 14:12:57.933, 1551726777933
134, -5029.66, 0.00, 0.00, 0.00, 0.00, 0.00, 0.00, 0.00, 0.000, 0.000, 0.000, 14:12:57.934, 1551726777934
135, -5002.43, 0.00, 0.00, 0.00, 0.00, 0.00, 0.00, 0.00, 0.000, 0.000, 0.000, 14:12:57.934, 1551726777934
136, -4998.92, 0.00, 0.00, 0.00, 0.00, 0.00, 0.00, 0.00, 0.000, 0.000, 0.000, 14:12:57.941, 1551726777941
137, -5015.84, 0.00, 0.00, 0.00, 0.00, 0.00, 0.00, 0.00, 0.000, 0.000, 0.000, 14:12:57.941, 1551726777941
138, -5049.26, 0.00, 0.00, 0.00, 0.00, 0.00, 0.00, 0.00, 0.000, 0.000, 0.000, 14:12:57.949, 1551726777949
139, -5018.93, 0.00, 0.00, 0.00, 0.00, 0.00, 0.00, 0.00, -0.150, 0.902, -0.468, 14:12:57.949, 1551726777949
140, -4992.13, 0.00, 0.00, 0.00, 0.00, 0.00, 0.00, 0.00, 0.000, 0.000, 0.000, 14:12:57.956, 1551726777956
141, -5009.61, 0.00, 0.00, 0.00, 0.00, 0.00, 0.00, 0.00, 0.000, 0.000, 0.000, 14:12:57.956, 1551726777956
142, -5032.03, 0.00, 0.00, 0.00, 0.00, 0.00, 0.00, 0.00, 0.000, 0.000, 0.000, 14:12:57.963, 1551726777963
143, -5018.35, 0.00, 0.00, 0.00, 0.00, 0.00, 0.00, 0.00, 0.000, 0.000, 0.000, 14:12:57.963, 1551726777963
144, -4996.33, 0.00, 0.00, 0.00, 0.00, 0.00, 0.00, 0.00, 0.000, 0.000, 0.000, 14:12:57.971, 1551726777971
145, -5007.51, 0.00, 0.00, 0.00, 0.00, 0.00, 0.00, 0.00, 0.000, 0.000, 0.000, 14:12:57.972, 1551726777972
146, -5029.25, 0.00, 0.00, 0.00, 0.00, 0.00, 0.00, 0.00, 0.000, 0.000, 0.000, 14:12:57.979, 1551726777979
147, -5019.44, 0.00, 0.00, 0.00, 0.00, 0.00, 0.00, 0.00, 0.000, 0.000, 0.000, 14:12:57.979, 1551726777979
148, -4995.44, 0.00, 0.00, 0.00, 0.00, 0.00, 0.00, 0.00, 0.000, 0.000, 0.000, 14:12:57.986, 1551726777986
149, -5003.91, 0.00, 0.00, 0.00, 0.00, 0.00, 0.00, 0.00, -0.152, 0.896, -0.470, 14:12:57.986, 1551726777986
150, -5034.02, 0.00, 0.00, 0.00, 0.00, 0.00, 0.00, 0.00, 0.000, 0.000, 0.000, 14:12:57.993, 1551726777993
151, -5036.27, 0.00, 0.00, 0.00, 0.00, 0.00, 0.00, 0.00, 0.000, 0.000, 0.000, 14:12:57.993, 1551726777993
152, -5003.37, 0.00, 0.00, 0.00, 0.00, 0.00, 0.00, 0.00, 0.000, 0.000, 0.000, 14:12:58.001, 1551726778001
153, -5006.16, 0.00, 0.00, 0.00, 0.00, 0.00, 0.00, 0.00, 0.000, 0.000, 0.000, 14:12:58.008, 1551726778008
154, -5015.95, 0.00, 0.00, 0.00, 0.00, 0.00, 0.00, 0.00, 0.000, 0.000, 0.000, 14:12:58.008, 1551726778008
155, -5017.74, 0.00, 0.00, 0.00, 0.00, 0.00, 0.00, 0.00, 0.000, 0.000, 0.000, 14:12:58.015, 1551726778015
156, -4986.25, 0.00, 0.00, 0.00, 0.00, 0.00, 0.00, 0.00, 0.000, 0.000, 0.000, 14:12:58.016, 1551726778016
157, -4981.26, 0.00, 0.00, 0.00, 0.00, 0.00, 0.00, 0.00, 0.000, 0.000, 0.000, 14:12:58.024, 1551726778024
158, -5001.81, 0.00, 0.00, 0.00, 0.00, 0.00, 0.00, 0.00, 0.000, 0.000, 0.000, 14:12:58.024, 1551726778024
159, -5017.18, 0.00, 0.00, 0.00, 0.00, 0.00, 0.00, 0.00, -0.152, 0.892, -0.470, 14:12:58.031, 1551726778031
160, -4991.52, 0.00, 0.00, 0.00, 0.00, 0.00, 0.00, 0.00, 0.000, 0.000, 0.000, 14:12:58.031, 1551726778031
161, -4986.52, 0.00, 0.00, 0.00, 0.00, 0.00, 0.00, 0.00, 0.000, 0.000, 0.000, 14:12:58.038, 1551726778038
162, -5001.81, 0.00, 0.00, 0.00, 0.00, 0.00, 0.00, 0.00, 0.000, 0.000, 0.000, 14:12:58.038, 1551726778038
163, -5017.41, 0.00, 0.00, 0.00, 0.00, 0.00, 0.00, 0.00, 0.000, 0.000, 0.000, 14:12:58.046, 1551726778046
164, -4999.17, 0.00, 0.00, 0.00, 0.00, 0.00, 0.00, 0.00, 0.000, 0.000, 0.000, 14:12:58.046, 1551726778046
165, -4984.19, 0.00, 0.00, 0.00, 0.00, 0.00, 0.00, 0.00, 0.000, 0.000, 0.000, 14:12:58.054, 1551726778054
166, -4996.42, 0.00, 0.00, 0.00, 0.00, 0.00, 0.00, 0.00, 0.000, 0.000, 0.000, 14:12:58.054, 1551726778054
167, -5029.34, 0.00, 0.00, 0.00, 0.00, 0.00, 0.00, 0.00, 0.000, 0.000, 0.000, 14:12:58.060, 1551726778060
168, -5004.98, 0.00, 0.00, 0.00, 0.00, 0.00, 0.00, 0.00, 0.000, 0.000, 0.000, 14:12:58.068, 1551726778068
169, -4984.48, 0.00, 0.00, 0.00, 0.00, 0.00, 0.00, 0.00, -0.150, 0.892, -0.462, 14:12:58.068, 1551726778068
170, -4995.10, 0.00, 0.00, 0.00, 0.00, 0.00, 0.00, 0.00, 0.000, 0.000, 0.000, 14:12:58.076, 1551726778076
171, -5014.30, 0.00, 0.00, 0.00, 0.00, 0.00, 0.00, 0.00, 0.000, 0.000, 0.000, 14:12:58.076, 1551726778076
172, -5012.11, 0.00, 0.00, 0.00, 0.00, 0.00, 0.00, 0.00, 0.000, 0.000, 0.000, 14:12:58.084, 1551726778084
173, -4989.58, 0.00, 0.00, 0.00, 0.00, 0.00, 0.00, 0.00, 0.000, 0.000, 0.000, 14:12:58.084, 1551726778084
174, -4991.08, 0.00, 0.00, 0.00, 0.00, 0.00, 0.00, 0.00, 0.000, 0.000, 0.000, 14:12:58.090, 1551726778090
175, -5013.14, 0.00, 0.00, 0.00, 0.00, 0.00, 0.00, 0.00, 0.000, 0.000, 0.000, 14:12:58.091, 1551726778091
176, -5013.81, 0.00, 0.00, 0.00, 0.00, 0.00, 0.00, 0.00, 0.000, 0.000, 0.000, 14:12:58.099, 1551726778099
177, -4989.13, 0.00, 0.00, 0.00, 0.00, 0.00, 0.00, 0.00, 0.000, 0.000, 0.000, 14:12:58.099, 1551726778099
178, -4991.68, 0.00, 0.00, 0.00, 0.00, 0.00, 0.00, 0.00, 0.000, 0.000, 0.000, 14:12:58.107, 1551726778107
179, -5013.81, 0.00, 0.00, 0.00, 0.00, 0.00, 0.00, 0.00, -0.152, 0.890, -0.466, 14:12:58.107, 1551726778107
180, -5024.40, 0.00, 0.00, 0.00, 0.00, 0.00, 0.00, 0.00, 0.000, 0.000, 0.000, 14:12:58.113, 1551726778113
181, -4999.59, 0.00, 0.00, 0.00, 0.00, 0.00, 0.00, 0.00, 0.000, 0.000, 0.000, 14:12:58.114, 1551726778114
182, -4996.71, 0.00, 0.00, 0.00, 0.00, 0.00, 0.00, 0.00, 0.000, 0.000, 0.000, 14:12:58.120, 1551726778120
183, -5010.32, 0.00, 0.00, 0.00, 0.00, 0.00, 0.00, 0.00, 0.000, 0.000, 0.000, 14:12:58.128, 1551726778128
184, -5023.22, 0.00, 0.00, 0.00, 0.00, 0.00, 0.00, 0.00, 0.000, 0.000, 0.000, 14:12:58.128, 1551726778128
185, -4999.66, 0.00, 0.00, 0.00, 0.00, 0.00, 0.00, 0.00, 0.000, 0.000, 0.000, 14:12:58.137, 1551726778137
186, -4990.97, 0.00, 0.00, 0.00, 0.00, 0.00, 0.00, 0.00, 0.000, 0.000, 0.000, 14:12:58.137, 1551726778137
187, -5006.08, 0.00, 0.00, 0.00, 0.00, 0.00, 0.00, 0.00, 0.000, 0.000, 0.000, 14:12:58.143, 1551726778143
188, -5026.04, 0.00, 0.00, 0.00, 0.00, 0.00, 0.00, 0.00, -0.148, 0.890, -0.466, 14:12:58.144, 1551726778144
189, -5009.27, 0.00, 0.00, 0.00, 0.00, 0.00, 0.00, 0.00, 0.000, 0.000, 0.000, 14:12:58.151, 1551726778151
190, -4997.47, 0.00, 0.00, 0.00, 0.00, 0.00, 0.00, 0.00, 0.000, 0.000, 0.000, 14:12:58.151, 1551726778151
191, -5006.66, 0.00, 0.00, 0.00, 0.00, 0.00, 0.00, 0.00, 0.000, 0.000, 0.000, 14:12:58.159, 1551726778159
192, -5025.72, 0.00, 0.00, 0.00, 0.00, 0.00, 0.00, 0.00, 0.000, 0.000, 0.000, 14:12:58.159, 1551726778159
193, -5014.52, 0.00, 0.00, 0.00, 0.00, 0.00, 0.00, 0.00, 0.000, 0.000, 0.000, 14:12:58.166, 1551726778166
194, -4997.72, 0.00, 0.00, 0.00, 0.00, 0.00, 0.00, 0.00, 0.000, 0.000, 0.000, 14:12:58.167, 1551726778167
195, -5002.72, 0.00, 0.00, 0.00, 0.00, 0.00, 0.00, 0.00, 0.000, 0.000, 0.000, 14:12:58.173, 1551726778173
196, -5020.58, 0.00, 0.00, 0.00, 0.00, 0.00, 0.00, 0.00, 0.000, 0.000, 0.000, 14:12:58.174, 1551726778174
197, -5022.68, 0.00, 0.00, 0.00, 0.00, 0.00, 0.00, 0.00, 0.000, 0.000, 0.000, 14:12:58.180, 1551726778180
198, -5000.64, 0.00, 0.00, 0.00, 0.00, 0.00, 0.00, 0.00, -0.152, 0.894, -0.466, 14:12:58.188, 1551726778188
199, -4996.08, 0.00, 0.00, 0.00, 0.00, 0.00, 0.00, 0.00, 0.000, 0.000, 0.000, 14:12:58.188, 1551726778188
200, -5020.92, 0.00, 0.00, 0.00, 0.00, 0.00, 0.00, 0.00, 0.000, 0.000, 0.000, 14:12:58.195, 1551726778195
201, -5021.74, 0.00, 0.00, 0.00, 0.00, 0.00, 0.00, 0.00, 0.000, 0.000, 0.000, 14:12:58.196, 1551726778196
202, -5002.25, 0.00, 0.00, 0.00, 0.00, 0.00, 0.00, 0.00, 0.000, 0.000, 0.000, 14:12:58.204, 1551726778204
203, -5005.99, 0.00, 0.00, 0.00, 0.00, 0.00, 0.00, 0.00, 0.000, 0.000, 0.000, 14:12:58.205, 1551726778205
204, -5025.32, 0.00, 0.00, 0.00, 0.00, 0.00, 0.00, 0.00, 0.000, 0.000, 0.000, 14:12:58.212, 1551726778212
205, -5029.39, 0.00, 0.00, 0.00, 0.00, 0.00, 0.00, 0.00, 0.000, 0.000, 0.000, 14:12:58.212, 1551726778212
206, -5006.10, 0.00, 0.00, 0.00, 0.00, 0.00, 0.00, 0.00, 0.000, 0.000, 0.000, 14:12:58.218, 1551726778218
207, -5002.97, 0.00, 0.00, 0.00, 0.00, 0.00, 0.00, 0.00, 0.000, 0.000, 0.000, 14:12:58.218, 1551726778218
208, -5005.83, 0.00, 0.00, 0.00, 0.00, 0.00, 0.00, 0.00, -0.152, 0.898, -0.464, 14:12:58.226, 1551726778226
209, -5020.89, 0.00, 0.00, 0.00, 0.00, 0.00, 0.00, 0.00, 0.000, 0.000, 0.000, 14:12:58.227, 1551726778227
210, -5006.28, 0.00, 0.00, 0.00, 0.00, 0.00, 0.00, 0.00, 0.000, 0.000, 0.000, 14:12:58.233, 1551726778233
211, -5000.29, 0.00, 0.00, 0.00, 0.00, 0.00, 0.00, 0.00, 0.000, 0.000, 0.000, 14:12:58.234, 1551726778234
212, -5000.67, 0.00, 0.00, 0.00, 0.00, 0.00, 0.00, 0.00, 0.000, 0.000, 0.000, 14:12:58.240, 1551726778240
213, -5022.30, 0.00, 0.00, 0.00, 0.00, 0.00, 0.00, 0.00, 0.000, 0.000, 0.000, 14:12:58.240, 1551726778240
214, -5008.27, 0.00, 0.00, 0.00, 0.00, 0.00, 0.00, 0.00, 0.000, 0.000, 0.000, 14:12:58.248, 1551726778248
215, -4993.74, 0.00, 0.00, 0.00, 0.00, 0.00, 0.00, 0.00, 0.000, 0.000, 0.000, 14:12:58.257, 1551726778257
216, -5004.53, 0.00, 0.00, 0.00, 0.00, 0.00, 0.00, 0.00, 0.000, 0.000, 0.000, 14:12:58.257, 1551726778257
217, -5023.55, 0.00, 0.00, 0.00, 0.00, 0.00, 0.00, 0.00, 0.000, 0.000, 0.000, 14:12:58.263, 1551726778263
218, -5011.80, 0.00, 0.00, 0.00, 0.00, 0.00, 0.00, 0.00, -0.154, 0.896, -0.464, 14:12:58.263, 1551726778263
219, -4991.19, 0.00, 0.00, 0.00, 0.00, 0.00, 0.00, 0.00, 0.000, 0.000, 0.000, 14:12:58.271, 1551726778271
220, -4993.69, 0.00, 0.00, 0.00, 0.00, 0.00, 0.00, 0.00, 0.000, 0.000, 0.000, 14:12:58.272, 1551726778272
221, -5014.66, 0.00, 0.00, 0.00, 0.00, 0.00, 0.00, 0.00, 0.000, 0.000, 0.000, 14:12:58.278, 1551726778278
222, -5010.12, 0.00, 0.00, 0.00, 0.00, 0.00, 0.00, 0.00, 0.000, 0.000, 0.000, 14:12:58.279, 1551726778279
223, -4991.52, 0.00, 0.00, 0.00, 0.00, 0.00, 0.00, 0.00, 0.000, 0.000, 0.000, 14:12:58.286, 1551726778286
224, -4990.41, 0.00, 0.00, 0.00, 0.00, 0.00, 0.00, 0.00, 0.000, 0.000, 0.000, 14:12:58.287, 1551726778287
225, -5017.03, 0.00, 0.00, 0.00, 0.00, 0.00, 0.00, 0.00, 0.000, 0.000, 0.000, 14:12:58.293, 1551726778293
226, -5011.35, 0.00, 0.00, 0.00, 0.00, 0.00, 0.00, 0.00, 0.000, 0.000, 0.000, 14:12:58.293, 1551726778293
227, -4991.06, 0.00, 0.00, 0.00, 0.00, 0.00, 0.00, 0.00, 0.000, 0.000, 0.000, 14:12:58.301, 1551726778301
228, -4986.29, 0.00, 0.00, 0.00, 0.00, 0.00, 0.00, 0.00, -0.150, 0.898, -0.470, 14:12:58.301, 1551726778301
229, -5001.92, 0.00, 0.00, 0.00, 0.00, 0.00, 0.00, 0.00, 0.000, 0.000, 0.000, 14:12:58.308, 1551726778308
230, -5018.77, 0.00, 0.00, 0.00, 0.00, 0.00, 0.00, 0.00, 0.000, 0.000, 0.000, 14:12:58.316, 1551726778316
231, -5003.37, 0.00, 0.00, 0.00, 0.00, 0.00, 0.00, 0.00, 0.000, 0.000, 0.000, 14:12:58.316, 1551726778316
232, -4988.37, 0.00, 0.00, 0.00, 0.00, 0.00, 0.00, 0.00, 0.000, 0.000, 0.000, 14:12:58.323, 1551726778323
233, -4998.12, 0.00, 0.00, 0.00, 0.00, 0.00, 0.00, 0.00, 0.000, 0.000, 0.000, 14:12:58.323, 1551726778323
234, -5021.03, 0.00, 0.00, 0.00, 0.00, 0.00, 0.00, 0.00, 0.000, 0.000, 0.000, 14:12:58.331, 1551726778331
235, -5005.02, 0.00, 0.00, 0.00, 0.00, 0.00, 0.00, 0.00, 0.000, 0.000, 0.000, 14:12:58.331, 1551726778331
236, -4991.57, 0.00, 0.00, 0.00, 0.00, 0.00, 0.00, 0.00, 0.000, 0.000, 0.000, 14:12:58.339, 1551726778339
237, -5003.15, 0.00, 0.00, 0.00, 0.00, 0.00, 0.00, 0.00, 0.000, 0.000, 0.000, 14:12:58.339, 1551726778339
238, -5020.11, 0.00, 0.00, 0.00, 0.00, 0.00, 0.00, 0.00, -0.148, 0.896, -0.468, 14:12:58.346, 1551726778346
239, -5011.31, 0.00, 0.00, 0.00, 0.00, 0.00, 0.00, 0.00, 0.000, 0.000, 0.000, 14:12:58.346, 1551726778346
240, -4997.20, 0.00, 0.00, 0.00, 0.00, 0.00, 0.00, 0.00, 0.000, 0.000, 0.000, 14:12:58.354, 1551726778354
241, -5008.38, 0.00, 0.00, 0.00, 0.00, 0.00, 0.00, 0.00, 0.000, 0.000, 0.000, 14:12:58.354, 1551726778354
242, -5029.05, 0.00, 0.00, 0.00, 0.00, 0.00, 0.00, 0.00, 0.000, 0.000, 0.000, 14:12:58.361, 1551726778361
243, -5016.33, 0.00, 0.00, 0.00, 0.00, 0.00, 0.00, 0.00, 0.000, 0.000, 0.000, 14:12:58.362, 1551726778362
244, -4997.20, 0.00, 0.00, 0.00, 0.00, 0.00, 0.00, 0.00, 0.000, 0.000, 0.000, 14:12:58.370, 1551726778370
245, -4997.22, 0.00, 0.00, 0.00, 0.00, 0.00, 0.00, 0.00, 0.000, 0.000, 0.000, 14:12:58.375, 1551726778375
246, -5016.94, 0.00, 0.00, 0.00, 0.00, 0.00, 0.00, 0.00, 0.000, 0.000, 0.000, 14:12:58.376, 1551726778376
247, -5015.82, 0.00, 0.00, 0.00, 0.00, 0.00, 0.00, 0.00, 0.000, 0.000, 0.000, 14:12:58.383, 1551726778383
248, -4986.61, 0.00, 0.00, 0.00, 0.00, 0.00, 0.00, 0.00, -0.154, 0.894, -0.466, 14:12:58.383, 1551726778383
249, -4989.40, 0.00, 0.00, 0.00, 0.00, 0.00, 0.00, 0.00, 0.000, 0.000, 0.000, 14:12:58.391, 1551726778391
250, -5009.34, 0.00, 0.00, 0.00, 0.00, 0.00, 0.00, 0.00, 0.000, 0.000, 0.000, 14:12:58.391, 1551726778391
251, -5014.99, 0.00, 0.00, 0.00, 0.00, 0.00, 0.00, 0.00, 0.000, 0.000, 0.000, 14:12:58.399, 1551726778399
252, -4987.28, 0.00, 0.00, 0.00, 0.00, 0.00, 0.00, 0.00, 0.000, 0.000, 0.000, 14:12:58.399, 1551726778399
253, -4979.95, 0.00, 0.00, 0.00, 0.00, 0.00, 0.00, 0.00, 0.000, 0.000, 0.000, 14:12:58.406, 1551726778406
254, -4993.92, 0.00, 0.00, 0.00, 0.00, 0.00, 0.00, 0.00, 0.000, 0.000, 0.000, 14:12:58.407, 1551726778407
255, -5014.90, 0.00, 0.00, 0.00, 0.00, 0.00, 0.00, 0.00, 0.000, 0.000, 0.000, 14:12:58.414, 1551726778414
0, -4993.42, 0.00, 0.00, 0.00, 0.00, 0.00, 0.00, 0.00, 0.000, 0.000, 0.000, 14:12:58.414, 1551726778414
1, -4980.30, 0.00, 0.00, 0.00, 0.00, 0.00, 0.00, 0.00, -0.150, 0.896, -0.462, 14:12:58.422, 1551726778422
2, -4992.75, 0.00, 0.00, 0.00, 0.00, 0.00, 0.00, 0.00, 0.000, 0.000, 0.000, 14:12:58.422, 1551726778422
3, -5004.24, 0.00, 0.00, 0.00, 0.00, 0.00, 0.00, 0.00, 0.000, 0.000, 0.000, 14:12:58.428, 1551726778428
4, -4987.50, 0.00, 0.00, 0.00, 0.00, 0.00, 0.00, 0.00, 0.000, 0.000, 0.000, 14:12:58.436, 1551726778436
5, -4972.12, 0.00, 0.00, 0.00, 0.00, 0.00, 0.00, 0.00, 0.000, 0.000, 0.000, 14:12:58.437, 1551726778437
6, -4979.68, 0.00, 0.00, 0.00, 0.00, 0.00, 0.00, 0.00, 0.000, 0.000, 0.000, 14:12:58.444, 1551726778444
7, -5003.39, 0.00, 0.00, 0.00, 0.00, 0.00, 0.00, 0.00, 0.000, 0.000, 0.000, 14:12:58.444, 1551726778444
8, -4989.74, 0.00, 0.00, 0.00, 0.00, 0.00, 0.00, 0.00, 0.000, 0.000, 0.000, 14:12:58.452, 1551726778452
9, -4972.53, 0.00, 0.00, 0.00, 0.00, 0.00, 0.00, 0.00, 0.000, 0.000, 0.000, 14:12:58.452, 1551726778452
10, -4979.25, 0.00, 0.00, 0.00, 0.00, 0.00, 0.00, 0.00, 0.000, 0.000, 0.000, 14:12:58.458, 1551726778458
11, -5003.30, 0.00, 0.00, 0.00, 0.00, 0.00, 0.00, 0.00, -0.146, 0.898, -0.464, 14:12:58.458, 1551726778458
12, -5005.02, 0.00, 0.00, 0.00, 0.00, 0.00, 0.00, 0.00, 0.000, 0.000, 0.000, 14:12:58.466, 1551726778466
13, -4984.98, 0.00, 0.00, 0.00, 0.00, 0.00, 0.00, 0.00, 0.000, 0.000, 0.000, 14:12:58.466, 1551726778466
14, -4980.13, 0.00, 0.00, 0.00, 0.00, 0.00, 0.00, 0.00, 0.000, 0.000, 0.000, 14:12:58.475, 1551726778475
15, -5002.92, 0.00, 0.00, 0.00, 0.00, 0.00, 0.00, 0.00, 0.000, 0.000, 0.000, 14:12:58.476, 1551726778476
16, -5007.28, 0.00, 0.00, 0.00, 0.00, 0.00, 0.00, 0.00, 0.000, 0.000, 0.000, 14:12:58.482, 1551726778482
17, -4982.29, 0.00, 0.00, 0.00, 0.00, 0.00, 0.00, 0.00, 0.000, 0.000, 0.000, 14:12:58.482, 1551726778482
18, -4979.88, 0.00, 0.00, 0.00, 0.00, 0.00, 0.00, 0.00, 0.000, 0.000, 0.000, 14:12:58.488, 1551726778488
19, -4994.59, 0.00, 0.00, 0.00, 0.00, 0.00, 0.00, 0.00, 0.000, 0.000, 0.000, 14:12:58.488, 1551726778488
20, -5012.07, 0.00, 0.00, 0.00, 0.00, 0.00, 0.00, 0.00, 0.000, 0.000, 0.000, 14:12:58.495, 1551726778495
21, -4979.79, 0.00, 0.00, 0.00, 0.00, 0.00, 0.00, 0.00, -0.148, 0.896, -0.464, 14:12:58.504, 1551726778504
22, -4970.74, 0.00, 0.00, 0.00, 0.00, 0.00, 0.00, 0.00, 0.000, 0.000, 0.000, 14:12:58.505, 1551726778505
23, -4990.74, 0.00, 0.00, 0.00, 0.00, 0.00, 0.00, 0.00, 0.000, 0.000, 0.000, 14:12:58.510, 1551726778510
24, -5005.81, 0.00, 0.00, 0.00, 0.00, 0.00, 0.00, 0.00, 0.000, 0.000, 0.000, 14:12:58.511, 1551726778511
25, -4979.99, 0.00, 0.00, 0.00, 0.00, 0.00, 0.00, 0.00, 0.000, 0.000, 0.000, 14:12:58.518, 1551726778518
26, -4972.79, 0.00, 0.00, 0.00, 0.00, 0.00, 0.00, 0.00, 0.000, 0.000, 0.000, 14:12:58.518, 1551726778518
27, -4985.71, 0.00, 0.00, 0.00, 0.00, 0.00, 0.00, 0.00, 0.000, 0.000, 0.000, 14:12:58.527, 1551726778527
28, -4991.46, 0.00, 0.00, 0.00, 0.00, 0.00, 0.00, 0.00, 0.000, 0.000, 0.000, 14:12:58.527, 1551726778527
29, -4978.23, 0.00, 0.00, 0.00, 0.00, 0.00, 0.00, 0.00, 0.000, 0.000, 0.000, 14:12:58.533, 1551726778533
30, -4967.00, 0.00, 0.00, 0.00, 0.00, 0.00, 0.00, 0.00, 0.000, 0.000, 0.000, 14:12:58.533, 1551726778533
31, -4977.44, 0.00, 0.00, 0.00, 0.00, 0.00, 0.00, 0.00, -0.154, 0.892, -0.466, 14:12:58.542, 1551726778542
32, -5003.57, 0.00, 0.00, 0.00, 0.00, 0.00, 0.00, 0.00, 0.000, 0.000, 0.000, 14:12:58.542, 1551726778542
33, -4995.44, 0.00, 0.00, 0.00, 0.00, 0.00, 0.00, 0.00, 0.000, 0.000, 0.000, 14:12:58.549, 1551726778549
34, -4983.03, 0.00, 0.00, 0.00, 0.00, 0.00, 0.00, 0.00, 0.000, 0.000, 0.000, 14:12:58.550, 1551726778550
35, -4986.94, 0.00, 0.00, 0.00, 0.00, 0.00, 0.00, 0.00, 0.000, 0.000, 0.000, 14:12:58.556, 1551726778556
36, -5001.34, 0.00, 0.00, 0.00, 0.00, 0.00, 0.00, 0.00, 0.000, 0.000, 0.000, 14:12:58.563, 1551726778563
37, -5001.47, 0.00, 0.00, 0.00, 0.00, 0.00, 0.00, 0.00, 0.000, 0.000, 0.000, 14:12:58.564, 1551726778564
38, -4987.64, 0.00, 0.00, 0.00, 0.00, 0.00, 0.00, 0.00, 0.000, 0.000, 0.000, 14:12:58.570, 1551726778570
39, -5001.52, 0.00, 0.00, 0.00, 0.00, 0.00, 0.00, 0.00, 0.000, 0.000, 0.000, 14:12:58.571, 1551726778571
40, -5015.22, 0.00, 0.00, 0.00, 0.00, 0.00, 0.00, 0.00, 0.000, 0.000, 0.000, 14:12:58.579, 1551726778579
41, -5026.21, 0.00, 0.00, 0.00, 0.00, 0.00, 0.00, 0.00, -0.154, 0.896, -0.466, 14:12:58.579, 1551726778579
42, -5002.86, 0.00, 0.00, 0.00, 0.00, 0.00, 0.00, 0.00, 0.000, 0.000, 0.000, 14:12:58.587, 1551726778587
43, -4996.93, 0.00, 0.00, 0.00, 0.00, 0.00, 0.00, 0.00, 0.000, 0.000, 0.000, 14:12:58.587, 1551726778587
44, -5007.37, 0.00, 0.00, 0.00, 0.00, 0.00, 0.00, 0.00, 0.000, 0.000, 0.000, 14:12:58.593, 1551726778593
45, -5018.39, 0.00, 0.00, 0.00, 0.00, 0.00, 0.00, 0.00, 0.000, 0.000, 0.000, 14:12:58.593, 1551726778593
46, -4987.99, 0.00, 0.00, 0.00, 0.00, 0.00, 0.00, 0.00, 0.000, 0.000, 0.000, 14:12:58.601, 1551726778601
47, -4977.82, 0.00, 0.00, 0.00, 0.00, 0.00, 0.00, 0.00, 0.000, 0.000, 0.000, 14:12:58.601, 1551726778601
48, -4987.66, 0.00, 0.00, 0.00, 0.00, 0.00, 0.00, 0.00, 0.000, 0.000, 0.000, 14:12:58.610, 1551726778610
49, -5004.85, 0.00, 0.00, 0.00, 0.00, 0.00, 0.00, 0.00, 0.000, 0.000, 0.000, 14:12:58.610, 1551726778610
50, -4987.75, 0.00, 0.00, 0.00, 0.00, 0.00, 0.00, 0.00, 0.000, 0.000, 0.000, 14:12:58.616, 1551726778616
51, -4983.14, 0.00, 0.00, 0.00, 0.00, 0.00, 0.00, 0.00, -0.156, 0.892, -0.460, 14:12:58.623, 1551726778623
52, -4981.89, 0.00, 0.00, 0.00, 0.00, 0.00, 0.00, 0.00, 0.000, 0.000, 0.000, 14:12:58.623, 1551726778623
53, -5001.47, 0.00, 0.00, 0.00, 0.00, 0.00, 0.00, 0.00, 0.000, 0.000, 0.000, 14:12:58.631, 1551726778631
54, -4989.51, 0.00, 0.00, 0.00, 0.00, 0.00, 0.00, 0.00, 0.000, 0.000, 0.000, 14:12:58.631, 1551726778631
55, -4973.60, 0.00, 0.00, 0.00, 0.00, 0.00, 0.00, 0.00, 0.000, 0.000, 0.000, 14:12:58.639, 1551726778639
56, -4981.31, 0.00, 0.00, 0.00, 0.00, 0.00, 0.00, 0.00, 0.000, 0.000, 0.000, 14:12:58.639, 1551726778639
57, -5005.54, 0.00, 0.00, 0.00, 0.00, 0.00, 0.00, 0.00, 0.000, 0.000, 0.000, 14:12:58.646, 1551726778646
58, -4993.25, 0.00, 0.00, 0.00, 0.00, 0.00, 0.00, 0.00, 0.000, 0.000, 0.000, 14:12:58.647, 1551726778647
59, -4978.38, 0.00, 0.00, 0.00, 0.00, 0.00, 0.00, 0.00, 0.000, 0.000, 0.000, 14:12:58.654, 1551726778654
60, -4976.44, 0.00, 0.00, 0.00, 0.00, 0.00, 0.00, 0.00, -0.156, 0.894, -0.462, 14:12:58.654, 1551726778654
61, -4997.74, 0.00, 0.00, 0.00, 0.00, 0.00, 0.00, 0.00, 0.000, 0.000, 0.000, 14:12:58.661, 1551726778661
62, -5001.45, 0.00, 0.00, 0.00, 0.00, 0.00, 0.00, 0.00, 0.000, 0.000, 0.000, 14:12:58.662, 1551726778662
63, -4982.83, 0.00, 0.00, 0.00, 0.00, 0.00, 0.00, 0.00, 0.000, 0.000, 0.000, 14:12:58.669, 1551726778669
64, -4994.12, 0.00, 0.00, 0.00, 0.00, 0.00, 0.00, 0.00, 0.000, 0.000, 0.000, 14:12:58.669, 1551726778669
65, -4996.69, 0.00, 0.00, 0.00, 0.00, 0.00, 0.00, 0.00, 0.000, 0.000, 0.000, 14:12:58.675, 1551726778675
66, -5007.15, 0.00, 0.00, 0.00, 0.00, 0.00, 0.00, 0.00, 0.000, 0.000, 0.000, 14:12:58.684, 1551726778684
67, -4981.06, 0.00, 0.00, 0.00, 0.00, 0.00, 0.00, 0.00, 0.000, 0.000, 0.000, 14:12:58.684, 1551726778684
68, -4975.36, 0.00, 0.00, 0.00, 0.00, 0.00, 0.00, 0.00, 0.000, 0.000, 0.000, 14:12:58.691, 1551726778691
69, -4993.20, 0.00, 0.00, 0.00, 0.00, 0.00, 0.00, 0.00, 0.000, 0.000, 0.000, 14:12:58.691, 1551726778691
70, -5008.35, 0.00, 0.00, 0.00, 0.00, 0.00, 0.00, 0.00, -0.156, 0.892, -0.462, 14:12:58.698, 1551726778698
71, -4980.39, 0.00, 0.00, 0.00, 0.00, 0.00, 0.00, 0.00, 0.000, 0.000, 0.000, 14:12:58.699, 1551726778699
72, -4973.91, 0.00, 0.00, 0.00, 0.00, 0.00, 0.00, 0.00, 0.000, 0.000, 0.000, 14:12:58.705, 1551726778705
73, -4984.46, 0.00, 0.00, 0.00, 0.00, 0.00, 0.00, 0.00, 0.000, 0.000, 0.000, 14:12:58.706, 1551726778706
74, -5001.67, 0.00, 0.00, 0.00, 0.00, 0.00, 0.00, 0.00, 0.000, 0.000, 0.000, 14:12:58.714, 1551726778714
75, -4985.27, 0.00, 0.00, 0.00, 0.00, 0.00, 0.00, 0.00, 0.000, 0.000, 0.000, 14:12:58.715, 1551726778715
76, -4973.42, 0.00, 0.00, 0.00, 0.00, 0.00, 0.00, 0.00, 0.000, 0.000, 0.000, 14:12:58.722, 1551726778722
77, -4986.50, 0.00, 0.00, 0.00, 0.00, 0.00, 0.00, 0.00, 0.000, 0.000, 0.000, 14:12:58.722, 1551726778722
78, -5016.45, 0.00, 0.00, 0.00, 0.00, 0.00, 0.00, 0.00, 0.000, 0.000, 0.000, 14:12:58.728, 1551726778728
79, -4986.92, 0.00, 0.00, 0.00, 0.00, 0.00, 0.00, 0.00, 0.000, 0.000, 0.000, 14:12:58.729, 1551726778729
80, -4971.16, 0.00, 0.00, 0.00, 0.00, 0.00, 0.00, 0.00, -0.154, 0.894, -0.464, 14:12:58.735, 1551726778735
81, -4983.10, 0.00, 0.00, 0.00, 0.00, 0.00, 0.00, 0.00, 0.000, 0.000, 0.000, 14:12:58.736, 1551726778736
82, -5007.37, 0.00, 0.00, 0.00, 0.00, 0.00, 0.00, 0.00, 0.000, 0.000, 0.000, 14:12:58.743, 1551726778743
83, -5004.78, 0.00, 0.00, 0.00, 0.00, 0.00, 0.00, 0.00, 0.000, 0.000, 0.000, 14:12:58.750, 1551726778750
84, -4980.44, 0.00, 0.00, 0.00, 0.00, 0.00, 0.00, 0.00, 0.000, 0.000, 0.000, 14:12:58.751, 1551726778751
85, -4984.53, 0.00, 0.00, 0.00, 0.00, 0.00, 0.00, 0.00, 0.000, 0.000, 0.000, 14:12:58.758, 1551726778758
86, -5007.77, 0.00, 0.00, 0.00, 0.00, 0.00, 0.00, 0.00, 0.000, 0.000, 0.000, 14:12:58.758, 1551726778758
87, -5010.86, 0.00, 0.00, 0.00, 0.00, 0.00, 0.00, 0.00, 0.000, 0.000, 0.000, 14:12:58.766, 1551726778766
88, -4985.13, 0.00, 0.00, 0.00, 0.00, 0.00, 0.00, 0.00, 0.000, 0.000, 0.000, 14:12:58.767, 1551726778767
89, -4984.95, 0.00, 0.00, 0.00, 0.00, 0.00, 0.00, 0.00, 0.000, 0.000, 0.000, 14:12:58.774, 1551726778774
90, -5004.51, 0.00, 0.00, 0.00, 0.00, 0.00, 0.00, 0.00, -0.150, 0.902, -0.466, 14:12:58.774, 1551726778774
91, -5015.98, 0.00, 0.00, 0.00, 0.00, 0.00, 0.00, 0.00, 0.000, 0.000, 0.000, 14:12:58.781, 1551726778781
92, -4991.52, 0.00, 0.00, 0.00, 0.00, 0.00, 0.00, 0.00, 0.000, 0.000, 0.000, 14:12:58.781, 1551726778781
93, -4989.96, 0.00, 0.00, 0.00, 0.00, 0.00, 0.00, 0.00, 0.000, 0.000, 0.000, 14:12:58.789, 1551726778789
94, -4997.22, 0.00, 0.00, 0.00, 0.00, 0.00, 0.00, 0.00, 0.000, 0.000, 0.000, 14:12:58.789, 1551726778789
95, -5003.75, 0.00, 0.00, 0.00, 0.00, 0.00, 0.00, 0.00, 0.000, 0.000, 0.000, 14:12:58.796, 1551726778796
96, -4985.80, 0.00, 0.00, 0.00, 0.00, 0.00, 0.00, 0.00, 0.000, 0.000, 0.000, 14:12:58.797, 1551726778797
97, -4979.95, 0.00, 0.00, 0.00, 0.00, 0.00, 0.00, 0.00, 0.000, 0.000, 0.000, 14:12:58.804, 1551726778804
98, -4987.95, 0.00, 0.00, 0.00, 0.00, 0.00, 0.00, 0.00, 0.000, 0.000, 0.000, 14:12:58.810, 1551726778810
99, -5005.83, 0.00, 0.00, 0.00, 0.00, 0.00, 0.00, 0.00, 0.000, 0.000, 0.000, 14:12:58.810, 1551726778810
100, -4991.77, 0.00, 0.00, 0.00, 0.00, 0.00, 0.00, 0.00, -0.152, 0.896, -0.462, 14:12:58.818, 1551726778818
101, -4979.75, 0.00, 0.00, 0.00, 0.00, 0.00, 0.00, 0.00, 0.000, 0.000, 0.000, 14:12:58.819, 1551726778819
102, -4986.38, 0.00, 0.00, 0.00, 0.00, 0.00, 0.00, 0.00, 0.000, 0.000, 0.000, 14:12:58.826, 1551726778826
103, -5012.49, 0.00, 0.00, 0.00, 0.00, 0.00, 0.00, 0.00, 0.000, 0.000, 0.000, 14:12:58.827, 1551726778827
104, -5002.34, 0.00, 0.00, 0.00, 0.00, 0.00, 0.00, 0.00, 0.000, 0.000, 0.000, 14:12:58.833, 1551726778833
105, -4981.18, 0.00, 0.00, 0.00, 0.00, 0.00, 0.00, 0.00, 0.000, 0.000, 0.000, 14:12:58.833, 1551726778833
106, -4981.18, 0.00, 0.00, 0.00, 0.00, 0.00, 0.00, 0.00, 0.000, 0.000, 0.000, 14:12:58.841, 1551726778841
107, -5004.98, 0.00, 0.00, 0.00, 0.00, 0.00, 0.00, 0.00, 0.000, 0.000, 0.000, 14:12:58.841, 1551726778841
108, -5016.51, 0.00, 0.00, 0.00, 0.00, 0.00, 0.00, 0.00, 0.000, 0.000, 0.000, 14:12:58.849, 1551726778849
109, -4980.53, 0.00, 0.00, 0.00, 0.00, 0.00, 0.00, 0.00, 0.000, 0.000, 0.000, 14:12:58.849, 1551726778849
110, -4976.64, 0.00, 0.00, 0.00, 0.00, 0.00, 0.00, 0.00, -0.156, 0.892, -0.466, 14:12:58.856, 1551726778856
111, -4998.79, 0.00, 0.00, 0.00, 0.00, 0.00, 0.00, 0.00, 0.000, 0.000, 0.000, 14:12:58.857, 1551726778857
112, -5003.44, 0.00, 0.00, 0.00, 0.00, 0.00, 0.00, 0.00, 0.000, 0.000, 0.000, 14:12:58.862, 1551726778862
113, -4976.26, 0.00, 0.00, 0.00, 0.00, 0.00, 0.00, 0.00, 0.000, 0.000, 0.000, 14:12:58.871, 1551726778871
114, -4975.14, 0.00, 0.00, 0.00, 0.00, 0.00, 0.00, 0.00, 0.000, 0.000, 0.000, 14:12:58.871, 1551726778871
115, -4991.75, 0.00, 0.00, 0.00, 0.00, 0.00, 0.00, 0.00, 0.000, 0.000, 0.000, 14:12:58.879, 1551726778879
116, -5003.26, 0.00, 0.00, 0.00, 0.00, 0.00, 0.00, 0.00, 0.000, 0.000, 0.000, 14:12:58.879, 1551726778879
117, -4983.52, 0.00, 0.00, 0.00, 0.00, 0.00, 0.00, 0.00, 0.000, 0.000, 0.000, 14:12:58.886, 1551726778886
118, -4982.16, 0.00, 0.00, 0.00, 0.00, 0.00, 0.00, 0.00, 0.000, 0.000, 0.000, 14:12:58.886, 1551726778886
119, -4992.75, 0.00, 0.00, 0.00, 0.00, 0.00, 0.00, 0.00, 0.000, 0.000, 0.000, 14:12:58.893, 1551726778893
120, -5007.33, 0.00, 0.00, 0.00, 0.00, 0.00, 0.00, 0.00, -0.160, 0.894, -0.466, 14:12:58.894, 1551726778894
121, -4986.14, 0.00, 0.00, 0.00, 0.00, 0.00, 0.00, 0.00, 0.000, 0.000, 0.000, 14:12:58.901, 1551726778901
122, -4968.99, 0.00, 0.00, 0.00, 0.00, 0.00, 0.00, 0.00, 0.000, 0.000, 0.000, 14:12:58.901, 1551726778901
123, -4974.85, 0.00, 0.00, 0.00, 0.00, 0.00, 0.00, 0.00, 0.000, 0.000, 0.000, 14:12:58.910, 1551726778910
124, -5006.70, 0.00, 0.00, 0.00, 0.00, 0.00, 0.00, 0.00, 0.000, 0.000, 0.000, 14:12:58.910, 1551726778910
125, -4988.22, 0.00, 0.00, 0.00, 0.00, 0.00, 0.00, 0.00, 0.000, 0.000, 0.000, 14:12:58.916, 1551726778916
126, -4962.00, 0.00, 0.00, 0.00, 0.00, 0.00, 0.00, 0.00, 0.000, 0.000, 0.000, 14:12:58.916, 1551726778916
127, -4968.28, 0.00, 0.00, 0.00, 0.00, 0.00, 0.00, 0.00, 0.000, 0.000, 0.000, 14:12:58.923, 1551726778923
128, -4992.87, 0.00, 0.00, 0.00, 0.00, 0.00, 0.00, 0.00, 0.000, 0.000, 0.000, 14:12:58.931, 1551726778931
129, -4991.55, 0.00, 0.00, 0.00, 0.00, 0.00, 0.00, 0.00, -0.152, 0.902, -0.468, 14:12:58.931, 1551726778931
130, -4975.70, 0.00, 0.00, 0.00, 0.00, 0.00, 0.00, 0.00, 0.000, 0.000, 0.000, 14:12:58.939, 1551726778939
131, -4981.18, 0.00, 0.00, 0.00, 0.00, 0.00, 0.00, 0.00, 0.000, 0.000, 0.000, 14:12:58.939, 1551726778939
132, -4996.62, 0.00, 0.00, 0.00, 0.00, 0.00, 0.00, 0.00, 0.000, 0.000, 0.000, 14:12:58.945, 1551726778945
133, -4995.66, 0.00, 0.00, 0.00, 0.00, 0.00, 0.00, 0.00, 0.000, 0.000, 0.000, 14:12:58.946, 1551726778946
134, -4974.20, 0.00, 0.00, 0.00, 0.00, 0.00, 0.00, 0.00, 0.000, 0.000, 0.000, 14:12:58.954, 1551726778954
135, -4972.17, 0.00, 0.00, 0.00, 0.00, 0.00, 0.00, 0.00, 0.000, 0.000, 0.000, 14:12:58.954, 1551726778954
136, -4993.42, 0.00, 0.00, 0.00, 0.00, 0.00, 0.00, 0.00, 0.000, 0.000, 0.000, 14:12:58.962, 1551726778962
137, -5007.95, 0.00, 0.00, 0.00, 0.00, 0.00, 0.00, 0.00, 0.000, 0.000, 0.000, 14:12:58.962, 1551726778962
138, -4972.41, 0.00, 0.00, 0.00, 0.00, 0.00, 0.00, 0.00, 0.000, 0.000, 0.000, 14:12:58.968, 1551726778968
139, -4973.35, 0.00, 0.00, 0.00, 0.00, 0.00, 0.00, 0.00, -0.150, 0.904, -0.468, 14:12:58.969, 1551726778969
140, -4981.98, 0.00, 0.00, 0.00, 0.00, 0.00, 0.00, 0.00, 0.000, 0.000, 0.000, 14:12:58.976, 1551726778976
141, -4998.32, 0.00, 0.00, 0.00, 0.00, 0.00, 0.00, 0.00, 0.000, 0.000, 0.000, 14:12:58.976, 1551726778976
142, -4974.87, 0.00, 0.00, 0.00, 0.00, 0.00, 0.00, 0.00, 0.000, 0.000, 0.000, 14:12:58.983, 1551726778983
143, -4965.64, 0.00, 0.00, 0.00, 0.00, 0.00, 0.00, 0.00, 0.000, 0.000, 0.000, 14:12:58.983, 1551726778983
144, -4979.05, 0.00, 0.00, 0.00, 0.00, 0.00, 0.00, 0.00, 0.000, 0.000, 0.000, 14:12:58.991, 1551726778991
145, -4989.67, 0.00, 0.00, 0.00, 0.00, 0.00, 0.00, 0.00, 0.000, 0.000, 0.000, 14:12:58.998, 1551726778998
146, -4973.31, 0.00, 0.00, 0.00, 0.00, 0.00, 0.00, 0.00, 0.000, 0.000, 0.000, 14:12:58.998, 1551726778998
147, -4964.37, 0.00, 0.00, 0.00, 0.00, 0.00, 0.00, 0.00, 0.000, 0.000, 0.000, 14:12:59.006, 1551726779006
148, -4974.98, 0.00, 0.00, 0.00, 0.00, 0.00, 0.00, 0.00, 0.000, 0.000, 0.000, 14:12:59.006, 1551726779006
149, -5000.17, 0.00, 0.00, 0.00, 0.00, 0.00, 0.00, 0.00, -0.150, 0.896, -0.466, 14:12:59.013, 1551726779013
150, -4988.86, 0.00, 0.00, 0.00, 0.00, 0.00, 0.00, 0.00, 0.000, 0.000, 0.000, 14:12:59.014, 1551726779014
151, -4976.84, 0.00, 0.00, 0.00, 0.00, 0.00, 0.00, 0.00, 0.000, 0.000, 0.000, 14:12:59.021, 1551726779021
152, -4990.09, 0.00, 0.00, 0.00, 0.00, 0.00, 0.00, 0.00, 0.000, 0.000, 0.000, 14:12:59.021, 1551726779021
153, -4998.30, 0.00, 0.00, 0.00, 0.00, 0.00, 0.00, 0.00, 0.000, 0.000, 0.000, 14:12:59.028, 1551726779028
154, -4997.56, 0.00, 0.00, 0.00, 0.00, 0.00, 0.00, 0.00, 0.000, 0.000, 0.000, 14:12:59.029, 1551726779029
155, -4982.67, 0.00, 0.00, 0.00, 0.00, 0.00, 0.00, 0.00, 0.000, 0.000, 0.000, 14:12:59.036, 1551726779036
156, -4985.42, 0.00, 0.00, 0.00, 0.00, 0.00, 0.00, 0.00, 0.000, 0.000, 0.000, 14:12:59.036, 1551726779036
157, -5006.43, 0.00, 0.00, 0.00, 0.00, 0.00, 0.00, 0.00, 0.000, 0.000, 0.000, 14:12:59.044, 1551726779044
158, -5010.52, 0.00, 0.00, 0.00, 0.00, 0.00, 0.00, 0.00, 0.000, 0.000, 0.000, 14:12:59.045, 1551726779045
159, -4985.76, 0.00, 0.00, 0.00, 0.00, 0.00, 0.00, 0.00, -0.148, 0.898, -0.466, 14:12:59.050, 1551726779050
160, -4989.16, 0.00, 0.00, 0.00, 0.00, 0.00, 0.00, 0.00, 0.000, 0.000, 0.000, 14:12:59.058, 1551726779058
161, -5005.92, 0.00, 0.00, 0.00, 0.00, 0.00, 0.00, 0.00, 0.000, 0.000, 0.000, 14:12:59.058, 1551726779058
162, -5014.10, 0.00, 0.00, 0.00, 0.00, 0.00, 0.00, 0.00, 0.000, 0.000, 0.000, 14:12:59.066, 1551726779066
163, -4991.99, 0.00, 0.00, 0.00, 0.00, 0.00, 0.00, 0.00, 0.000, 0.000, 0.000, 14:12:59.066, 1551726779066
164, -4986.16, 0.00, 0.00, 0.00, 0.00, 0.00, 0.00, 0.00, 0.000, 0.000, 0.000, 14:12:59.074, 1551726779074
165, -4997.78, 0.00, 0.00, 0.00, 0.00, 0.00, 0.00, 0.00, 0.000, 0.000, 0.000, 14:12:59.074, 1551726779074
166, -5014.93, 0.00, 0.00, 0.00, 0.00, 0.00, 0.00, 0.00, 0.000, 0.000, 0.000, 14:12:59.080, 1551726779080
167, -4995.10, 0.00, 0.00, 0.00, 0.00, 0.00, 0.00, 0.00, 0.000, 0.000, 0.000, 14:12:59.081, 1551726779081
168, -4971.63, 0.00, 0.00, 0.00, 0.00, 0.00, 0.00, 0.00, 0.000, 0.000, 0.000, 14:12:59.088, 1551726779088
169, -4991.17, 0.00, 0.00, 0.00, 0.00, 0.00, 0.00, 0.00, -0.152, 0.892, -0.468, 14:12:59.089, 1551726779089
170, -5008.96, 0.00, 0.00, 0.00, 0.00, 0.00, 0.00, 0.00, 0.000, 0.000, 0.000, 14:12:59.097, 1551726779097
171, -4993.60, 0.00, 0.00, 0.00, 0.00, 0.00, 0.00, 0.00, 0.000, 0.000, 0.000, 14:12:59.097, 1551726779097
172, -4982.05, 0.00, 0.00, 0.00, 0.00, 0.00, 0.00, 0.00, 0.000, 0.000, 0.000, 14:12:59.103, 1551726779103
173, -4994.34, 0.00, 0.00, 0.00, 0.00, 0.00, 0.00, 0.00, 0.000, 0.000, 0.000, 14:12:59.104, 1551726779104
174, -5013.54, 0.00, 0.00, 0.00, 0.00, 0.00, 0.00, 0.00, 0.000, 0.000, 0.000, 14:12:59.110, 1551726779110
175, -5004.11, 0.00, 0.00, 0.00, 0.00, 0.00, 0.00, 0.00, 0.000, 0.000, 0.000, 14:12:59.118, 1551726779118
176, -4988.95, 0.00, 0.00, 0.00, 0.00, 0.00, 0.00, 0.00, 0.000, 0.000, 0.000, 14:12:59.118, 1551726779118
177, -4997.49, 0.00, 0.00, 0.00, 0.00, 0.00, 0.00, 0.00, 0.000, 0.000, 0.000, 14:12:59.126, 1551726779126
178, -5016.83, 0.00, 0.00, 0.00, 0.00, 0.00, 0.00, 0.00, 0.000, 0.000, 0.000, 14:12:59.126, 1551726779126
179, -5013.43, 0.00, 0.00, 0.00, 0.00, 0.00, 0.00, 0.00, -0.152, 0.890, -0.472, 14:12:59.133, 1551726779133
180, -4993.40, 0.00, 0.00, 0.00, 0.00, 0.00, 0.00, 0.00, 0.000, 0.000, 0.000, 14:12:59.133, 1551726779133
181, -5001.11, 0.00, 0.00, 0.00, 0.00, 0.00, 0.00, 0.00, 0.000, 0.000, 0.000, 14:12:59.141, 1551726779141
182, -5005.72, 0.00, 0.00, 0.00, 0.00, 0.00, 0.00, 0.00, 0.000, 0.000, 0.000, 14:12:59.141, 1551726779141
183, -5010.08, 0.00, 0.00, 0.00, 0.00, 0.00, 0.00, 0.00, 0.000, 0.000, 0.000, 14:12:59.152, 1551726779152
184, -4986.34, 0.00, 0.00, 0.00, 0.00, 0.00, 0.00, 0.00, 0.000, 0.000, 0.000, 14:12:59.152, 1551726779152
185, -4980.73, 0.00, 0.00, 0.00, 0.00, 0.00, 0.00, 0.00, 0.000, 0.000, 0.000, 14:12:59.156, 1551726779156
186, -5001.38, 0.00, 0.00, 0.00, 0.00, 0.00, 0.00, 0.00, 0.000, 0.000, 0.000, 14:12:59.156, 1551726779156
187, -5014.48, 0.00, 0.00, 0.00, 0.00, 0.00, 0.00, 0.00, 0.000, 0.000, 0.000, 14:12:59.164, 1551726779164
188, -4991.19, 0.00, 0.00, 0.00, 0.00, 0.00, 0.00, 0.00, -0.154, 0.890, -0.464, 14:12:59.164, 1551726779164
189, -4985.56, 0.00, 0.00, 0.00, 0.00, 0.00, 0.00, 0.00, 0.000, 0.000, 0.000, 14:12:59.171, 1551726779171
190, -5003.50, 0.00, 0.00, 0.00, 0.00, 0.00, 0.00, 0.00, 0.000, 0.000, 0.000, 14:12:59.179, 1551726779179
191, -5011.35, 0.00, 0.00, 0.00, 0.00, 0.00, 0.00, 0.00, 0.000, 0.000, 0.000, 14:12:59.179, 1551726779179
192, -4984.04, 0.00, 0.00, 0.00, 0.00, 0.00, 0.00, 0.00, 0.000, 0.000, 0.000, 14:12:59.186, 1551726779186
193, -4972.88, 0.00, 0.00, 0.00, 0.00, 0.00, 0.00, 0.00, 0.000, 0.000, 0.000, 14:12:59.186, 1551726779186
194, -4987.66, 0.00, 0.00, 0.00, 0.00, 0.00, 0.00, 0.00, 0.000, 0.000, 0.000, 14:12:59.193, 1551726779193
195, -5015.78, 0.00, 0.00, 0.00, 0.00, 0.00, 0.00, 0.00, 0.000, 0.000, 0.000, 14:12:59.193, 1551726779193
196, -4985.94, 0.00, 0.00, 0.00, 0.00, 0.00, 0.00, 0.00, 0.000, 0.000, 0.000, 14:12:59.202, 1551726779202
197, -4977.22, 0.00, 0.00, 0.00, 0.00, 0.00, 0.00, 0.00, 0.000, 0.000, 0.000, 14:12:59.203, 1551726779203
198, -4985.24, 0.00, 0.00, 0.00, 0.00, 0.00, 0.00, 0.00, -0.150, 0.896, -0.468, 14:12:59.209, 1551726779209
199, -5005.07, 0.00, 0.00, 0.00, 0.00, 0.00, 0.00, 0.00, 0.000, 0.000, 0.000, 14:12:59.209, 1551726779209
200, -4995.59, 0.00, 0.00, 0.00, 0.00, 0.00, 0.00, 0.00, 0.000, 0.000, 0.000, 14:12:59.216, 1551726779216
201, -4974.02, 0.00, 0.00, 0.00, 0.00, 0.00, 0.00, 0.00, 0.000, 0.000, 0.000, 14:12:59.216, 1551726779216
202, -4976.48, 0.00, 0.00, 0.00, 0.00, 0.00, 0.00, 0.00, 0.000, 0.000, 0.000, 14:12:59.224, 1551726779224
203, -5000.78, 0.00, 0.00, 0.00, 0.00, 0.00, 0.00, 0.00, 0.000, 0.000, 0.000, 14:12:59.224, 1551726779224
204, -4998.99, 0.00, 0.00, 0.00, 0.00, 0.00, 0.00, 0.00, 0.000, 0.000, 0.000, 14:12:59.231, 1551726779231
205, -4972.77, 0.00, 0.00, 0.00, 0.00, 0.00, 0.00, 0.00, 0.000, 0.000, 0.000, 14:12:59.231, 1551726779231
206, -4975.19, 0.00, 0.00, 0.00, 0.00, 0.00, 0.00, 0.00, 0.000, 0.000, 0.000, 14:12:59.238, 1551726779238
207, -4997.16, 0.00, 0.00, 0.00, 0.00, 0.00, 0.00, 0.00, 0.000, 0.000, 0.000, 14:12:59.245, 1551726779245
208, -4997.76, 0.00, 0.00, 0.00, 0.00, 0.00, 0.00, 0.00, -0.148, 0.898, -0.464, 14:12:59.245, 1551726779245
209, -4978.85, 0.00, 0.00, 0.00, 0.00, 0.00, 0.00, 0.00, 0.000, 0.000, 0.000, 14:12:59.254, 1551726779254
210, -4981.58, 0.00, 0.00, 0.00, 0.00, 0.00, 0.00, 0.00, 0.000, 0.000, 0.000, 14:12:59.254, 1551726779254
211, -4982.96, 0.00, 0.00, 0.00, 0.00, 0.00, 0.00, 0.00, 0.000, 0.000, 0.000, 14:12:59.262, 1551726779262
212, -5000.33, 0.00, 0.00, 0.00, 0.00, 0.00, 0.00, 0.00, 0.000, 0.000, 0.000, 14:12:59.262, 1551726779262
213, -4971.09, 0.00, 0.00, 0.00, 0.00, 0.00, 0.00, 0.00, 0.000, 0.000, 0.000, 14:12:59.268, 1551726779268
214, -4967.92, 0.00, 0.00, 0.00, 0.00, 0.00, 0.00, 0.00, 0.000, 0.000, 0.000, 14:12:59.268, 1551726779268
215, -4978.52, 0.00, 0.00, 0.00, 0.00, 0.00, 0.00, 0.00, 0.000, 0.000, 0.000, 14:12:59.276, 1551726779276
216, -4995.15, 0.00, 0.00, 0.00, 0.00, 0.00, 0.00, 0.00, 0.000, 0.000, 0.000, 14:12:59.277, 1551726779277
217, -4976.91, 0.00, 0.00, 0.00, 0.00, 0.00, 0.00, 0.00, 0.000, 0.000, 0.000, 14:12:59.284, 1551726779284
218, -4966.54, 0.00, 0.00, 0.00, 0.00, 0.00, 0.00, 0.00, -0.150, 0.894, -0.464, 14:12:59.284, 1551726779284
219, -4978.29, 0.00, 0.00, 0.00, 0.00, 0.00, 0.00, 0.00, 0.000, 0.000, 0.000, 14:12:59.291, 1551726779291
220, -4999.26, 0.00, 0.00, 0.00, 0.00, 0.00, 0.00, 0.00, 0.000, 0.000, 0.000, 14:12:59.292, 1551726779292
221, -4988.57, 0.00, 0.00, 0.00, 0.00, 0.00, 0.00, 0.00, 0.000, 0.000, 0.000, 14:12:59.298, 1551726779298
222, -4978.87, 0.00, 0.00, 0.00, 0.00, 0.00, 0.00, 0.00, 0.000, 0.000, 0.000, 14:12:59.306, 1551726779306
223, -4996.64, 0.00, 0.00, 0.00, 0.00, 0.00, 0.00, 0.00, 0.000, 0.000, 0.000, 14:12:59.306, 1551726779306
224, -5002.36, 0.00, 0.00, 0.00, 0.00, 0.00, 0.00, 0.00, 0.000, 0.000, 0.000, 14:12:59.314, 1551726779314
225, -4995.59, 0.00, 0.00, 0.00, 0.00, 0.00, 0.00, 0.00, 0.000, 0.000, 0.000, 14:12:59.314, 1551726779314
226, -4977.31, 0.00, 0.00, 0.00, 0.00, 0.00, 0.00, 0.00, 0.000, 0.000, 0.000, 14:12:59.321, 1551726779321
227, -4981.87, 0.00, 0.00, 0.00, 0.00, 0.00, 0.00, 0.00, 0.000, 0.000, 0.000, 14:12:59.321, 1551726779321
228, -5002.97, 0.00, 0.00, 0.00, 0.00, 0.00, 0.00, 0.00, -0.150, 0.896, -0.462, 14:12:59.328, 1551726779328
229, -5002.03, 0.00, 0.00, 0.00, 0.00, 0.00, 0.00, 0.00, 0.000, 0.000, 0.000, 14:12:59.328, 1551726779328
230, -4969.33, 0.00, 0.00, 0.00, 0.00, 0.00, 0.00, 0.00, 0.000, 0.000, 0.000, 14:12:59.336, 1551726779336
231, -4963.45, 0.00, 0.00, 0.00, 0.00, 0.00, 0.00, 0.00, 0.000, 0.000, 0.000, 14:12:59.336, 1551726779336
232, -4978.45, 0.00, 0.00, 0.00, 0.00, 0.00, 0.00, 0.00, 0.000, 0.000, 0.000, 14:12:59.344, 1551726779344
233, -4996.78, 0.00, 0.00, 0.00, 0.00, 0.00, 0.00, 0.00, 0.000, 0.000, 0.000, 14:12:59.345, 1551726779345
234, -4966.13, 0.00, 0.00, 0.00, 0.00, 0.00, 0.00, 0.00, 0.000, 0.000, 0.000, 14:12:59.351, 1551726779351
235, -4960.05, 0.00, 0.00, 0.00, 0.00, 0.00, 0.00, 0.00, 0.000, 0.000, 0.000, 14:12:59.351, 1551726779351
236, -4975.86, 0.00, 0.00, 0.00, 0.00, 0.00, 0.00, 0.00, 0.000, 0.000, 0.000, 14:12:59.359, 1551726779359
237, -4992.19, 0.00, 0.00, 0.00, 0.00, 0.00, 0.00, 0.00, 0.000, 0.000, 0.000, 14:12:59.366, 1551726779366
238, -4972.37, 0.00, 0.00, 0.00, 0.00, 0.00, 0.00, 0.00, -0.146, 0.894, -0.464, 14:12:59.366, 1551726779366
239, -4962.96, 0.00, 0.00, 0.00, 0.00, 0.00, 0.00, 0.00, 0.000, 0.000, 0.000, 14:12:59.373, 1551726779373
240, -4974.65, 0.00, 0.00, 0.00, 0.00, 0.00, 0.00, 0.00, 0.000, 0.000, 0.000, 14:12:59.374, 1551726779374
241, -4991.12, 0.00, 0.00, 0.00, 0.00, 0.00, 0.00, 0.00, 0.000, 0.000, 0.000, 14:12:59.380, 1551726779380
242, -4969.15, 0.00, 0.00, 0.00, 0.00, 0.00, 0.00, 0.00, 0.000, 0.000, 0.000, 14:12:59.381, 1551726779381
243, -4960.68, 0.00, 0.00, 0.00, 0.00, 0.00, 0.00, 0.00, 0.000, 0.000, 0.000, 14:12:59.388, 1551726779388
244, -4975.19, 0.00, 0.00, 0.00, 0.00, 0.00, 0.00, 0.00, 0.000, 0.000, 0.000, 14:12:59.389, 1551726779389
245, -5001.52, 0.00, 0.00, 0.00, 0.00, 0.00, 0.00, 0.00, 0.000, 0.000, 0.000, 14:12:59.397, 1551726779397
246, -4982.61, 0.00, 0.00, 0.00, 0.00, 0.00, 0.00, 0.00, 0.000, 0.000, 0.000, 14:12:59.397, 1551726779397
247, -4959.27, 0.00, 0.00, 0.00, 0.00, 0.00, 0.00, 0.00, 0.000, 0.000, 0.000, 14:12:59.404, 1551726779404
248, -4960.14, 0.00, 0.00, 0.00, 0.00, 0.00, 0.00, 0.00, -0.152, 0.902, -0.468, 14:12:59.404, 1551726779404
249, -4980.66, 0.00, 0.00, 0.00, 0.00, 0.00, 0.00, 0.00, 0.000, 0.000, 0.000, 14:12:59.412, 1551726779412
250, -4989.29, 0.00, 0.00, 0.00, 0.00, 0.00, 0.00, 0.00, 0.000, 0.000, 0.000, 14:12:59.412, 1551726779412
251, -4950.24, 0.00, 0.00, 0.00, 0.00, 0.00, 0.00, 0.00, 0.000, 0.000, 0.000, 14:12:59.418, 1551726779418
252, -4949.84, 0.00, 0.00, 0.00, 0.00, 0.00, 0.00, 0.00, 0.000, 0.000, 0.000, 14:12:59.427, 1551726779427
253, -4975.12, 0.00, 0.00, 0.00, 0.00, 0.00, 0.00, 0.00, 0.000, 0.000, 0.000, 14:12:59.427, 1551726779427
254, -4980.91, 0.00, 0.00, 0.00, 0.00, 0.00, 0.00, 0.00, 0.000, 0.000, 0.000, 14:12:59.433, 1551726779433
255, -4954.38, 0.00, 0.00, 0.00, 0.00, 0.00, 0.00, 0.00, 0.000, 0.000, 0.000, 14:12:59.433, 1551726779433
0, -4948.83, 0.00, 0.00, 0.00, 0.00, 0.00, 0.00, 0.00, 0.000, 0.000, 0.000, 14:12:59.441, 1551726779441
1, -4969.35, 0.00, 0.00, 0.00, 0.00, 0.00, 0.00, 0.00, -0.152, 0.898, -0.470, 14:12:59.441, 1551726779441
2, -4979.01, 0.00, 0.00, 0.00, 0.00, 0.00, 0.00, 0.00, 0.000, 0.000, 0.000, 14:12:59.449, 1551726779449
3, -4955.56, 0.00, 0.00, 0.00, 0.00, 0.00, 0.00, 0.00, 0.000, 0.000, 0.000, 14:12:59.449, 1551726779449
4, -4951.34, 0.00, 0.00, 0.00, 0.00, 0.00, 0.00, 0.00, 0.000, 0.000, 0.000, 14:12:59.456, 1551726779456
5, -4966.94, 0.00, 0.00, 0.00, 0.00, 0.00, 0.00, 0.00, 0.000, 0.000, 0.000, 14:12:59.456, 1551726779456
6, -4982.00, 0.00, 0.00, 0.00, 0.00, 0.00, 0.00, 0.00, 0.000, 0.000, 0.000, 14:12:59.463, 1551726779463
7, -4959.32, 0.00, 0.00, 0.00, 0.00, 0.00, 0.00, 0.00, 0.000, 0.000, 0.000, 14:12:59.464, 1551726779464
8, -4952.07, 0.00, 0.00, 0.00, 0.00, 0.00, 0.00, 0.00, 0.000, 0.000, 0.000, 14:12:59.472, 1551726779472
9, -4972.50, 0.00, 0.00, 0.00, 0.00, 0.00, 0.00, 0.00, 0.000, 0.000, 0.000, 14:12:59.472, 1551726779472
10, -4979.28, 0.00, 0.00, 0.00, 0.00, 0.00, 0.00, 0.00, 0.000, 0.000, 0.000, 14:12:59.478, 1551726779478
11, -4965.84, 0.00, 0.00, 0.00, 0.00, 0.00, 0.00, 0.00, -0.152, 0.900, -0.470, 14:12:59.478, 1551726779478
12, -4947.87, 0.00, 0.00, 0.00, 0.00, 0.00, 0.00, 0.00, 0.000, 0.000, 0.000, 14:12:59.485, 1551726779485
13, -4958.20, 0.00, 0.00, 0.00, 0.00, 0.00, 0.00, 0.00, 0.000, 0.000, 0.000, 14:12:59.493, 1551726779493
14, -4979.59, 0.00, 0.00, 0.00, 0.00, 0.00, 0.00, 0.00, 0.000, 0.000, 0.000, 14:12:59.494, 1551726779494
15, -4970.89, 0.00, 0.00, 0.00, 0.00, 0.00, 0.00, 0.00, 0.000, 0.000, 0.000, 14:12:59.501, 1551726779501
16, -4958.85, 0.00, 0.00, 0.00, 0.00, 0.00, 0.00, 0.00, 0.000, 0.000, 0.000, 14:12:59.501, 1551726779501
17, -4962.29, 0.00, 0.00, 0.00, 0.00, 0.00, 0.00, 0.00, 0.000, 0.000, 0.000, 14:12:59.508, 1551726779508
18, -4982.09, 0.00, 0.00, 0.00, 0.00, 0.00, 0.00, 0.00, 0.000, 0.000, 0.000, 14:12:59.508, 1551726779508
19, -4979.79, 0.00, 0.00, 0.00, 0.00, 0.00, 0.00, 0.00, 0.000, 0.000, 0.000, 14:12:59.516, 1551726779516
20, -4960.99, 0.00, 0.00, 0.00, 0.00, 0.00, 0.00, 0.00, 0.000, 0.000, 0.000, 14:12:59.516, 1551726779516
21, -4961.60, 0.00, 0.00, 0.00, 0.00, 0.00, 0.00, 0.00, -0.158, 0.902, -0.470, 14:12:59.524, 1551726779524
22, -4983.75, 0.00, 0.00, 0.00, 0.00, 0.00, 0.00, 0.00, 0.000, 0.000, 0.000, 14:12:59.524, 1551726779524
23, -4995.66, 0.00, 0.00, 0.00, 0.00, 0.00, 0.00, 0.00, 0.000, 0.000, 0.000, 14:12:59.532, 1551726779532
24, -4955.09, 0.00, 0.00, 0.00, 0.00, 0.00, 0.00, 0.00, 0.000, 0.000, 0.000, 14:12:59.533, 1551726779533
25, -4954.47, 0.00, 0.00, 0.00, 0.00, 0.00, 0.00, 0.00, 0.000, 0.000, 0.000, 14:12:59.538, 1551726779538
26, -4968.59, 0.00, 0.00, 0.00, 0.00, 0.00, 0.00, 0.00, 0.000, 0.000, 0.000, 14:12:59.538, 1551726779538
27, -4986.76, 0.00, 0.00, 0.00, 0.00, 0.00, 0.00, 0.00, 0.000, 0.000, 0.000, 14:12:59.545, 1551726779545
28, -4962.47, 0.00, 0.00, 0.00, 0.00, 0.00, 0.00, 0.00, 0.000, 0.000, 0.000, 14:12:59.554, 1551726779554
29, -4952.52, 0.00, 0.00, 0.00, 0.00, 0.00, 0.00, 0.00, 0.000, 0.000, 0.000, 14:12:59.554, 1551726779554
30, -4967.36, 0.00, 0.00, 0.00, 0.00, 0.00, 0.00, 0.00, 0.000, 0.000, 0.000, 14:12:59.562, 1551726779562
31, -4977.20, 0.00, 0.00, 0.00, 0.00, 0.00, 0.00, 0.00, -0.154, 0.900, -0.472, 14:12:59.562, 1551726779562
32, -4962.67, 0.00, 0.00, 0.00, 0.00, 0.00, 0.00, 0.00, 0.000, 0.000, 0.000, 14:12:59.569, 1551726779569
33, -4951.81, 0.00, 0.00, 0.00, 0.00, 0.00, 0.00, 0.00, 0.000, 0.000, 0.000, 14:12:59.569, 1551726779569
34, -4959.92, 0.00, 0.00, 0.00, 0.00, 0.00, 0.00, 0.00, 0.000, 0.000, 0.000, 14:12:59.576, 1551726779576
35, -4979.79, 0.00, 0.00, 0.00, 0.00, 0.00, 0.00, 0.00, 0.000, 0.000, 0.000, 14:12:59.576, 1551726779576
36, -4971.30, 0.00, 0.00, 0.00, 0.00, 0.00, 0.00, 0.00, 0.000, 0.000, 0.000, 14:12:59.584, 1551726779584
37, -4957.77, 0.00, 0.00, 0.00, 0.00, 0.00, 0.00, 0.00, 0.000, 0.000, 0.000, 14:12:59.584, 1551726779584
38, -4965.86, 0.00, 0.00, 0.00, 0.00, 0.00, 0.00, 0.00, 0.000, 0.000, 0.000, 14:12:59.591, 1551726779591
39, -5001.76, 0.00, 0.00, 0.00, 0.00, 0.00, 0.00, 0.00, 0.000, 0.000, 0.000, 14:12:59.591, 1551726779591
40, -4990.72, 0.00, 0.00, 0.00, 0.00, 0.00, 0.00, 0.00, 0.000, 0.000, 0.000, 14:12:59.599, 1551726779599
41, -4971.09, 0.00, 0.00, 0.00, 0.00, 0.00, 0.00, 0.00, -0.152, 0.904, -0.470, 14:12:59.599, 1551726779599
42, -4976.08, 0.00, 0.00, 0.00, 0.00, 0.00, 0.00, 0.00, 0.000, 0.000, 0.000, 14:12:59.606, 1551726779606
43, -4994.39, 0.00, 0.00, 0.00, 0.00, 0.00, 0.00, 0.00, 0.000, 0.000, 0.000, 14:12:59.614, 1551726779614
44, -4985.09, 0.00, 0.00, 0.00, 0.00, 0.00, 0.00, 0.00, 0.000, 0.000, 0.000, 14:12:59.614, 1551726779614
45, -4958.22, 0.00, 0.00, 0.00, 0.00, 0.00, 0.00, 0.00, 0.000, 0.000, 0.000, 14:12:59.621, 1551726779621
46, -4961.62, 0.00, 0.00, 0.00, 0.00, 0.00, 0.00, 0.00, 0.000, 0.000, 0.000, 14:12:59.621, 1551726779621
47, -4978.09, 0.00, 0.00, 0.00, 0.00, 0.00, 0.00, 0.00, 0.000, 0.000, 0.000, 14:12:59.628, 1551726779628
48, -4988.71, 0.00, 0.00, 0.00, 0.00, 0.00, 0.00, 0.00, 0.000, 0.000, 0.000, 14:12:59.628, 1551726779628
49, -4972.68, 0.00, 0.00, 0.00, 0.00, 0.00, 0.00, 0.00, 0.000, 0.000, 0.000, 14:12:59.636, 1551726779636
50, -4967.25, 0.00, 0.00, 0.00, 0.00, 0.00, 0.00, 0.00, 0.000, 0.000, 0.000, 14:12:59.637, 1551726779637
51, -4975.41, 0.00, 0.00, 0.00, 0.00, 0.00, 0.00, 0.00, -0.150, 0.900, -0.468, 14:12:59.643, 1551726779643
52, -4984.19, 0.00, 0.00, 0.00, 0.00, 0.00, 0.00, 0.00, 0.000, 0.000, 0.000, 14:12:59.644, 1551726779644
53, -4967.00, 0.00, 0.00, 0.00, 0.00, 0.00, 0.00, 0.00, 0.000, 0.000, 0.000, 14:12:59.651, 1551726779651
54, -4951.74, 0.00, 0.00, 0.00, 0.00, 0.00, 0.00, 0.00, 0.000, 0.000, 0.000, 14:12:59.651, 1551726779651
55, -4966.20, 0.00, 0.00, 0.00, 0.00, 0.00, 0.00, 0.00, 0.000, 0.000, 0.000, 14:12:59.659, 1551726779659
56, -4975.03, 0.00, 0.00, 0.00, 0.00, 0.00, 0.00, 0.00, 0.000, 0.000, 0.000, 14:12:59.660, 1551726779660
57, -4952.90, 0.00, 0.00, 0.00, 0.00, 0.00, 0.00, 0.00, 0.000, 0.000, 0.000, 14:12:59.666, 1551726779666
58, -4942.08, 0.00, 0.00, 0.00, 0.00, 0.00, 0.00, 0.00, 0.000, 0.000, 0.000, 14:12:59.673, 1551726779673
59, -4952.30, 0.00, 0.00, 0.00, 0.00, 0.00, 0.00, 0.00, 0.000, 0.000, 0.000, 14:12:59.674, 1551726779674
60, -4975.99, 0.00, 0.00, 0.00, 0.00, 0.00, 0.00, 0.00, -0.148, 0.896, -0.466, 14:12:59.681, 1551726779681
61, -4968.14, 0.00, 0.00, 0.00, 0.00, 0.00, 0.00, 0.00, 0.000, 0.000, 0.000, 14:12:59.681, 1551726779681
62, -4952.43, 0.00, 0.00, 0.00, 0.00, 0.00, 0.00, 0.00, 0.000, 0.000, 0.000, 14:12:59.689, 1551726779689
63, -4952.79, 0.00, 0.00, 0.00, 0.00, 0.00, 0.00, 0.00, 0.000, 0.000, 0.000, 14:12:59.689, 1551726779689
64, -4981.80, 0.00, 0.00, 0.00, 0.00, 0.00, 0.00, 0.00, 0.000, 0.000, 0.000, 14:12:59.697, 1551726779697
65, -4983.28, 0.00, 0.00, 0.00, 0.00, 0.00, 0.00, 0.00, 0.000, 0.000, 0.000, 14:12:59.697, 1551726779697
66, -4959.27, 0.00, 0.00, 0.00, 0.00, 0.00, 0.00, 0.00, 0.000, 0.000, 0.000, 14:12:59.703, 1551726779703
67, -4961.62, 0.00, 0.00, 0.00, 0.00, 0.00, 0.00, 0.00, 0.000, 0.000, 0.000, 14:12:59.703, 1551726779703
68, -4982.36, 0.00, 0.00, 0.00, 0.00, 0.00, 0.00, 0.00, 0.000, 0.000, 0.000, 14:12:59.712, 1551726779712
69, -4994.39, 0.00, 0.00, 0.00, 0.00, 0.00, 0.00, 0.00, 0.000, 0.000, 0.000, 14:12:59.712, 1551726779712
70, -4965.64, 0.00, 0.00, 0.00, 0.00, 0.00, 0.00, 0.00, -0.154, 0.898, -0.464, 14:12:59.719, 1551726779719
71, -4955.78, 0.00, 0.00, 0.00, 0.00, 0.00, 0.00, 0.00, 0.000, 0.000, 0.000, 14:12:59.719, 1551726779719
72, -4976.01, 0.00, 0.00, 0.00, 0.00, 0.00, 0.00, 0.00, 0.000, 0.000, 0.000, 14:12:59.726, 1551726779726
73, -4982.45, 0.00, 0.00, 0.00, 0.00, 0.00, 0.00, 0.00, 0.000, 0.000, 0.000, 14:12:59.727, 1551726779727
74, -4964.43, 0.00, 0.00, 0.00, 0.00, 0.00, 0.00, 0.00, 0.000, 0.000, 0.000, 14:12:59.733, 1551726779733
75, -4959.47, 0.00, 0.00, 0.00, 0.00, 0.00, 0.00, 0.00, 0.000, 0.000, 0.000, 14:12:59.741, 1551726779741
76, -4975.52, 0.00, 0.00, 0.00, 0.00, 0.00, 0.00, 0.00, 0.000, 0.000, 0.000, 14:12:59.742, 1551726779742
77, -4992.02, 0.00, 0.00, 0.00, 0.00, 0.00, 0.00, 0.00, 0.000, 0.000, 0.000, 14:12:59.749, 1551726779749
78, -4965.35, 0.00, 0.00, 0.00, 0.00, 0.00, 0.00, 0.00, 0.000, 0.000, 0.000, 14:12:59.749, 1551726779749
79, -4955.07, 0.00, 0.00, 0.00, 0.00, 0.00, 0.00, 0.00, 0.000, 0.000, 0.000, 14:12:59.756, 1551726779756
80, -4964.37, 0.00, 0.00, 0.00, 0.00, 0.00, 0.00, 0.00, -0.152, 0.898, -0.468, 14:12:59.756, 1551726779756
81, -4987.68, 0.00, 0.00, 0.00, 0.00, 0.00, 0.00, 0.00, 0.000, 0.000, 0.000, 14:12:59.763, 1551726779763
82, -4972.23, 0.00, 0.00, 0.00, 0.00, 0.00, 0.00, 0.00, 0.000, 0.000, 0.000, 14:12:59.764, 1551726779764
83, -4958.60, 0.00, 0.00, 0.00, 0.00, 0.00, 0.00, 0.00, 0.000, 0.000, 0.000, 14:12:59.771, 1551726779771
84, -4967.83, 0.00, 0.00, 0.00, 0.00, 0.00, 0.00, 0.00, 0.000, 0.000, 0.000, 14:12:59.772, 1551726779772
85, -4995.61, 0.00, 0.00, 0.00, 0.00, 0.00, 0.00, 0.00, 0.000, 0.000, 0.000, 14:12:59.779, 1551726779779
86, -4976.68, 0.00, 0.00, 0.00, 0.00, 0.00, 0.00, 0.00, 0.000, 0.000, 0.000, 14:12:59.779, 1551726779779
87, -4960.75, 0.00, 0.00, 0.00, 0.00, 0.00, 0.00, 0.00, 0.000, 0.000, 0.000, 14:12:59.786, 1551726779786
88, -4966.60, 0.00, 0.00, 0.00, 0.00, 0.00, 0.00, 0.00, 0.000, 0.000, 0.000, 14:12:59.787, 1551726779787
89, -4992.73, 0.00, 0.00, 0.00, 0.00, 0.00, 0.00, 0.00, 0.000, 0.000, 0.000, 14:12:59.793, 1551726779793
90, -4992.98, 0.00, 0.00, 0.00, 0.00, 0.00, 0.00, 0.00, -0.152, 0.900, -0.462, 14:12:59.801, 1551726779801
91, -4968.46, 0.00, 0.00, 0.00, 0.00, 0.00, 0.00, 0.00, 0.000, 0.000, 0.000, 14:12:59.801, 1551726779801
92, -4963.90, 0.00, 0.00, 0.00, 0.00, 0.00, 0.00, 0.00, 0.000, 0.000, 0.000, 14:12:59.808, 1551726779808
93, -4984.30, 0.00, 0.00, 0.00, 0.00, 0.00, 0.00, 0.00, 0.000, 0.000, 0.000, 14:12:59.809, 1551726779809
94, -4991.79, 0.00, 0.00, 0.00, 0.00, 0.00, 0.00, 0.00, 0.000, 0.000, 0.000, 14:12:59.816, 1551726779816
95, -4969.24, 0.00, 0.00, 0.00, 0.00, 0.00, 0.00, 0.00, 0.000, 0.000, 0.000, 14:12:59.816, 1551726779816
96, -4963.79, 0.00, 0.00, 0.00, 0.00, 0.00, 0.00, 0.00, 0.000, 0.000, 0.000, 14:12:59.824, 1551726779824
97, -4979.59, 0.00, 0.00, 0.00, 0.00, 0.00, 0.00, 0.00, 0.000, 0.000, 0.000, 14:12:59.824, 1551726779824
98, -4988.42, 0.00, 0.00, 0.00, 0.00, 0.00, 0.00, 0.00, 0.000, 0.000, 0.000, 14:12:59.832, 1551726779832
99, -4977.38, 0.00, 0.00, 0.00, 0.00, 0.00, 0.00, 0.00, 0.000, 0.000, 0.000, 14:12:59.832, 1551726779832
100, -4953.30, 0.00, 0.00, 0.00, 0.00, 0.00, 0.00, 0.00, -0.154, 0.898, -0.460, 14:12:59.838, 1551726779838
101, -4963.25, 0.00, 0.00, 0.00, 0.00, 0.00, 0.00, 0.00, 0.000, 0.000, 0.000, 14:12:59.838, 1551726779838
102, -4983.41, 0.00, 0.00, 0.00, 0.00, 0.00, 0.00, 0.00, 0.000, 0.000, 0.000, 14:12:59.847, 1551726779847
103, -4961.46, 0.00, 0.00, 0.00, 0.00, 0.00, 0.00, 0.00, 0.000, 0.000, 0.000, 14:12:59.847, 1551726779847
104, -4946.26, 0.00, 0.00, 0.00, 0.00, 0.00, 0.00, 0.00, 0.000, 0.000, 0.000, 14:12:59.853, 1551726779853
105, -4959.20, 0.00, 0.00, 0.00, 0.00, 0.00, 0.00, 0.00, 0.000, 0.000, 0.000, 14:12:59.861, 1551726779861
106, -4974.60, 0.00, 0.00, 0.00, 0.00, 0.00, 0.00, 0.00, 0.000, 0.000, 0.000, 14:12:59.861, 1551726779861
107, -4963.36, 0.00, 0.00, 0.00, 0.00, 0.00, 0.00, 0.00, 0.000, 0.000, 0.000, 14:12:59.868, 1551726779868
108, -4945.86, 0.00, 0.00, 0.00, 0.00, 0.00, 0.00, 0.00, 0.000, 0.000, 0.000, 14:12:59.868, 1551726779868
109, -4956.95, 0.00, 0.00, 0.00, 0.00, 0.00, 0.00, 0.00, 0.000, 0.000, 0.000, 14:12:59.876, 1551726779876
110, -4979.32, 0.00, 0.00, 0.00, 0.00, 0.00, 0.00, 0.00, -0.148, 0.898, -0.464, 14:12:59.876, 1551726779876
111, -4973.06, 0.00, 0.00, 0.00, 0.00, 0.00, 0.00, 0.00, 0.000, 0.000, 0.000, 14:12:59.884, 1551726779884
112, -4960.46, 0.00, 0.00, 0.00, 0.00, 0.00, 0.00, 0.00, 0.000, 0.000, 0.000, 14:12:59.884, 1551726779884
113, -4962.58, 0.00, 0.00, 0.00, 0.00, 0.00, 0.00, 0.00, 0.000, 0.000, 0.000, 14:12:59.891, 1551726779891
114, -4972.39, 0.00, 0.00, 0.00, 0.00, 0.00, 0.00, 0.00, 0.000, 0.000, 0.000, 14:12:59.891, 1551726779891
115, -4977.31, 0.00, 0.00, 0.00, 0.00, 0.00, 0.00, 0.00, 0.000, 0.000, 0.000, 14:12:59.899, 1551726779899
116, -4948.54, 0.00, 0.00, 0.00, 0.00, 0.00, 0.00, 0.00, 0.000, 0.000, 0.000, 14:12:59.899, 1551726779899
117, -4949.23, 0.00, 0.00, 0.00, 0.00, 0.00, 0.00, 0.00, 0.000, 0.000, 0.000, 14:12:59.907, 1551726779907
118, -4970.20, 0.00, 0.00, 0.00, 0.00, 0.00, 0.00, 0.00, 0.000, 0.000, 0.000, 14:12:59.907, 1551726779907
119, -4983.37, 0.00, 0.00, 0.00, 0.00, 0.00, 0.00, 0.00, 0.000, 0.000, 0.000, 14:12:59.914, 1551726779914
120, -4961.33, 0.00, 0.00, 0.00, 0.00, 0.00, 0.00, 0.00, -0.156, 0.898, -0.468, 14:12:59.920, 1551726779920
121, -4958.71, 0.00, 0.00, 0.00, 0.00, 0.00, 0.00, 0.00, 0.000, 0.000, 0.000, 14:12:59.921, 1551726779921
122, -4973.11, 0.00, 0.00, 0.00, 0.00, 0.00, 0.00, 0.00, 0.000, 0.000, 0.000, 14:12:59.929, 1551726779929
123, -4988.62, 0.00, 0.00, 0.00, 0.00, 0.00, 0.00, 0.00, 0.000, 0.000, 0.000, 14:12:59.929, 1551726779929
124, -4961.86, 0.00, 0.00, 0.00, 0.00, 0.00, 0.00, 0.00, 0.000, 0.000, 0.000, 14:12:59.937, 1551726779937
125, -4956.41, 0.00, 0.00, 0.00, 0.00, 0.00, 0.00, 0.00, 0.000, 0.000, 0.000, 14:12:59.937, 1551726779937
126, -4973.22, 0.00, 0.00, 0.00, 0.00, 0.00, 0.00, 0.00, 0.000, 0.000, 0.000, 14:12:59.943, 1551726779943
127, -4979.43, 0.00, 0.00, 0.00, 0.00, 0.00, 0.00, 0.00, 0.000, 0.000, 0.000, 14:12:59.944, 1551726779944
128, -4960.23, 0.00, 0.00, 0.00, 0.00, 0.00, 0.00, 0.00, 0.000, 0.000, 0.000, 14:12:59.952, 1551726779952
129, -4949.73, 0.00, 0.00, 0.00, 0.00, 0.00, 0.00, 0.00, -0.152, 0.896, -0.470, 14:12:59.952, 1551726779952
130, -4963.29, 0.00, 0.00, 0.00, 0.00, 0.00, 0.00, 0.00, 0.000, 0.000, 0.000, 14:12:59.959, 1551726779959
131, -4987.37, 0.00, 0.00, 0.00, 0.00, 0.00, 0.00, 0.00, 0.000, 0.000, 0.000, 14:12:59.959, 1551726779959
132, -4973.31, 0.00, 0.00, 0.00, 0.00, 0.00, 0.00, 0.00, 0.000, 0.000, 0.000, 14:12:59.967, 1551726779967
133, -4959.20, 0.00, 0.00, 0.00, 0.00, 0.00, 0.00, 0.00, 0.000, 0.000, 0.000, 14:12:59.967, 1551726779967
134, -4968.66, 0.00, 0.00, 0.00, 0.00, 0.00, 0.00, 0.00, 0.000, 0.000, 0.000, 14:12:59.973, 1551726779973
135, -4987.97, 0.00, 0.00, 0.00, 0.00, 0.00, 0.00, 0.00, 0.000, 0.000, 0.000, 14:12:59.973, 1551726779973
136, -4982.38, 0.00, 0.00, 0.00, 0.00, 0.00, 0.00, 0.00, 0.000, 0.000, 0.000, 14:12:59.981, 1551726779981
137, -4959.40, 0.00, 0.00, 0.00, 0.00, 0.00, 0.00, 0.00, 0.000, 0.000, 0.000, 14:12:59.989, 1551726779989
138, -4963.23, 0.00, 0.00, 0.00, 0.00, 0.00, 0.00, 0.00, 0.000, 0.000, 0.000, 14:12:59.989, 1551726779989
139, -4975.48, 0.00, 0.00, 0.00, 0.00, 0.00, 0.00, 0.00, -0.152, 0.900, -0.468, 14:12:59.996, 1551726779996
140, -4977.60, 0.00, 0.00, 0.00, 0.00, 0.00, 0.00, 0.00, 0.000, 0.000, 0.000, 14:12:59.996, 1551726779996
141, -4965.93, 0.00, 0.00, 0.00, 0.00, 0.00, 0.00, 0.00, 0.000, 0.000, 0.000, 14:13:00.003, 1551726780003
142, -4957.37, 0.00, 0.00, 0.00, 0.00, 0.00, 0.00, 0.00, 0.000, 0.000, 0.000, 14:13:00.003, 1551726780003
143, -4970.71, 0.00, 0.00, 0.00, 0.00, 0.00, 0.00, 0.00, 0.000, 0.000, 0.000, 14:13:00.011, 1551726780011
144, -4986.92, 0.00, 0.00, 0.00, 0.00, 0.00, 0.00, 0.00, 0.000, 0.000, 0.000, 14:13:00.011, 1551726780011
145, -4962.65, 0.00, 0.00, 0.00, 0.00, 0.00, 0.00, 0.00, 0.000, 0.000, 0.000, 14:13:00.019, 1551726780019
146, -4952.61, 0.00, 0.00, 0.00, 0.00, 0.00, 0.00, 0.00, 0.000, 0.000, 0.000, 14:13:00.020, 1551726780020
147, -4964.93, 0.00, 0.00, 0.00, 0.00, 0.00, 0.00, 0.00, 0.000, 0.000, 0.000, 14:13:00.026, 1551726780026
148, -4982.11, 0.00, 0.00, 0.00, 0.00, 0.00, 0.00, 0.00, 0.000, 0.000, 0.000, 14:13:00.026, 1551726780026
149, -4958.91, 0.00, 0.00, 0.00, 0.00, 0.00, 0.00, 0.00, -0.150, 0.898, -0.466, 14:13:00.034, 1551726780034
150, -4949.50, 0.00, 0.00, 0.00, 0.00, 0.00, 0.00, 0.00, 0.000, 0.000, 0.000, 14:13:00.034, 1551726780034
151, -4962.56, 0.00, 0.00, 0.00, 0.00, 0.00, 0.00, 0.00, 0.000, 0.000, 0.000, 14:13:00.041, 1551726780041
152, -4975.52, 0.00, 0.00, 0.00, 0.00, 0.00, 0.00, 0.00, 0.000, 0.000, 0.000, 14:13:00.049, 1551726780049
153, -4963.85, 0.00, 0.00, 0.00, 0.00, 0.00, 0.00, 0.00, 0.000, 0.000, 0.000, 14:13:00.050, 1551726780050
154, -4948.63, 0.00, 0.00, 0.00, 0.00, 0.00, 0.00, 0.00, 0.000, 0.000, 0.000, 14:13:00.056, 1551726780056
155, -4950.44, 0.00, 0.00, 0.00, 0.00, 0.00, 0.00, 0.00, 0.000, 0.000, 0.000, 14:13:00.056, 1551726780056
156, -4976.86, 0.00, 0.00, 0.00, 0.00, 0.00, 0.00, 0.00, 0.000, 0.000, 0.000, 14:13:00.063, 1551726780063
157, -4966.87, 0.00, 0.00, 0.00, 0.00, 0.00, 0.00, 0.00, 0.000, 0.000, 0.000, 14:13:00.064, 1551726780064
158, -4947.56, 0.00, 0.00, 0.00, 0.00, 0.00, 0.00, 0.00, 0.000, 0.000, 0.000, 14:13:00.072, 1551726780072
159, -4955.87, 0.00, 0.00, 0.00, 0.00, 0.00, 0.00, 0.00, -0.152, 0.900, -0.472, 14:13:00.072, 1551726780072
160, -4976.24, 0.00, 0.00, 0.00, 0.00, 0.00, 0.00, 0.00, 0.000, 0.000, 0.000, 14:13:00.079, 1551726780079
161, -4977.53, 0.00, 0.00, 0.00, 0.00, 0.00, 0.00, 0.00, 0.000, 0.000, 0.000, 14:13:00.079, 1551726780079
162, -4954.64, 0.00, 0.00, 0.00, 0.00, 0.00, 0.00, 0.00, 0.000, 0.000, 0.000, 14:13:00.087, 1551726780087
163, -4955.96, 0.00, 0.00, 0.00, 0.00, 0.00, 0.00, 0.00, 0.000, 0.000, 0.000, 14:13:00.087, 1551726780087
164, -4971.94, 0.00, 0.00, 0.00, 0.00, 0.00, 0.00, 0.00, 0.000, 0.000, 0.000, 14:13:00.094, 1551726780094
165, -4982.47, 0.00, 0.00, 0.00, 0.00, 0.00, 0.00, 0.00, 0.000, 0.000, 0.000, 14:13:00.094, 1551726780094
166, -4952.39, 0.00, 0.00, 0.00, 0.00, 0.00, 0.00, 0.00, 0.000, 0.000, 0.000, 14:13:00.101, 1551726780101
167, -4955.92, 0.00, 0.00, 0.00, 0.00, 0.00, 0.00, 0.00, 0.000, 0.000, 0.000, 14:13:00.108, 1551726780108
168, -4967.83, 0.00, 0.00, 0.00, 0.00, 0.00, 0.00, 0.00, 0.000, 0.000, 0.000, 14:13:00.108, 1551726780108
169, -4967.85, 0.00, 0.00, 0.00, 0.00, 0.00, 0.00, 0.00, -0.152, 0.892, -0.468, 14:13:00.116, 1551726780116
170, -4943.87, 0.00, 0.00, 0.00, 0.00, 0.00, 0.00, 0.00, 0.000, 0.000, 0.000, 14:13:00.116, 1551726780116
171, -4935.53, 0.00, 0.00, 0.00, 0.00, 0.00, 0.00, 0.00, 0.000, 0.000, 0.000, 14:13:00.124, 1551726780124
172, -4951.49, 0.00, 0.00, 0.00, 0.00, 0.00, 0.00, 0.00, 0.000, 0.000, 0.000, 14:13:00.125, 1551726780125
173, -4965.91, 0.00, 0.00, 0.00, 0.00, 0.00, 0.00, 0.00, 0.000, 0.000, 0.000, 14:13:00.131, 1551726780131
174, -4949.91, 0.00, 0.00, 0.00, 0.00, 0.00, 0.00, 0.00, 0.000, 0.000, 0.000, 14:13:00.131, 1551726780131
175, -4933.34, 0.00, 0.00, 0.00, 0.00, 0.00, 0.00, 0.00, 0.000, 0.000, 0.000, 14:13:00.138, 1551726780138
176, -4942.95, 0.00, 0.00, 0.00, 0.00, 0.00, 0.00, 0.00, 0.000, 0.000, 0.000, 14:13:00.139, 1551726780139
177, -4966.09, 0.00, 0.00, 0.00, 0.00, 0.00, 0.00, 0.00, 0.000, 0.000, 0.000, 14:13:00.146, 1551726780146
178, -4948.36, 0.00, 0.00, 0.00, 0.00, 0.00, 0.00, 0.00, 0.000, 0.000, 0.000, 14:13:00.146, 1551726780146
179, -4937.59, 0.00, 0.00, 0.00, 0.00, 0.00, 0.00, 0.00, -0.150, 0.888, -0.466, 14:13:00.154, 1551726780154
180, -4948.21, 0.00, 0.00, 0.00, 0.00, 0.00, 0.00, 0.00, 0.000, 0.000, 0.000, 14:13:00.155, 1551726780155
181, -4964.75, 0.00, 0.00, 0.00, 0.00, 0.00, 0.00, 0.00, 0.000, 0.000, 0.000, 14:13:00.161, 1551726780161
182, -4969.71, 0.00, 0.00, 0.00, 0.00, 0.00, 0.00, 0.00, 0.000, 0.000, 0.000, 14:13:00.168, 1551726780168
183, -4940.29, 0.00, 0.00, 0.00, 0.00, 0.00, 0.00, 0.00, 0.000, 0.000, 0.000, 14:13:00.168, 1551726780168
184, -4946.31, 0.00, 0.00, 0.00, 0.00, 0.00, 0.00, 0.00, 0.000, 0.000, 0.000, 14:13:00.176, 1551726780176
185, -4970.63, 0.00, 0.00, 0.00, 0.00, 0.00, 0.00, 0.00, 0.000, 0.000, 0.000, 14:13:00.177, 1551726780177
186, -4975.23, 0.00, 0.00, 0.00, 0.00, 0.00, 0.00, 0.00, 0.000, 0.000, 0.000, 14:13:00.184, 1551726780184
187, -4959.96, 0.00, 0.00, 0.00, 0.00, 0.00, 0.00, 0.00, 0.000, 0.000, 0.000, 14:13:00.184, 1551726780184
188, -4965.24, 0.00, 0.00, 0.00, 0.00, 0.00, 0.00, 0.00, -0.150, 0.888, -0.464, 14:13:00.191, 1551726780191
189, -4979.95, 0.00, 0.00, 0.00, 0.00, 0.00, 0.00, 0.00, 0.000, 0.000, 0.000, 14:13:00.191, 1551726780191
190, -4990.97, 0.00, 0.00, 0.00, 0.00, 0.00, 0.00, 0.00, 0.000, 0.000, 0.000, 14:13:00.199, 1551726780199
191, -4972.30, 0.00, 0.00, 0.00, 0.00, 0.00, 0.00, 0.00, 0.000, 0.000, 0.000, 14:13:00.199, 1551726780199
192, -4967.99, 0.00, 0.00, 0.00, 0.00, 0.00, 0.00, 0.00, 0.000, 0.000, 0.000, 14:13:00.207, 1551726780207
193, -4992.46, 0.00, 0.00, 0.00, 0.00, 0.00, 0.00, 0.00, 0.000, 0.000, 0.000, 14:13:00.207, 1551726780207
194, -4987.93, 0.00, 0.00, 0.00, 0.00, 0.00, 0.00, 0.00, 0.000, 0.000, 0.000, 14:13:00.214, 1551726780214
195, -4966.02, 0.00, 0.00, 0.00, 0.00, 0.00, 0.00, 0.00, 0.000, 0.000, 0.000, 14:13:00.214, 1551726780214
196, -4963.25, 0.00, 0.00, 0.00, 0.00, 0.00, 0.00, 0.00, 0.000, 0.000, 0.000, 14:13:00.220, 1551726780220
197, -4972.03, 0.00, 0.00, 0.00, 0.00, 0.00, 0.00, 0.00, 0.000, 0.000, 0.000, 14:13:00.221, 1551726780221
198, -4997.16, 0.00, 0.00, 0.00, 0.00, 0.00, 0.00, 0.00, -0.156, 0.898, -0.464, 14:13:00.228, 1551726780228
199, -4980.01, 0.00, 0.00, 0.00, 0.00, 0.00, 0.00, 0.00, 0.000, 0.000, 0.000, 14:13:00.236, 1551726780236
200, -4963.90, 0.00, 0.00, 0.00, 0.00, 0.00, 0.00, 0.00, 0.000, 0.000, 0.000, 14:13:00.237, 1551726780237
201, -4976.88, 0.00, 0.00, 0.00, 0.00, 0.00, 0.00, 0.00, 0.000, 0.000, 0.000, 14:13:00.243, 1551726780243
202, -4995.10, 0.00, 0.00, 0.00, 0.00, 0.00, 0.00, 0.00, 0.000, 0.000, 0.000, 14:13:00.243, 1551726780243
203, -4988.51, 0.00, 0.00, 0.00, 0.00, 0.00, 0.00, 0.00, 0.000, 0.000, 0.000, 14:13:00.251, 1551726780251
204, -4976.88, 0.00, 0.00, 0.00, 0.00, 0.00, 0.00, 0.00, 0.000, 0.000, 0.000, 14:13:00.251, 1551726780251
205, -4965.66, 0.00, 0.00, 0.00, 0.00, 0.00, 0.00, 0.00, 0.000, 0.000, 0.000, 14:13:00.259, 1551726780259
206, -4993.00, 0.00, 0.00, 0.00, 0.00, 0.00, 0.00, 0.00, 0.000, 0.000, 0.000, 14:13:00.259, 1551726780259
207, -4988.57, 0.00, 0.00, 0.00, 0.00, 0.00, 0.00, 0.00, 0.000, 0.000, 0.000, 14:13:00.266, 1551726780266
208, -4968.55, 0.00, 0.00, 0.00, 0.00, 0.00, 0.00, 0.00, -0.158, 0.896, -0.464, 14:13:00.267, 1551726780267
209, -4972.32, 0.00, 0.00, 0.00, 0.00, 0.00, 0.00, 0.00, 0.000, 0.000, 0.000, 14:13:00.274, 1551726780274
210, -4992.96, 0.00, 0.00, 0.00, 0.00, 0.00, 0.00, 0.00, 0.000, 0.000, 0.000, 14:13:00.274, 1551726780274
211, -4991.93, 0.00, 0.00, 0.00, 0.00, 0.00, 0.00, 0.00, 0.000, 0.000, 0.000, 14:13:00.282, 1551726780282
212, -4966.13, 0.00, 0.00, 0.00, 0.00, 0.00, 0.00, 0.00, 0.000, 0.000, 0.000, 14:13:00.282, 1551726780282
213, -4969.96, 0.00, 0.00, 0.00, 0.00, 0.00, 0.00, 0.00, 0.000, 0.000, 0.000, 14:13:00.289, 1551726780289
214, -4988.48, 0.00, 0.00, 0.00, 0.00, 0.00, 0.00, 0.00, 0.000, 0.000, 0.000, 14:13:00.297, 1551726780297
215, -4998.79, 0.00, 0.00, 0.00, 0.00, 0.00, 0.00, 0.00, 0.000, 0.000, 0.000, 14:13:00.297, 1551726780297
216, -4976.84, 0.00, 0.00, 0.00, 0.00, 0.00, 0.00, 0.00, 0.000, 0.000, 0.000, 14:13:00.304, 1551726780304
217, -4971.61, 0.00, 0.00, 0.00, 0.00, 0.00, 0.00, 0.00, 0.000, 0.000, 0.000, 14:13:00.304, 1551726780304
218, -4983.23, 0.00, 0.00, 0.00, 0.00, 0.00, 0.00, 0.00, -0.156, 0.898, -0.470, 14:13:00.311, 1551726780311
219, -5007.24, 0.00, 0.00, 0.00, 0.00, 0.00, 0.00, 0.00, 0.000, 0.000, 0.000, 14:13:00.311, 1551726780311
220, -4973.13, 0.00, 0.00, 0.00, 0.00, 0.00, 0.00, 0.00, 0.000, 0.000, 0.000, 14:13:00.320, 1551726780320
221, -4957.59, 0.00, 0.00, 0.00, 0.00, 0.00, 0.00, 0.00, 0.000, 0.000, 0.000, 14:13:00.320, 1551726780320
222, -4976.68, 0.00, 0.00, 0.00, 0.00, 0.00, 0.00, 0.00, 0.000, 0.000, 0.000, 14:13:00.326, 1551726780326
223, -5000.13, 0.00, 0.00, 0.00, 0.00, 0.00, 0.00, 0.00, 0.000, 0.000, 0.000, 14:13:00.326, 1551726780326
224, -4983.86, 0.00, 0.00, 0.00, 0.00, 0.00, 0.00, 0.00, 0.000, 0.000, 0.000, 14:13:00.334, 1551726780334
225, -4972.95, 0.00, 0.00, 0.00, 0.00, 0.00, 0.00, 0.00, 0.000, 0.000, 0.000, 14:13:00.335, 1551726780335
226, -4977.93, 0.00, 0.00, 0.00, 0.00, 0.00, 0.00, 0.00, 0.000, 0.000, 0.000, 14:13:00.342, 1551726780342
227, -4998.21, 0.00, 0.00, 0.00, 0.00, 0.00, 0.00, 0.00, 0.000, 0.000, 0.000, 14:13:00.342, 1551726780342
228, -4989.89, 0.00, 0.00, 0.00, 0.00, 0.00, 0.00, 0.00, -0.154, 0.896, -0.468, 14:13:00.349, 1551726780349
229, -4968.35, 0.00, 0.00, 0.00, 0.00, 0.00, 0.00, 0.00, 0.000, 0.000, 0.000, 14:13:00.355, 1551726780355
230, -4971.85, 0.00, 0.00, 0.00, 0.00, 0.00, 0.00, 0.00, 0.000, 0.000, 0.000, 14:13:00.356, 1551726780356
231, -4991.08, 0.00, 0.00, 0.00, 0.00, 0.00, 0.00, 0.00, 0.000, 0.000, 0.000, 14:13:00.364, 1551726780364
232, -4989.71, 0.00, 0.00, 0.00, 0.00, 0.00, 0.00, 0.00, 0.000, 0.000, 0.000, 14:13:00.364, 1551726780364
233, -4969.66, 0.00, 0.00, 0.00, 0.00, 0.00, 0.00, 0.00, 0.000, 0.000, 0.000, 14:13:00.371, 1551726780371
234, -4962.40, 0.00, 0.00, 0.00, 0.00, 0.00, 0.00, 0.00, 0.000, 0.000, 0.000, 14:13:00.372, 1551726780372
235, -4985.78, 0.00, 0.00, 0.00, 0.00, 0.00, 0.00, 0.00, 0.000, 0.000, 0.000, 14:13:00.378, 1551726780378
236, -4991.64, 0.00, 0.00, 0.00, 0.00, 0.00, 0.00, 0.00, 0.000, 0.000, 0.000, 14:13:00.378, 1551726780378
237, -4969.40, 0.00, 0.00, 0.00, 0.00, 0.00, 0.00, 0.00, 0.000, 0.000, 0.000, 14:13:00.387, 1551726780387
238, -4964.48, 0.00, 0.00, 0.00, 0.00, 0.00, 0.00, 0.00, -0.156, 0.898, -0.466, 14:13:00.388, 1551726780388
239, -4977.67, 0.00, 0.00, 0.00, 0.00, 0.00, 0.00, 0.00, 0.000, 0.000, 0.000, 14:13:00.394, 1551726780394
240, -4991.28, 0.00, 0.00, 0.00, 0.00, 0.00, 0.00, 0.00, 0.000, 0.000, 0.000, 14:13:00.394, 1551726780394
241, -4968.84, 0.00, 0.00, 0.00, 0.00, 0.00, 0.00, 0.00, 0.000, 0.000, 0.000, 14:13:00.401, 1551726780401
242, -4962.13, 0.00, 0.00, 0.00, 0.00, 0.00, 0.00, 0.00, 0.000, 0.000, 0.000, 14:13:00.401, 1551726780401
243, -4979.50, 0.00, 0.00, 0.00, 0.00, 0.00, 0.00, 0.00, 0.000, 0.000, 0.000, 14:13:00.408, 1551726780408
244, -4992.91, 0.00, 0.00, 0.00, 0.00, 0.00, 0.00, 0.00, 0.000, 0.000, 0.000, 14:13:00.416, 1551726780416
245, -4972.84, 0.00, 0.00, 0.00, 0.00, 0.00, 0.00, 0.00, 0.000, 0.000, 0.000, 14:13:00.416, 1551726780416
246, -4964.55, 0.00, 0.00, 0.00, 0.00, 0.00, 0.00, 0.00, 0.000, 0.000, 0.000, 14:13:00.424, 1551726780424
247, -4989.83, 0.00, 0.00, 0.00, 0.00, 0.00, 0.00, 0.00, 0.000, 0.000, 0.000, 14:13:00.425, 1551726780425
248, -4991.08, 0.00, 0.00, 0.00, 0.00, 0.00, 0.00, 0.00, -0.158, 0.896, -0.468, 14:13:00.431, 1551726780431
249, -4978.83, 0.00, 0.00, 0.00, 0.00, 0.00, 0.00, 0.00, 0.000, 0.000, 0.000, 14:13:00.431, 1551726780431
250, -4964.75, 0.00, 0.00, 0.00, 0.00, 0.00, 0.00, 0.00, 0.000, 0.000, 0.000, 14:13:00.438, 1551726780438
251, -4972.64, 0.00, 0.00, 0.00, 0.00, 0.00, 0.00, 0.00, 0.000, 0.000, 0.000, 14:13:00.438, 1551726780438
252, -4992.78, 0.00, 0.00, 0.00, 0.00, 0.00, 0.00, 0.00, 0.000, 0.000, 0.000, 14:13:00.446, 1551726780446
253, -4989.36, 0.00, 0.00, 0.00, 0.00, 0.00, 0.00, 0.00, 0.000, 0.000, 0.000, 14:13:00.446, 1551726780446
254, -4972.82, 0.00, 0.00, 0.00, 0.00, 0.00, 0.00, 0.00, 0.000, 0.000, 0.000, 14:13:00.455, 1551726780455
255, -4971.01, 0.00, 0.00, 0.00, 0.00, 0.00, 0.00, 0.00, 0.000, 0.000, 0.000, 14:13:00.455, 1551726780455
0, -4994.52, 0.00, 0.00, 0.00, 0.00, 0.00, 0.00, 0.00, 0.000, 0.000, 0.000, 14:13:00.461, 1551726780461
1, -4994.14, 0.00, 0.00, 0.00, 0.00, 0.00, 0.00, 0.00, -0.156, 0.896, -0.468, 14:13:00.461, 1551726780461
2, -4970.22, 0.00, 0.00, 0.00, 0.00, 0.00, 0.00, 0.00, 0.000, 0.000, 0.000, 14:13:00.468, 1551726780468
3, -4969.17, 0.00, 0.00, 0.00, 0.00, 0.00, 0.00, 0.00, 0.000, 0.000, 0.000, 14:13:00.468, 1551726780468
4, -4990.00, 0.00, 0.00, 0.00, 0.00, 0.00, 0.00, 0.00, 0.000, 0.000, 0.000, 14:13:00.476, 1551726780476
5, -5003.57, 0.00, 0.00, 0.00, 0.00, 0.00, 0.00, 0.00, 0.000, 0.000, 0.000, 14:13:00.483, 1551726780483
6, -4971.79, 0.00, 0.00, 0.00, 0.00, 0.00, 0.00, 0.00, 0.000, 0.000, 0.000, 14:13:00.484, 1551726780484
7, -4971.14, 0.00, 0.00, 0.00, 0.00, 0.00, 0.00, 0.00, 0.000, 0.000, 0.000, 14:13:00.491, 1551726780491
8, -4992.49, 0.00, 0.00, 0.00, 0.00, 0.00, 0.00, 0.00, 0.000, 0.000, 0.000, 14:13:00.491, 1551726780491
9, -5003.73, 0.00, 0.00, 0.00, 0.00, 0.00, 0.00, 0.00, 0.000, 0.000, 0.000, 14:13:00.499, 1551726780499
10, -4982.81, 0.00, 0.00, 0.00, 0.00, 0.00, 0.00, 0.00, 0.000, 0.000, 0.000, 14:13:00.499, 1551726780499
11, -4967.12, 0.00, 0.00, 0.00, 0.00, 0.00, 0.00, 0.00, -0.154, 0.896, -0.466, 14:13:00.507, 1551726780507
12, -4980.46, 0.00, 0.00, 0.00, 0.00, 0.00, 0.00, 0.00, 0.000, 0.000, 0.000, 14:13:00.507, 1551726780507
13, -5003.53, 0.00, 0.00, 0.00, 0.00, 0.00, 0.00, 0.00, 0.000, 0.000, 0.000, 14:13:00.513, 1551726780513
14, -4984.55, 0.00, 0.00, 0.00, 0.00, 0.00, 0.00, 0.00, 0.000, 0.000, 0.000, 14:13:00.513, 1551726780513
15, -4971.97, 0.00, 0.00, 0.00, 0.00, 0.00, 0.00, 0.00, 0.000, 0.000, 0.000, 14:13:00.522, 1551726780522
16, -4978.72, 0.00, 0.00, 0.00, 0.00, 0.00, 0.00, 0.00, 0.000, 0.000, 0.000, 14:13:00.522, 1551726780522
17, -5003.66, 0.00, 0.00, 0.00, 0.00, 0.00, 0.00, 0.00, 0.000, 0.000, 0.000, 14:13:00.529, 1551726780529
18, -4986.65, 0.00, 0.00, 0.00, 0.00, 0.00, 0.00, 0.00, 0.000, 0.000, 0.000, 14:13:00.529, 1551726780529
19, -4964.01, 0.00, 0.00, 0.00, 0.00, 0.00, 0.00, 0.00, 0.000, 0.000, 0.000, 14:13:00.536, 1551726780536
20, -4972.23, 0.00, 0.00, 0.00, 0.00, 0.00, 0.00, 0.00, 0.000, 0.000, 0.000, 14:13:00.543, 1551726780543
21, -5000.22, 0.00, 0.00, 0.00, 0.00, 0.00, 0.00, 0.00, -0.152, 0.892, -0.468, 14:13:00.543, 1551726780543
22, -4985.06, 0.00, 0.00, 0.00, 0.00, 0.00, 0.00, 0.00, 0.000, 0.000, 0.000, 14:13:00.551, 1551726780551
23, -4964.88, 0.00, 0.00, 0.00, 0.00, 0.00, 0.00, 0.00, 0.000, 0.000, 0.000, 14:13:00.551, 1551726780551
24, -4975.30, 0.00, 0.00, 0.00, 0.00, 0.00, 0.00, 0.00, 0.000, 0.000, 0.000, 14:13:00.559, 1551726780559
25, -4997.25, 0.00, 0.00, 0.00, 0.00, 0.00, 0.00, 0.00, 0.000, 0.000, 0.000, 14:13:00.560, 1551726780560
26, -5000.29, 0.00, 0.00, 0.00, 0.00, 0.00, 0.00, 0.00, 0.000, 0.000, 0.000, 14:13:00.566, 1551726780566
27, -4976.59, 0.00, 0.00, 0.00, 0.00, 0.00, 0.00, 0.00, 0.000, 0.000, 0.000, 14:13:00.566, 1551726780566
28, -4975.81, 0.00, 0.00, 0.00, 0.00, 0.00, 0.00, 0.00, 0.000, 0.000, 0.000, 14:13:00.574, 1551726780574
29, -4995.32, 0.00, 0.00, 0.00, 0.00, 0.00, 0.00, 0.00, 0.000, 0.000, 0.000, 14:13:00.575, 1551726780575
30, -5006.68, 0.00, 0.00, 0.00, 0.00, 0.00, 0.00, 0.00, 0.000, 0.000, 0.000, 14:13:00.582, 1551726780582
31, -4977.80, 0.00, 0.00, 0.00, 0.00, 0.00, 0.00, 0.00, -0.156, 0.894, -0.464, 14:13:00.582, 1551726780582
32, -4970.07, 0.00, 0.00, 0.00, 0.00, 0.00, 0.00, 0.00, 0.000, 0.000, 0.000, 14:13:00.590, 1551726780590
33, -4996.17, 0.00, 0.00, 0.00, 0.00, 0.00, 0.00, 0.00, 0.000, 0.000, 0.000, 14:13:00.591, 1551726780591
34, -5000.89, 0.00, 0.00, 0.00, 0.00, 0.00, 0.00, 0.00, 0.000, 0.000, 0.000, 14:13:00.596, 1551726780596
35, -4979.57, 0.00, 0.00, 0.00, 0.00, 0.00, 0.00, 0.00, 0.000, 0.000, 0.000, 14:13:00.603, 1551726780603
36, -4973.71, 0.00, 0.00, 0.00, 0.00, 0.00, 0.00, 0.00, 0.000, 0.000, 0.000, 14:13:00.603, 1551726780603
37, -4984.68, 0.00, 0.00, 0.00, 0.00, 0.00, 0.00, 0.00, 0.000, 0.000, 0.000, 14:13:00.611, 1551726780611
38, -5005.36, 0.00, 0.00, 0.00, 0.00, 0.00, 0.00, 0.00, 0.000, 0.000, 0.000, 14:13:00.611, 1551726780611
39, -4988.26, 0.00, 0.00, 0.00, 0.00, 0.00, 0.00, 0.00, 0.000, 0.000, 0.000, 14:13:00.619, 1551726780619
40, -4971.65, 0.00, 0.00, 0.00, 0.00, 0.00, 0.00, 0.00, 0.000, 0.000, 0.000, 14:13:00.619, 1551726780619
41, -4982.00, 0.00, 0.00, 0.00, 0.00, 0.00, 0.00, 0.00, -0.152, 0.894, -0.466, 14:13:00.626, 1551726780626
42, -5001.56, 0.00, 0.00, 0.00, 0.00, 0.00, 0.00, 0.00, 0.000, 0.000, 0.000, 14:13:00.626, 1551726780626
43, -4983.59, 0.00, 0.00, 0.00, 0.00, 0.00, 0.00, 0.00, 0.000, 0.000, 0.000, 14:13:00.634, 1551726780634
44, -4964.59, 0.00, 0.00, 0.00, 0.00, 0.00, 0.00, 0.00, 0.000, 0.000, 0.000, 14:13:00.634, 1551726780634
45, -4970.63, 0.00, 0.00, 0.00, 0.00, 0.00, 0.00, 0.00, 0.000, 0.000, 0.000, 14:13:00.642, 1551726780642
46, -4993.29, 0.00, 0.00, 0.00, 0.00, 0.00, 0.00, 0.00, 0.000, 0.000, 0.000, 14:13:00.642, 1551726780642
47, -4991.64, 0.00, 0.00, 0.00, 0.00, 0.00, 0.00, 0.00, 0.000, 0.000, 0.000, 14:13:00.648, 1551726780648
48, -4972.97, 0.00, 0.00, 0.00, 0.00, 0.00, 0.00, 0.00, 0.000, 0.000, 0.000, 14:13:00.649, 1551726780649
49, -4980.13, 0.00, 0.00, 0.00, 0.00, 0.00, 0.00, 0.00, 0.000, 0.000, 0.000, 14:13:00.655, 1551726780655
50, -4991.08, 0.00, 0.00, 0.00, 0.00, 0.00, 0.00, 0.00, 0.000, 0.000, 0.000, 14:13:00.664, 1551726780664
51, -4989.74, 0.00, 0.00, 0.00, 0.00, 0.00, 0.00, 0.00, -0.156, 0.888, -0.464, 14:13:00.664, 1551726780664
52, -4967.94, 0.00, 0.00, 0.00, 0.00, 0.00, 0.00, 0.00, 0.000, 0.000, 0.000, 14:13:00.671, 1551726780671
53, -4965.04, 0.00, 0.00, 0.00, 0.00, 0.00, 0.00, 0.00, 0.000, 0.000, 0.000, 14:13:00.672, 1551726780672
54, -4979.21, 0.00, 0.00, 0.00, 0.00, 0.00, 0.00, 0.00, 0.000, 0.000, 0.000, 14:13:00.678, 1551726780678
55, -4990.12, 0.00, 0.00, 0.00, 0.00, 0.00, 0.00, 0.00, 0.000, 0.000, 0.000, 14:13:00.678, 1551726780678
56, -4973.02, 0.00, 0.00, 0.00, 0.00, 0.00, 0.00, 0.00, 0.000, 0.000, 0.000, 14:13:00.686, 1551726780686
57, -4961.57, 0.00, 0.00, 0.00, 0.00, 0.00, 0.00, 0.00, 0.000, 0.000, 0.000, 14:13:00.686, 1551726780686
58, -4973.49, 0.00, 0.00, 0.00, 0.00, 0.00, 0.00, 0.00, 0.000, 0.000, 0.000, 14:13:00.694, 1551726780694
59, -4992.13, 0.00, 0.00, 0.00, 0.00, 0.00, 0.00, 0.00, 0.000, 0.000, 0.000, 14:13:00.694, 1551726780694
60, -4973.13, 0.00, 0.00, 0.00, 0.00, 0.00, 0.00, 0.00, -0.156, 0.890, -0.466, 14:13:00.701, 1551726780701
61, -4968.48, 0.00, 0.00, 0.00, 0.00, 0.00, 0.00, 0.00, 0.000, 0.000, 0.000, 14:13:00.701, 1551726780701
62, -4982.56, 0.00, 0.00, 0.00, 0.00, 0.00, 0.00, 0.00, 0.000, 0.000, 0.000, 14:13:00.709, 1551726780709
63, -5003.01, 0.00, 0.00, 0.00, 0.00, 0.00, 0.00, 0.00, 0.000, 0.000, 0.000, 14:13:00.709, 1551726780709
64, -4991.95, 0.00, 0.00, 0.00, 0.00, 0.00, 0.00, 0.00, 0.000, 0.000, 0.000, 14:13:00.716, 1551726780716
65, -4975.03, 0.00, 0.00, 0.00, 0.00, 0.00, 0.00, 0.00, 0.000, 0.000, 0.000, 14:13:00.716, 1551726780716
66, -4982.99, 0.00, 0.00, 0.00, 0.00, 0.00, 0.00, 0.00, 0.000, 0.000, 0.000, 14:13:00.724, 1551726780724
67, -5007.80, 0.00, 0.00, 0.00, 0.00, 0.00, 0.00, 0.00, 0.000, 0.000, 0.000, 14:13:00.731, 1551726780731
68, -4977.89, 0.00, 0.00, 0.00, 0.00, 0.00, 0.00, 0.00, 0.000, 0.000, 0.000, 14:13:00.731, 1551726780731
69, -4953.68, 0.00, 0.00, 0.00, 0.00, 0.00, 0.00, 0.00, 0.000, 0.000, 0.000, 14:13:00.738, 1551726780738
70, -4959.67, 0.00, 0.00, 0.00, 0.00, 0.00, 0.00, 0.00, -0.152, 0.894, -0.466, 14:13:00.738, 1551726780738
71, -4984.19, 0.00, 0.00, 0.00, 0.00, 0.00, 0.00, 0.00, 0.000, 0.000, 0.000, 14:13:00.746, 1551726780746
72, -4979.14, 0.00, 0.00, 0.00, 0.00, 0.00, 0.00, 0.00, 0.000, 0.000, 0.000, 14:13:00.746, 1551726780746
73, -4962.51, 0.00, 0.00, 0.00, 0.00, 0.00, 0.00, 0.00, 0.000, 0.000, 0.000, 14:13:00.754, 1551726780754
74, -4968.70, 0.00, 0.00, 0.00, 0.00, 0.00, 0.00, 0.00, 0.000, 0.000, 0.000, 14:13:00.754, 1551726780754
75, -4987.37, 0.00, 0.00, 0.00, 0.00, 0.00, 0.00, 0.00, 0.000, 0.000, 0.000, 14:13:00.762, 1551726780762
76, -4989.62, 0.00, 0.00, 0.00, 0.00, 0.00, 0.00, 0.00, 0.000, 0.000, 0.000, 14:13:00.762, 1551726780762
77, -4967.83, 0.00, 0.00, 0.00, 0.00, 0.00, 0.00, 0.00, 0.000, 0.000, 0.000, 14:13:00.769, 1551726780769
78, -4967.67, 0.00, 0.00, 0.00, 0.00, 0.00, 0.00, 0.00, 0.000, 0.000, 0.000, 14:13:00.769, 1551726780769
79, -4986.03, 0.00, 0.00, 0.00, 0.00, 0.00, 0.00, 0.00, 0.000, 0.000, 0.000, 14:13:00.777, 1551726780777
80, -4997.72, 0.00, 0.00, 0.00, 0.00, 0.00, 0.00, 0.00, -0.152, 0.890, -0.464, 14:13:00.777, 1551726780777
81, -4980.06, 0.00, 0.00, 0.00, 0.00, 0.00, 0.00, 0.00, 0.000, 0.000, 0.000, 14:13:00.783, 1551726780783
82, -4978.72, 0.00, 0.00, 0.00, 0.00, 0.00, 0.00, 0.00, 0.000, 0.000, 0.000, 14:13:00.791, 1551726780791
83, -4976.91, 0.00, 0.00, 0.00, 0.00, 0.00, 0.00, 0.00, 0.000, 0.000, 0.000, 14:13:00.791, 1551726780791
84, -4994.27, 0.00, 0.00, 0.00, 0.00, 0.00, 0.00, 0.00, 0.000, 0.000, 0.000, 14:13:00.798, 1551726780798
85, -4974.76, 0.00, 0.00, 0.00, 0.00, 0.00, 0.00, 0.00, 0.000, 0.000, 0.000, 14:13:00.799, 1551726780799
86, -4964.19, 0.00, 0.00, 0.00, 0.00, 0.00, 0.00, 0.00, 0.000, 0.000, 0.000, 14:13:00.807, 1551726780807
87, -4972.48, 0.00, 0.00, 0.00, 0.00, 0.00, 0.00, 0.00, 0.000, 0.000, 0.000, 14:13:00.807, 1551726780807
88, -4994.61, 0.00, 0.00, 0.00, 0.00, 0.00, 0.00, 0.00, 0.000, 0.000, 0.000, 14:13:00.813, 1551726780813
89, -4981.44, 0.00, 0.00, 0.00, 0.00, 0.00, 0.00, 0.00, 0.000, 0.000, 0.000, 14:13:00.813, 1551726780813
90, -4963.74, 0.00, 0.00, 0.00, 0.00, 0.00, 0.00, 0.00, -0.150, 0.894, -0.462, 14:13:00.821, 1551726780821
91, -4972.28, 0.00, 0.00, 0.00, 0.00, 0.00, 0.00, 0.00, 0.000, 0.000, 0.000, 14:13:00.821, 1551726780821
92, -4992.82, 0.00, 0.00, 0.00, 0.00, 0.00, 0.00, 0.00, 0.000, 0.000, 0.000, 14:13:00.829, 1551726780829
93, -4983.72, 0.00, 0.00, 0.00, 0.00, 0.00, 0.00, 0.00, 0.000, 0.000, 0.000, 14:13:00.830, 1551726780830
94, -4963.29, 0.00, 0.00, 0.00, 0.00, 0.00, 0.00, 0.00, 0.000, 0.000, 0.000, 14:13:00.837, 1551726780837
95, -4968.66, 0.00, 0.00, 0.00, 0.00, 0.00, 0.00, 0.00, 0.000, 0.000, 0.000, 14:13:00.838, 1551726780838
96, -4995.53, 0.00, 0.00, 0.00, 0.00, 0.00, 0.00, 0.00, 0.000, 0.000, 0.000, 14:13:00.843, 1551726780843
97, -4986.81, 0.00, 0.00, 0.00, 0.00, 0.00, 0.00, 0.00, 0.000, 0.000, 0.000, 14:13:00.851, 1551726780851
98, -4966.42, 0.00, 0.00, 0.00, 0.00, 0.00, 0.00, 0.00, 0.000, 0.000, 0.000, 14:13:00.851, 1551726780851
99, -4964.77, 0.00, 0.00, 0.00, 0.00, 0.00, 0.00, 0.00, 0.000, 0.000, 0.000, 14:13:00.859, 1551726780859
100, -4986.54, 0.00, 0.00, 0.00, 0.00, 0.00, 0.00, 0.00, -0.150, 0.894, -0.462, 14:13:00.859, 1551726780859
101, -5001.07, 0.00, 0.00, 0.00, 0.00, 0.00, 0.00, 0.00, 0.000, 0.000, 0.000, 14:13:00.866, 1551726780866
102, -4977.15, 0.00, 0.00, 0.00, 0.00, 0.00, 0.00, 0.00, 0.000, 0.000, 0.000, 14:13:00.866, 1551726780866
103, -4975.48, 0.00, 0.00, 0.00, 0.00, 0.00, 0.00, 0.00, 0.000, 0.000, 0.000, 14:13:00.874, 1551726780874
104, -4981.40, 0.00, 0.00, 0.00, 0.00, 0.00, 0.00, 0.00, 0.000, 0.000, 0.000, 14:13:00.874, 1551726780874
105, -4998.19, 0.00, 0.00, 0.00, 0.00, 0.00, 0.00, 0.00, 0.000, 0.000, 0.000, 14:13:00.881, 1551726780881
106, -4980.95, 0.00, 0.00, 0.00, 0.00, 0.00, 0.00, 0.00, 0.000, 0.000, 0.000, 14:13:00.882, 1551726780882
107, -4970.63, 0.00, 0.00, 0.00, 0.00, 0.00, 0.00, 0.00, 0.000, 0.000, 0.000, 14:13:00.889, 1551726780889
108, -4984.42, 0.00, 0.00, 0.00, 0.00, 0.00, 0.00, 0.00, 0.000, 0.000, 0.000, 14:13:00.889, 1551726780889
109, -4996.82, 0.00, 0.00, 0.00, 0.00, 0.00, 0.00, 0.00, 0.000, 0.000, 0.000, 14:13:00.896, 1551726780896
110, -4981.53, 0.00, 0.00, 0.00, 0.00, 0.00, 0.00, 0.00, -0.156, 0.900, -0.466, 14:13:00.896, 1551726780896
