%OpenBCI Raw EEG Data
%Number of channels = 8
%Sample Rate = 250.0 Hz
%First Column = SampleIndex
%Last Column = Timestamp 
%Other Columns = EEG data in microvolts followed by Accel Data (in G) interleaved with Aux Data
0, -17996.10, 0.00, 0.00, 0.00, 0.00, 0.00, -13915.17, 0.00, 0.000, 0.000, 0.000, 14:55:46.359, 1551729346359
1, -17987.65, 0.00, 0.00, 0.00, 0.00, 0.00, -13925.27, 0.00, -0.718, 0.592, -0.320, 14:55:46.367, 1551729346367
2, -17974.27, 0.00, 0.00, 0.00, 0.00, 0.00, -13901.94, 0.00, 0.000, 0.000, 0.000, 14:55:46.367, 1551729346367
3, -17973.51, 0.00, 0.00, 0.00, 0.00, 0.00, -13871.69, 0.00, 0.000, 0.000, 0.000, 14:55:46.375, 1551729346375
4, -17992.19, 0.00, 0.00, 0.00, 0.00, 0.00, -13896.73, 0.00, 0.000, 0.000, 0.000, 14:55:46.375, 1551729346375
5, -17986.67, 0.00, 0.00, 0.00, 0.00, 0.00, -13918.65, 0.00, 0.000, 0.000, 0.000, 14:55:46.382, 1551729346382
6, -17977.13, 0.00, 0.00, 0.00, 0.00, 0.00, -13907.17, 0.00, 0.000, 0.000, 0.000, 14:55:46.382, 1551729346382
7, -17975.81, 0.00, 0.00, 0.00, 0.00, 0.00, -13883.70, 0.00, 0.000, 0.000, 0.000, 14:55:46.390, 1551729346390
8, -17998.56, 0.00, 0.00, 0.00, 0.00, 0.00, -13903.21, 0.00, 0.000, 0.000, 0.000, 14:55:46.390, 1551729346390
9, -17999.21, 0.00, 0.00, 0.00, 0.00, 0.00, -13930.97, 0.00, 0.000, 0.000, 0.000, 14:55:46.398, 1551729346398
10, -17984.26, 0.00, 0.00, 0.00, 0.00, 0.00, -13918.97, 0.00, 0.000, 0.000, 0.000, 14:55:46.398, 1551729346398
11, -17975.92, 0.00, 0.00, 0.00, 0.00, 0.00, -13894.67, 0.00, -0.740, 0.578, -0.314, 14:55:46.406, 1551729346406
12, -17993.22, 0.00, 0.00, 0.00, 0.00, 0.00, -13904.06, 0.00, 0.000, 0.000, 0.000, 14:55:46.406, 1551729346406
13, -18003.50, 0.00, 0.00, 0.00, 0.00, 0.00, -13937.32, 0.00, 0.000, 0.000, 0.000, 14:55:46.412, 1551729346412
14, -17987.37, 0.00, 0.00, 0.00, 0.00, 0.00, -13928.20, 0.00, 0.000, 0.000, 0.000, 14:55:46.412, 1551729346412
15, -17980.75, 0.00, 0.00, 0.00, 0.00, 0.00, -13903.25, 0.00, 0.000, 0.000, 0.000, 14:55:46.419, 1551729346419
16, -17995.70, 0.00, 0.00, 0.00, 0.00, 0.00, -13902.23, 0.00, 0.000, 0.000, 0.000, 14:55:46.431, 1551729346431
17, -18007.06, 0.00, 0.00, 0.00, 0.00, 0.00, -13933.79, 0.00, 0.000, 0.000, 0.000, 14:55:46.431, 1551729346431
18, -17993.13, 0.00, 0.00, 0.00, 0.00, 0.00, -13934.23, 0.00, 0.000, 0.000, 0.000, 14:55:46.438, 1551729346438
19, -17987.95, 0.00, 0.00, 0.00, 0.00, 0.00, -13919.37, 0.00, 0.000, 0.000, 0.000, 14:55:46.438, 1551729346438
20, -17994.23, 0.00, 0.00, 0.00, 0.00, 0.00, -13908.33, 0.00, 0.000, 0.000, 0.000, 14:55:46.443, 1551729346443
21, -18012.42, 0.00, 0.00, 0.00, 0.00, 0.00, -13939.49, 0.00, -0.746, 0.568, -0.306, 14:55:46.443, 1551729346443
22, -18001.33, 0.00, 0.00, 0.00, 0.00, 0.00, -13948.52, 0.00, 0.000, 0.000, 0.000, 14:55:46.450, 1551729346450
23, -17989.33, 0.00, 0.00, 0.00, 0.00, 0.00, -13927.84, 0.00, 0.000, 0.000, 0.000, 14:55:46.450, 1551729346450
24, -17995.48, 0.00, 0.00, 0.00, 0.00, 0.00, -13910.76, 0.00, 0.000, 0.000, 0.000, 14:55:46.458, 1551729346458
25, -18022.57, 0.00, 0.00, 0.00, 0.00, 0.00, -13941.59, 0.00, 0.000, 0.000, 0.000, 14:55:46.458, 1551729346458
26, -18008.29, 0.00, 0.00, 0.00, 0.00, 0.00, -13949.99, 0.00, 0.000, 0.000, 0.000, 14:55:46.465, 1551729346465
27, -17997.60, 0.00, 0.00, 0.00, 0.00, 0.00, -13934.84, 0.00, 0.000, 0.000, 0.000, 14:55:46.465, 1551729346465
28, -17997.54, 0.00, 0.00, 0.00, 0.00, 0.00, -13910.85, 0.00, 0.000, 0.000, 0.000, 14:55:46.473, 1551729346473
29, -18017.14, 0.00, 0.00, 0.00, 0.00, 0.00, -13930.63, 0.00, 0.000, 0.000, 0.000, 14:55:46.473, 1551729346473
30, -18010.05, 0.00, 0.00, 0.00, 0.00, 0.00, -13947.09, 0.00, -0.746, 0.566, -0.298, 14:55:46.480, 1551729346480
31, -17999.50, 0.00, 0.00, 0.00, 0.00, 0.00, -13934.17, 0.00, 0.000, 0.000, 0.000, 14:55:46.488, 1551729346488
32, -17995.75, 0.00, 0.00, 0.00, 0.00, 0.00, -13909.42, 0.00, 0.000, 0.000, 0.000, 14:55:46.489, 1551729346489
33, -18023.28, 0.00, 0.00, 0.00, 0.00, 0.00, -13925.09, 0.00, 0.000, 0.000, 0.000, 14:55:46.494, 1551729346494
34, -18025.56, 0.00, 0.00, 0.00, 0.00, 0.00, -13951.78, 0.00, 0.000, 0.000, 0.000, 14:55:46.495, 1551729346495
35, -17997.65, 0.00, 0.00, 0.00, 0.00, 0.00, -13934.39, 0.00, 0.000, 0.000, 0.000, 14:55:46.502, 1551729346502
36, -17986.11, 0.00, 0.00, 0.00, 0.00, 0.00, -13903.92, 0.00, 0.000, 0.000, 0.000, 14:55:46.502, 1551729346502
37, -18003.19, 0.00, 0.00, 0.00, 0.00, 0.00, -13907.05, 0.00, 0.000, 0.000, 0.000, 14:55:46.511, 1551729346511
38, -18011.04, 0.00, 0.00, 0.00, 0.00, 0.00, -13937.18, 0.00, 0.000, 0.000, 0.000, 14:55:46.511, 1551729346511
39, -18001.11, 0.00, 0.00, 0.00, 0.00, 0.00, -13941.05, 0.00, 0.000, 0.000, 0.000, 14:55:46.521, 1551729346521
40, -17998.36, 0.00, 0.00, 0.00, 0.00, 0.00, -13925.65, 0.00, -0.738, 0.566, -0.302, 14:55:46.522, 1551729346522
41, -18010.19, 0.00, 0.00, 0.00, 0.00, 0.00, -13916.22, 0.00, 0.000, 0.000, 0.000, 14:55:46.525, 1551729346525
42, -18025.50, 0.00, 0.00, 0.00, 0.00, 0.00, -13946.62, 0.00, 0.000, 0.000, 0.000, 14:55:46.525, 1551729346525
43, -18015.48, 0.00, 0.00, 0.00, 0.00, 0.00, -13952.67, 0.00, 0.000, 0.000, 0.000, 14:55:46.533, 1551729346533
44, -18006.47, 0.00, 0.00, 0.00, 0.00, 0.00, -13931.33, 0.00, 0.000, 0.000, 0.000, 14:55:46.533, 1551729346533
45, -18008.38, 0.00, 0.00, 0.00, 0.00, 0.00, -13913.31, 0.00, 0.000, 0.000, 0.000, 14:55:46.540, 1551729346540
46, -18025.72, 0.00, 0.00, 0.00, 0.00, 0.00, -13944.94, 0.00, 0.000, 0.000, 0.000, 14:55:46.547, 1551729346547
47, -18009.72, 0.00, 0.00, 0.00, 0.00, 0.00, -13953.79, 0.00, 0.000, 0.000, 0.000, 14:55:46.547, 1551729346547
48, -17992.86, 0.00, 0.00, 0.00, 0.00, 0.00, -13927.80, 0.00, 0.000, 0.000, 0.000, 14:55:46.555, 1551729346555
49, -17995.08, 0.00, 0.00, 0.00, 0.00, 0.00, -13908.08, 0.00, 0.000, 0.000, 0.000, 14:55:46.555, 1551729346555
50, -18016.87, 0.00, 0.00, 0.00, 0.00, 0.00, -13933.16, 0.00, -0.748, 0.564, -0.300, 14:55:46.563, 1551729346563
51, -18007.91, 0.00, 0.00, 0.00, 0.00, 0.00, -13941.92, 0.00, 0.000, 0.000, 0.000, 14:55:46.563, 1551729346563
52, -17989.51, 0.00, 0.00, 0.00, 0.00, 0.00, -13922.10, 0.00, 0.000, 0.000, 0.000, 14:55:46.570, 1551729346570
53, -17983.36, 0.00, 0.00, 0.00, 0.00, 0.00, -13901.02, 0.00, 0.000, 0.000, 0.000, 14:55:46.570, 1551729346570
54, -18011.24, 0.00, 0.00, 0.00, 0.00, 0.00, -13928.51, 0.00, 0.000, 0.000, 0.000, 14:55:46.577, 1551729346577
55, -18008.96, 0.00, 0.00, 0.00, 0.00, 0.00, -13953.97, 0.00, 0.000, 0.000, 0.000, 14:55:46.578, 1551729346578
56, -17997.20, 0.00, 0.00, 0.00, 0.00, 0.00, -13941.32, 0.00, 0.000, 0.000, 0.000, 14:55:46.586, 1551729346586
57, -17992.42, 0.00, 0.00, 0.00, 0.00, 0.00, -13916.11, 0.00, 0.000, 0.000, 0.000, 14:55:46.587, 1551729346587
58, -18009.02, 0.00, 0.00, 0.00, 0.00, 0.00, -13919.82, 0.00, 0.000, 0.000, 0.000, 14:55:46.593, 1551729346593
59, -18012.29, 0.00, 0.00, 0.00, 0.00, 0.00, -13942.82, 0.00, 0.000, 0.000, 0.000, 14:55:46.594, 1551729346594
60, -17999.90, 0.00, 0.00, 0.00, 0.00, 0.00, -13934.52, 0.00, -0.750, 0.560, -0.302, 14:55:46.600, 1551729346600
61, -17993.58, 0.00, 0.00, 0.00, 0.00, 0.00, -13910.07, 0.00, 0.000, 0.000, 0.000, 14:55:46.600, 1551729346600
62, -18009.40, 0.00, 0.00, 0.00, 0.00, 0.00, -13909.20, 0.00, 0.000, 0.000, 0.000, 14:55:46.607, 1551729346607
63, -18022.43, 0.00, 0.00, 0.00, 0.00, 0.00, -13944.11, 0.00, 0.000, 0.000, 0.000, 14:55:46.615, 1551729346615
64, -18001.40, 0.00, 0.00, 0.00, 0.00, 0.00, -13937.36, 0.00, 0.000, 0.000, 0.000, 14:55:46.616, 1551729346616
65, -17993.24, 0.00, 0.00, 0.00, 0.00, 0.00, -13914.45, 0.00, 0.000, 0.000, 0.000, 14:55:46.623, 1551729346623
66, -18005.42, 0.00, 0.00, 0.00, 0.00, 0.00, -13905.85, 0.00, 0.000, 0.000, 0.000, 14:55:46.624, 1551729346624
67, -18025.72, 0.00, 0.00, 0.00, 0.00, 0.00, -13935.75, 0.00, 0.000, 0.000, 0.000, 14:55:46.630, 1551729346630
68, -18001.49, 0.00, 0.00, 0.00, 0.00, 0.00, -13932.58, 0.00, 0.000, 0.000, 0.000, 14:55:46.630, 1551729346630
69, -17990.18, 0.00, 0.00, 0.00, 0.00, 0.00, -13912.69, 0.00, 0.000, 0.000, 0.000, 14:55:46.637, 1551729346637
70, -18000.11, 0.00, 0.00, 0.00, 0.00, 0.00, -13900.33, 0.00, -0.752, 0.560, -0.304, 14:55:46.638, 1551729346638
71, -18018.95, 0.00, 0.00, 0.00, 0.00, 0.00, -13926.05, 0.00, 0.000, 0.000, 0.000, 14:55:46.646, 1551729346646
72, -18005.54, 0.00, 0.00, 0.00, 0.00, 0.00, -13934.55, 0.00, 0.000, 0.000, 0.000, 14:55:46.646, 1551729346646
73, -17994.25, 0.00, 0.00, 0.00, 0.00, 0.00, -13915.61, 0.00, 0.000, 0.000, 0.000, 14:55:46.653, 1551729346653
74, -17998.99, 0.00, 0.00, 0.00, 0.00, 0.00, -13896.77, 0.00, 0.000, 0.000, 0.000, 14:55:46.653, 1551729346653
75, -18018.99, 0.00, 0.00, 0.00, 0.00, 0.00, -13923.15, 0.00, 0.000, 0.000, 0.000, 14:55:46.660, 1551729346660
76, -18009.52, 0.00, 0.00, 0.00, 0.00, 0.00, -13941.65, 0.00, 0.000, 0.000, 0.000, 14:55:46.660, 1551729346660
77, -17992.66, 0.00, 0.00, 0.00, 0.00, 0.00, -13926.16, 0.00, 0.000, 0.000, 0.000, 14:55:46.667, 1551729346667
78, -17994.81, 0.00, 0.00, 0.00, 0.00, 0.00, -13903.90, 0.00, 0.000, 0.000, 0.000, 14:55:46.675, 1551729346675
79, -18019.24, 0.00, 0.00, 0.00, 0.00, 0.00, -13921.18, 0.00, 0.000, 0.000, 0.000, 14:55:46.675, 1551729346675
80, -18016.44, 0.00, 0.00, 0.00, 0.00, 0.00, -13943.69, 0.00, -0.750, 0.556, -0.306, 14:55:46.682, 1551729346682
81, -18000.62, 0.00, 0.00, 0.00, 0.00, 0.00, -13929.94, 0.00, 0.000, 0.000, 0.000, 14:55:46.683, 1551729346683
82, -17995.03, 0.00, 0.00, 0.00, 0.00, 0.00, -13903.95, 0.00, 0.000, 0.000, 0.000, 14:55:46.690, 1551729346690
83, -18012.29, 0.00, 0.00, 0.00, 0.00, 0.00, -13911.66, 0.00, 0.000, 0.000, 0.000, 14:55:46.690, 1551729346690
84, -18022.08, 0.00, 0.00, 0.00, 0.00, 0.00, -13944.60, 0.00, 0.000, 0.000, 0.000, 14:55:46.698, 1551729346698
85, -18004.73, 0.00, 0.00, 0.00, 0.00, 0.00, -13935.55, 0.00, 0.000, 0.000, 0.000, 14:55:46.698, 1551729346698
86, -18001.36, 0.00, 0.00, 0.00, 0.00, 0.00, -13914.47, 0.00, 0.000, 0.000, 0.000, 14:55:46.706, 1551729346706
87, -18011.79, 0.00, 0.00, 0.00, 0.00, 0.00, -13910.58, 0.00, 0.000, 0.000, 0.000, 14:55:46.706, 1551729346706
88, -18024.31, 0.00, 0.00, 0.00, 0.00, 0.00, -13942.95, 0.00, 0.000, 0.000, 0.000, 14:55:46.712, 1551729346712
89, -18007.35, 0.00, 0.00, 0.00, 0.00, 0.00, -13941.83, 0.00, -0.750, 0.556, -0.302, 14:55:46.713, 1551729346713
90, -17998.90, 0.00, 0.00, 0.00, 0.00, 0.00, -13919.53, 0.00, 0.000, 0.000, 0.000, 14:55:46.721, 1551729346721
91, -18005.69, 0.00, 0.00, 0.00, 0.00, 0.00, -13886.94, 0.00, 0.000, 0.000, 0.000, 14:55:46.721, 1551729346721
92, -18023.66, 0.00, 0.00, 0.00, 0.00, 0.00, -13850.26, 0.00, 0.000, 0.000, 0.000, 14:55:46.731, 1551729346731
93, -18011.73, 0.00, 0.00, 0.00, 0.00, 0.00, -13875.09, 0.00, 0.000, 0.000, 0.000, 14:55:46.735, 1551729346735
94, -18007.79, 0.00, 0.00, 0.00, 0.00, 0.00, -13879.43, 0.00, 0.000, 0.000, 0.000, 14:55:46.735, 1551729346735
95, -18003.26, 0.00, 0.00, 0.00, 0.00, 0.00, -13865.73, 0.00, 0.000, 0.000, 0.000, 14:55:46.743, 1551729346743
96, -18021.85, 0.00, 0.00, 0.00, 0.00, 0.00, -13898.92, 0.00, 0.000, 0.000, 0.000, 14:55:46.743, 1551729346743
97, -18013.25, 0.00, 0.00, 0.00, 0.00, 0.00, -13913.94, 0.00, 0.000, 0.000, 0.000, 14:55:46.750, 1551729346750
98, -17999.79, 0.00, 0.00, 0.00, 0.00, 0.00, -13898.34, 0.00, 0.000, 0.000, 0.000, 14:55:46.751, 1551729346751
99, -17996.02, 0.00, 0.00, 0.00, 0.00, 0.00, -13877.06, 0.00, -0.746, 0.560, -0.302, 14:55:46.759, 1551729346759
100, -18020.47, 0.00, 0.00, 0.00, 0.00, 0.00, -13903.25, 0.00, 0.000, 0.000, 0.000, 14:55:46.759, 1551729346759
101, -18014.61, 0.00, 0.00, 0.00, 0.00, 0.00, -13925.94, 0.00, 0.000, 0.000, 0.000, 14:55:46.765, 1551729346765
102, -18000.89, 0.00, 0.00, 0.00, 0.00, 0.00, -13914.05, 0.00, 0.000, 0.000, 0.000, 14:55:46.766, 1551729346766
103, -17995.88, 0.00, 0.00, 0.00, 0.00, 0.00, -13889.49, 0.00, 0.000, 0.000, 0.000, 14:55:46.773, 1551729346773
104, -18016.09, 0.00, 0.00, 0.00, 0.00, 0.00, -13902.36, 0.00, 0.000, 0.000, 0.000, 14:55:46.773, 1551729346773
105, -18018.68, 0.00, 0.00, 0.00, 0.00, 0.00, -13929.32, 0.00, 0.000, 0.000, 0.000, 14:55:46.780, 1551729346780
106, -18007.84, 0.00, 0.00, 0.00, 0.00, 0.00, -13921.94, 0.00, 0.000, 0.000, 0.000, 14:55:46.780, 1551729346780
107, -17993.51, 0.00, 0.00, 0.00, 0.00, 0.00, -13894.20, 0.00, 0.000, 0.000, 0.000, 14:55:46.787, 1551729346787
108, -18015.13, 0.00, 0.00, 0.00, 0.00, 0.00, -13904.82, 0.00, 0.000, 0.000, 0.000, 14:55:46.795, 1551729346795
109, -18018.12, 0.00, 0.00, 0.00, 0.00, 0.00, -13933.61, 0.00, -0.744, 0.560, -0.306, 14:55:46.795, 1551729346795
110, -18001.69, 0.00, 0.00, 0.00, 0.00, 0.00, -13922.75, 0.00, 0.000, 0.000, 0.000, 14:55:46.802, 1551729346802
111, -17995.70, 0.00, 0.00, 0.00, 0.00, 0.00, -13895.27, 0.00, 0.000, 0.000, 0.000, 14:55:46.802, 1551729346802
112, -18003.44, 0.00, 0.00, 0.00, 0.00, 0.00, -13888.68, 0.00, 0.000, 0.000, 0.000, 14:55:46.810, 1551729346810
113, -18012.09, 0.00, 0.00, 0.00, 0.00, 0.00, -13920.33, 0.00, 0.000, 0.000, 0.000, 14:55:46.810, 1551729346810
114, -17991.57, 0.00, 0.00, 0.00, 0.00, 0.00, -13918.23, 0.00, 0.000, 0.000, 0.000, 14:55:46.818, 1551729346818
115, -17988.84, 0.00, 0.00, 0.00, 0.00, 0.00, -13903.50, 0.00, 0.000, 0.000, 0.000, 14:55:46.818, 1551729346818
116, -17999.68, 0.00, 0.00, 0.00, 0.00, 0.00, -13891.63, 0.00, 0.000, 0.000, 0.000, 14:55:46.826, 1551729346826
117, -18017.03, 0.00, 0.00, 0.00, 0.00, 0.00, -13919.12, 0.00, 0.000, 0.000, 0.000, 14:55:46.826, 1551729346826
118, -18003.30, 0.00, 0.00, 0.00, 0.00, 0.00, -13924.38, 0.00, 0.000, 0.000, 0.000, 14:55:46.832, 1551729346832
119, -17997.31, 0.00, 0.00, 0.00, 0.00, 0.00, -13906.90, 0.00, -0.744, 0.562, -0.306, 14:55:46.833, 1551729346833
120, -18004.06, 0.00, 0.00, 0.00, 0.00, 0.00, -13890.07, 0.00, 0.000, 0.000, 0.000, 14:55:46.841, 1551729346841
121, -18015.21, 0.00, 0.00, 0.00, 0.00, 0.00, -13909.02, 0.00, 0.000, 0.000, 0.000, 14:55:46.841, 1551729346841
122, -18009.83, 0.00, 0.00, 0.00, 0.00, 0.00, -13925.09, 0.00, 0.000, 0.000, 0.000, 14:55:46.848, 1551729346848
123, -17999.66, 0.00, 0.00, 0.00, 0.00, 0.00, -13908.28, 0.00, 0.000, 0.000, 0.000, 14:55:46.848, 1551729346848
124, -17997.76, 0.00, 0.00, 0.00, 0.00, 0.00, -13881.28, 0.00, 0.000, 0.000, 0.000, 14:55:46.857, 1551729346857
125, -18020.24, 0.00, 0.00, 0.00, 0.00, 0.00, -13899.70, 0.00, 0.000, 0.000, 0.000, 14:55:46.862, 1551729346862
126, -18015.37, 0.00, 0.00, 0.00, 0.00, 0.00, -13922.95, 0.00, 0.000, 0.000, 0.000, 14:55:46.862, 1551729346862
127, -17990.63, 0.00, 0.00, 0.00, 0.00, 0.00, -13906.45, 0.00, 0.000, 0.000, 0.000, 14:55:46.870, 1551729346870
128, -17989.02, 0.00, 0.00, 0.00, 0.00, 0.00, -13884.55, 0.00, 0.000, 0.000, 0.000, 14:55:46.870, 1551729346870
129, -18008.96, 0.00, 0.00, 0.00, 0.00, 0.00, -13897.55, 0.00, -0.744, 0.560, -0.300, 14:55:46.878, 1551729346878
130, -18015.13, 0.00, 0.00, 0.00, 0.00, 0.00, -13927.68, 0.00, 0.000, 0.000, 0.000, 14:55:46.878, 1551729346878
131, -18002.74, 0.00, 0.00, 0.00, 0.00, 0.00, -13922.83, 0.00, 0.000, 0.000, 0.000, 14:55:46.885, 1551729346885
132, -17995.21, 0.00, 0.00, 0.00, 0.00, 0.00, -13896.21, 0.00, 0.000, 0.000, 0.000, 14:55:46.885, 1551729346885
133, -18014.19, 0.00, 0.00, 0.00, 0.00, 0.00, -13896.12, 0.00, 0.000, 0.000, 0.000, 14:55:46.893, 1551729346893
134, -18020.24, 0.00, 0.00, 0.00, 0.00, 0.00, -13924.26, 0.00, 0.000, 0.000, 0.000, 14:55:46.893, 1551729346893
135, -18006.54, 0.00, 0.00, 0.00, 0.00, 0.00, -13922.54, 0.00, 0.000, 0.000, 0.000, 14:55:46.901, 1551729346901
136, -17999.21, 0.00, 0.00, 0.00, 0.00, 0.00, -13899.68, 0.00, 0.000, 0.000, 0.000, 14:55:46.901, 1551729346901
137, -18017.70, 0.00, 0.00, 0.00, 0.00, 0.00, -13896.12, 0.00, 0.000, 0.000, 0.000, 14:55:46.909, 1551729346909
138, -18028.78, 0.00, 0.00, 0.00, 0.00, 0.00, -13928.53, 0.00, 0.000, 0.000, 0.000, 14:55:46.909, 1551729346909
139, -18011.21, 0.00, 0.00, 0.00, 0.00, 0.00, -13931.93, 0.00, -0.750, 0.566, -0.304, 14:55:46.915, 1551729346915
140, -18001.74, 0.00, 0.00, 0.00, 0.00, 0.00, -13908.98, 0.00, 0.000, 0.000, 0.000, 14:55:46.923, 1551729346923
141, -18009.18, 0.00, 0.00, 0.00, 0.00, 0.00, -13890.09, 0.00, 0.000, 0.000, 0.000, 14:55:46.924, 1551729346924
142, -18027.51, 0.00, 0.00, 0.00, 0.00, 0.00, -13920.62, 0.00, 0.000, 0.000, 0.000, 14:55:46.931, 1551729346931
143, -18017.00, 0.00, 0.00, 0.00, 0.00, 0.00, -13931.73, 0.00, 0.000, 0.000, 0.000, 14:55:46.932, 1551729346932
144, -18002.99, 0.00, 0.00, 0.00, 0.00, 0.00, -13912.11, 0.00, 0.000, 0.000, 0.000, 14:55:46.938, 1551729346938
145, -18009.16, 0.00, 0.00, 0.00, 0.00, 0.00, -13894.92, 0.00, 0.000, 0.000, 0.000, 14:55:46.938, 1551729346938
146, -18027.55, 0.00, 0.00, 0.00, 0.00, 0.00, -13915.50, 0.00, 0.000, 0.000, 0.000, 14:55:46.945, 1551729346945
147, -18020.24, 0.00, 0.00, 0.00, 0.00, 0.00, -13931.42, 0.00, 0.000, 0.000, 0.000, 14:55:46.946, 1551729346946
148, -18012.60, 0.00, 0.00, 0.00, 0.00, 0.00, -13918.52, 0.00, 0.000, 0.000, 0.000, 14:55:46.954, 1551729346954
149, -18006.63, 0.00, 0.00, 0.00, 0.00, 0.00, -13894.98, 0.00, -0.750, 0.560, -0.306, 14:55:46.954, 1551729346954
150, -18034.93, 0.00, 0.00, 0.00, 0.00, 0.00, -13916.84, 0.00, 0.000, 0.000, 0.000, 14:55:46.961, 1551729346961
151, -18035.11, 0.00, 0.00, 0.00, 0.00, 0.00, -13944.54, 0.00, 0.000, 0.000, 0.000, 14:55:46.961, 1551729346961
152, -18010.01, 0.00, 0.00, 0.00, 0.00, 0.00, -13930.41, 0.00, 0.000, 0.000, 0.000, 14:55:46.968, 1551729346968
153, -18005.87, 0.00, 0.00, 0.00, 0.00, 0.00, -13901.91, 0.00, 0.000, 0.000, 0.000, 14:55:46.969, 1551729346969
154, -18020.67, 0.00, 0.00, 0.00, 0.00, 0.00, -13906.85, 0.00, 0.000, 0.000, 0.000, 14:55:46.976, 1551729346976
155, -18028.98, 0.00, 0.00, 0.00, 0.00, 0.00, -13936.18, 0.00, 0.000, 0.000, 0.000, 14:55:46.983, 1551729346983
156, -18017.67, 0.00, 0.00, 0.00, 0.00, 0.00, -13930.03, 0.00, 0.000, 0.000, 0.000, 14:55:46.984, 1551729346984
157, -18003.90, 0.00, 0.00, 0.00, 0.00, 0.00, -13903.21, 0.00, 0.000, 0.000, 0.000, 14:55:46.991, 1551729346991
158, -18017.54, 0.00, 0.00, 0.00, 0.00, 0.00, -13900.82, 0.00, -0.750, 0.556, -0.302, 14:55:46.991, 1551729346991
159, -18032.04, 0.00, 0.00, 0.00, 0.00, 0.00, -13935.84, 0.00, 0.000, 0.000, 0.000, 14:55:46.998, 1551729346998
160, -18016.60, 0.00, 0.00, 0.00, 0.00, 0.00, -13932.56, 0.00, 0.000, 0.000, 0.000, 14:55:46.998, 1551729346998
161, -18021.32, 0.00, 0.00, 0.00, 0.00, 0.00, -13916.06, 0.00, 0.000, 0.000, 0.000, 14:55:47.006, 1551729347006
162, -18019.64, 0.00, 0.00, 0.00, 0.00, 0.00, -13899.25, 0.00, 0.000, 0.000, 0.000, 14:55:47.006, 1551729347006
163, -18029.86, 0.00, 0.00, 0.00, 0.00, 0.00, -13927.42, 0.00, 0.000, 0.000, 0.000, 14:55:47.015, 1551729347015
164, -18015.48, 0.00, 0.00, 0.00, 0.00, 0.00, -13927.89, 0.00, 0.000, 0.000, 0.000, 14:55:47.015, 1551729347015
165, -18004.96, 0.00, 0.00, 0.00, 0.00, 0.00, -13907.12, 0.00, 0.000, 0.000, 0.000, 14:55:47.024, 1551729347024
166, -18013.36, 0.00, 0.00, 0.00, 0.00, 0.00, -13889.98, 0.00, 0.000, 0.000, 0.000, 14:55:47.024, 1551729347024
167, -18031.08, 0.00, 0.00, 0.00, 0.00, 0.00, -13915.46, 0.00, 0.000, 0.000, 0.000, 14:55:47.028, 1551729347028
168, -18016.15, 0.00, 0.00, 0.00, 0.00, 0.00, -13923.71, 0.00, -0.750, 0.556, -0.308, 14:55:47.028, 1551729347028
169, -18010.61, 0.00, 0.00, 0.00, 0.00, 0.00, -13912.71, 0.00, 0.000, 0.000, 0.000, 14:55:47.035, 1551729347035
170, -18011.28, 0.00, 0.00, 0.00, 0.00, 0.00, -13888.75, 0.00, 0.000, 0.000, 0.000, 14:55:47.045, 1551729347045
171, -18031.02, 0.00, 0.00, 0.00, 0.00, 0.00, -13908.93, 0.00, 0.000, 0.000, 0.000, 14:55:47.046, 1551729347046
172, -18024.11, 0.00, 0.00, 0.00, 0.00, 0.00, -13927.37, 0.00, 0.000, 0.000, 0.000, 14:55:47.051, 1551729347051
173, -18012.02, 0.00, 0.00, 0.00, 0.00, 0.00, -13913.78, 0.00, 0.000, 0.000, 0.000, 14:55:47.052, 1551729347052
174, -18013.58, 0.00, 0.00, 0.00, 0.00, 0.00, -13892.55, 0.00, 0.000, 0.000, 0.000, 14:55:47.058, 1551729347058
175, -18026.73, 0.00, 0.00, 0.00, 0.00, 0.00, -13901.26, 0.00, 0.000, 0.000, 0.000, 14:55:47.058, 1551729347058
176, -18022.52, 0.00, 0.00, 0.00, 0.00, 0.00, -13923.48, 0.00, 0.000, 0.000, 0.000, 14:55:47.066, 1551729347066
177, -18012.20, 0.00, 0.00, 0.00, 0.00, 0.00, -13915.77, 0.00, 0.000, 0.000, 0.000, 14:55:47.066, 1551729347066
178, -18006.27, 0.00, 0.00, 0.00, 0.00, 0.00, -13892.48, 0.00, -0.754, 0.556, -0.308, 14:55:47.073, 1551729347073
179, -18024.47, 0.00, 0.00, 0.00, 0.00, 0.00, -13899.32, 0.00, 0.000, 0.000, 0.000, 14:55:47.074, 1551729347074
180, -18031.84, 0.00, 0.00, 0.00, 0.00, 0.00, -13930.46, 0.00, 0.000, 0.000, 0.000, 14:55:47.081, 1551729347081
181, -18013.90, 0.00, 0.00, 0.00, 0.00, 0.00, -13920.49, 0.00, 0.000, 0.000, 0.000, 14:55:47.081, 1551729347081
182, -18009.56, 0.00, 0.00, 0.00, 0.00, 0.00, -13896.91, 0.00, 0.000, 0.000, 0.000, 14:55:47.089, 1551729347089
183, -18022.79, 0.00, 0.00, 0.00, 0.00, 0.00, -13894.65, 0.00, 0.000, 0.000, 0.000, 14:55:47.089, 1551729347089
184, -18034.48, 0.00, 0.00, 0.00, 0.00, 0.00, -13924.51, 0.00, 0.000, 0.000, 0.000, 14:55:47.095, 1551729347095
185, -18022.68, 0.00, 0.00, 0.00, 0.00, 0.00, -13927.46, 0.00, 0.000, 0.000, 0.000, 14:55:47.096, 1551729347096
186, -18019.91, 0.00, 0.00, 0.00, 0.00, 0.00, -13909.02, 0.00, 0.000, 0.000, 0.000, 14:55:47.103, 1551729347103
187, -18020.42, 0.00, 0.00, 0.00, 0.00, 0.00, -13885.10, 0.00, 0.000, 0.000, 0.000, 14:55:47.110, 1551729347110
188, -18033.43, 0.00, 0.00, 0.00, 0.00, 0.00, -13910.47, 0.00, -0.746, 0.554, -0.306, 14:55:47.110, 1551729347110
189, -18023.33, 0.00, 0.00, 0.00, 0.00, 0.00, -13920.33, 0.00, 0.000, 0.000, 0.000, 14:55:47.119, 1551729347119
190, -18015.75, 0.00, 0.00, 0.00, 0.00, 0.00, -13900.77, 0.00, 0.000, 0.000, 0.000, 14:55:47.119, 1551729347119
191, -18019.95, 0.00, 0.00, 0.00, 0.00, 0.00, -13882.22, 0.00, 0.000, 0.000, 0.000, 14:55:47.126, 1551729347126
192, -18049.50, 0.00, 0.00, 0.00, 0.00, 0.00, -13912.55, 0.00, 0.000, 0.000, 0.000, 14:55:47.126, 1551729347126
193, -18023.46, 0.00, 0.00, 0.00, 0.00, 0.00, -13921.25, 0.00, 0.000, 0.000, 0.000, 14:55:47.133, 1551729347133
194, -18018.57, 0.00, 0.00, 0.00, 0.00, 0.00, -13911.12, 0.00, 0.000, 0.000, 0.000, 14:55:47.134, 1551729347134
195, -18011.77, 0.00, 0.00, 0.00, 0.00, 0.00, -13884.21, 0.00, 0.000, 0.000, 0.000, 14:55:47.141, 1551729347141
196, -18031.73, 0.00, 0.00, 0.00, 0.00, 0.00, -13900.93, 0.00, 0.000, 0.000, 0.000, 14:55:47.141, 1551729347141
197, -18028.58, 0.00, 0.00, 0.00, 0.00, 0.00, -13921.60, 0.00, 0.000, 0.000, 0.000, 14:55:47.149, 1551729347149
198, -18016.40, 0.00, 0.00, 0.00, 0.00, 0.00, -13911.19, 0.00, -0.746, 0.556, -0.308, 14:55:47.150, 1551729347150
199, -18013.47, 0.00, 0.00, 0.00, 0.00, 0.00, -13888.48, 0.00, 0.000, 0.000, 0.000, 14:55:47.156, 1551729347156
200, -18039.00, 0.00, 0.00, 0.00, 0.00, 0.00, -13902.32, 0.00, 0.000, 0.000, 0.000, 14:55:47.157, 1551729347157
201, -18032.78, 0.00, 0.00, 0.00, 0.00, 0.00, -13922.81, 0.00, 0.000, 0.000, 0.000, 14:55:47.162, 1551729347162
202, -18015.15, 0.00, 0.00, 0.00, 0.00, 0.00, -13915.23, 0.00, 0.000, 0.000, 0.000, 14:55:47.171, 1551729347171
203, -18014.10, 0.00, 0.00, 0.00, 0.00, 0.00, -13893.64, 0.00, 0.000, 0.000, 0.000, 14:55:47.171, 1551729347171
204, -18030.64, 0.00, 0.00, 0.00, 0.00, 0.00, -13896.06, 0.00, 0.000, 0.000, 0.000, 14:55:47.179, 1551729347179
205, -18037.63, 0.00, 0.00, 0.00, 0.00, 0.00, -13927.30, 0.00, 0.000, 0.000, 0.000, 14:55:47.179, 1551729347179
206, -18025.65, 0.00, 0.00, 0.00, 0.00, 0.00, -13925.94, 0.00, 0.000, 0.000, 0.000, 14:55:47.186, 1551729347186
207, -18017.70, 0.00, 0.00, 0.00, 0.00, 0.00, -13899.52, 0.00, 0.000, 0.000, 0.000, 14:55:47.186, 1551729347186
208, -18027.71, 0.00, 0.00, 0.00, 0.00, 0.00, -13891.41, 0.00, -0.744, 0.556, -0.306, 14:55:47.193, 1551729347193
209, -18040.92, 0.00, 0.00, 0.00, 0.00, 0.00, -13923.71, 0.00, 0.000, 0.000, 0.000, 14:55:47.194, 1551729347194
210, -18021.18, 0.00, 0.00, 0.00, 0.00, 0.00, -13920.93, 0.00, 0.000, 0.000, 0.000, 14:55:47.201, 1551729347201
211, -18014.23, 0.00, 0.00, 0.00, 0.00, 0.00, -13900.71, 0.00, 0.000, 0.000, 0.000, 14:55:47.201, 1551729347201
212, -18022.32, 0.00, 0.00, 0.00, 0.00, 0.00, -13889.37, 0.00, 0.000, 0.000, 0.000, 14:55:47.208, 1551729347208
213, -18044.12, 0.00, 0.00, 0.00, 0.00, 0.00, -13920.06, 0.00, 0.000, 0.000, 0.000, 14:55:47.208, 1551729347208
214, -18031.71, 0.00, 0.00, 0.00, 0.00, 0.00, -13925.00, 0.00, 0.000, 0.000, 0.000, 14:55:47.216, 1551729347216
215, -18014.63, 0.00, 0.00, 0.00, 0.00, 0.00, -13902.99, 0.00, 0.000, 0.000, 0.000, 14:55:47.216, 1551729347216
216, -18023.02, 0.00, 0.00, 0.00, 0.00, 0.00, -13887.25, 0.00, 0.000, 0.000, 0.000, 14:55:47.224, 1551729347224
217, -18043.49, 0.00, 0.00, 0.00, 0.00, 0.00, -13917.27, 0.00, -0.750, 0.560, -0.310, 14:55:47.231, 1551729347231
218, -18034.53, 0.00, 0.00, 0.00, 0.00, 0.00, -13932.67, 0.00, 0.000, 0.000, 0.000, 14:55:47.231, 1551729347231
219, -18024.67, 0.00, 0.00, 0.00, 0.00, 0.00, -13913.51, 0.00, 0.000, 0.000, 0.000, 14:55:47.238, 1551729347238
220, -18018.70, 0.00, 0.00, 0.00, 0.00, 0.00, -13884.79, 0.00, 0.000, 0.000, 0.000, 14:55:47.238, 1551729347238
221, -18043.02, 0.00, 0.00, 0.00, 0.00, 0.00, -13902.58, 0.00, 0.000, 0.000, 0.000, 14:55:47.246, 1551729347246
222, -18039.51, 0.00, 0.00, 0.00, 0.00, 0.00, -13925.54, 0.00, 0.000, 0.000, 0.000, 14:55:47.246, 1551729347246
223, -18021.25, 0.00, 0.00, 0.00, 0.00, 0.00, -13912.13, 0.00, 0.000, 0.000, 0.000, 14:55:47.261, 1551729347261
224, -18019.21, 0.00, 0.00, 0.00, 0.00, 0.00, -13889.19, 0.00, 0.000, 0.000, 0.000, 14:55:47.261, 1551729347261
225, -18040.70, 0.00, 0.00, 0.00, 0.00, 0.00, -13894.89, 0.00, 0.000, 0.000, 0.000, 14:55:47.262, 1551729347262
226, -18034.55, 0.00, 0.00, 0.00, 0.00, 0.00, -13917.92, 0.00, 0.000, 0.000, 0.000, 14:55:47.262, 1551729347262
227, -18020.15, 0.00, 0.00, 0.00, 0.00, 0.00, -13914.97, 0.00, -0.754, 0.560, -0.302, 14:55:47.268, 1551729347268
228, -18012.96, 0.00, 0.00, 0.00, 0.00, 0.00, -13891.34, 0.00, 0.000, 0.000, 0.000, 14:55:47.268, 1551729347268
229, -18027.55, 0.00, 0.00, 0.00, 0.00, 0.00, -13889.42, 0.00, 0.000, 0.000, 0.000, 14:55:47.278, 1551729347278
230, -18036.56, 0.00, 0.00, 0.00, 0.00, 0.00, -13919.33, 0.00, 0.000, 0.000, 0.000, 14:55:47.278, 1551729347278
231, -18017.23, 0.00, 0.00, 0.00, 0.00, 0.00, -13914.21, 0.00, 0.000, 0.000, 0.000, 14:55:47.283, 1551729347283
232, -18007.91, 0.00, 0.00, 0.00, 0.00, 0.00, -13893.75, 0.00, 0.000, 0.000, 0.000, 14:55:47.291, 1551729347291
233, -18020.78, 0.00, 0.00, 0.00, 0.00, 0.00, -13880.39, 0.00, 0.000, 0.000, 0.000, 14:55:47.292, 1551729347292
234, -18036.02, 0.00, 0.00, 0.00, 0.00, 0.00, -13912.98, 0.00, 0.000, 0.000, 0.000, 14:55:47.298, 1551729347298
235, -18019.46, 0.00, 0.00, 0.00, 0.00, 0.00, -13920.71, 0.00, 0.000, 0.000, 0.000, 14:55:47.298, 1551729347298
236, -18006.34, 0.00, 0.00, 0.00, 0.00, 0.00, -13898.63, 0.00, 0.000, 0.000, 0.000, 14:55:47.306, 1551729347306
237, -18021.88, 0.00, 0.00, 0.00, 0.00, 0.00, -13882.96, 0.00, -0.742, 0.566, -0.302, 14:55:47.307, 1551729347307
238, -18034.71, 0.00, 0.00, 0.00, 0.00, 0.00, -13905.94, 0.00, 0.000, 0.000, 0.000, 14:55:47.314, 1551729347314
239, -18023.60, 0.00, 0.00, 0.00, 0.00, 0.00, -13919.86, 0.00, 0.000, 0.000, 0.000, 14:55:47.315, 1551729347315
240, -18005.31, 0.00, 0.00, 0.00, 0.00, 0.00, -13902.05, 0.00, 0.000, 0.000, 0.000, 14:55:47.321, 1551729347321
241, -18001.85, 0.00, 0.00, 0.00, 0.00, 0.00, -13876.57, 0.00, 0.000, 0.000, 0.000, 14:55:47.322, 1551729347322
242, -18030.86, 0.00, 0.00, 0.00, 0.00, 0.00, -13904.21, 0.00, 0.000, 0.000, 0.000, 14:55:47.328, 1551729347328
243, -18023.82, 0.00, 0.00, 0.00, 0.00, 0.00, -13920.67, 0.00, 0.000, 0.000, 0.000, 14:55:47.329, 1551729347329
244, -18011.64, 0.00, 0.00, 0.00, 0.00, 0.00, -13906.96, 0.00, 0.000, 0.000, 0.000, 14:55:47.336, 1551729347336
245, -18006.25, 0.00, 0.00, 0.00, 0.00, 0.00, -13882.76, 0.00, 0.000, 0.000, 0.000, 14:55:47.337, 1551729347337
246, -18024.69, 0.00, 0.00, 0.00, 0.00, 0.00, -13895.12, 0.00, 0.000, 0.000, 0.000, 14:55:47.344, 1551729347344
247, -18027.80, 0.00, 0.00, 0.00, 0.00, 0.00, -13919.53, 0.00, -0.748, 0.560, -0.306, 14:55:47.344, 1551729347344
248, -18009.61, 0.00, 0.00, 0.00, 0.00, 0.00, -13909.87, 0.00, 0.000, 0.000, 0.000, 14:55:47.351, 1551729347351
249, -18004.02, 0.00, 0.00, 0.00, 0.00, 0.00, -13880.83, 0.00, 0.000, 0.000, 0.000, 14:55:47.358, 1551729347358
250, -18022.99, 0.00, 0.00, 0.00, 0.00, 0.00, -13883.36, 0.00, 0.000, 0.000, 0.000, 14:55:47.358, 1551729347358
251, -18033.41, 0.00, 0.00, 0.00, 0.00, 0.00, -13916.29, 0.00, 0.000, 0.000, 0.000, 14:55:47.366, 1551729347366
252, -18011.37, 0.00, 0.00, 0.00, 0.00, 0.00, -13908.69, 0.00, 0.000, 0.000, 0.000, 14:55:47.367, 1551729347367
253, -18002.07, 0.00, 0.00, 0.00, 0.00, 0.00, -13885.93, 0.00, 0.000, 0.000, 0.000, 14:55:47.374, 1551729347374
254, -18015.30, 0.00, 0.00, 0.00, 0.00, 0.00, -13881.89, 0.00, 0.000, 0.000, 0.000, 14:55:47.374, 1551729347374
255, -18027.49, 0.00, 0.00, 0.00, 0.00, 0.00, -13911.48, 0.00, 0.000, 0.000, 0.000, 14:55:47.382, 1551729347382
0, -18009.61, 0.00, 0.00, 0.00, 0.00, 0.00, -13909.42, 0.00, 0.000, 0.000, 0.000, 14:55:47.382, 1551729347382
1, -17997.15, 0.00, 0.00, 0.00, 0.00, 0.00, -13885.77, 0.00, -0.752, 0.554, -0.302, 14:55:47.389, 1551729347389
2, -18010.90, 0.00, 0.00, 0.00, 0.00, 0.00, -13872.18, 0.00, 0.000, 0.000, 0.000, 14:55:47.389, 1551729347389
3, -18031.31, 0.00, 0.00, 0.00, 0.00, 0.00, -13905.53, 0.00, 0.000, 0.000, 0.000, 14:55:47.397, 1551729347397
4, -18005.31, 0.00, 0.00, 0.00, 0.00, 0.00, -13906.29, 0.00, 0.000, 0.000, 0.000, 14:55:47.397, 1551729347397
5, -17995.52, 0.00, 0.00, 0.00, 0.00, 0.00, -13889.87, 0.00, 0.000, 0.000, 0.000, 14:55:47.404, 1551729347404
6, -17997.89, 0.00, 0.00, 0.00, 0.00, 0.00, -13870.02, 0.00, 0.000, 0.000, 0.000, 14:55:47.404, 1551729347404
7, -18019.51, 0.00, 0.00, 0.00, 0.00, 0.00, -13894.38, 0.00, 0.000, 0.000, 0.000, 14:55:47.411, 1551729347411
8, -18018.30, 0.00, 0.00, 0.00, 0.00, 0.00, -13912.71, 0.00, 0.000, 0.000, 0.000, 14:55:47.418, 1551729347418
9, -18007.91, 0.00, 0.00, 0.00, 0.00, 0.00, -13899.79, 0.00, 0.000, 0.000, 0.000, 14:55:47.419, 1551729347419
10, -18002.12, 0.00, 0.00, 0.00, 0.00, 0.00, -13875.54, 0.00, 0.000, 0.000, 0.000, 14:55:47.426, 1551729347426
11, -18029.23, 0.00, 0.00, 0.00, 0.00, 0.00, -13901.11, 0.00, -0.752, 0.560, -0.296, 14:55:47.427, 1551729347427
12, -18027.69, 0.00, 0.00, 0.00, 0.00, 0.00, -13923.77, 0.00, 0.000, 0.000, 0.000, 14:55:47.433, 1551729347433
13, -18015.42, 0.00, 0.00, 0.00, 0.00, 0.00, -13915.59, 0.00, 0.000, 0.000, 0.000, 14:55:47.434, 1551729347434
14, -18010.63, 0.00, 0.00, 0.00, 0.00, 0.00, -13892.48, 0.00, 0.000, 0.000, 0.000, 14:55:47.442, 1551729347442
15, -18040.12, 0.00, 0.00, 0.00, 0.00, 0.00, -13907.32, 0.00, 0.000, 0.000, 0.000, 14:55:47.442, 1551729347442
16, -18038.55, 0.00, 0.00, 0.00, 0.00, 0.00, -13926.05, 0.00, 0.000, 0.000, 0.000, 14:55:47.450, 1551729347450
17, -18010.61, 0.00, 0.00, 0.00, 0.00, 0.00, -13909.38, 0.00, 0.000, 0.000, 0.000, 14:55:47.450, 1551729347450
18, -18009.02, 0.00, 0.00, 0.00, 0.00, 0.00, -13884.57, 0.00, 0.000, 0.000, 0.000, 14:55:47.456, 1551729347456
19, -18021.83, 0.00, 0.00, 0.00, 0.00, 0.00, -13884.46, 0.00, 0.000, 0.000, 0.000, 14:55:47.456, 1551729347456
20, -18023.57, 0.00, 0.00, 0.00, 0.00, 0.00, -13910.67, 0.00, -0.754, 0.568, -0.302, 14:55:47.464, 1551729347464
21, -18009.04, 0.00, 0.00, 0.00, 0.00, 0.00, -13907.72, 0.00, 0.000, 0.000, 0.000, 14:55:47.465, 1551729347465
22, -18003.44, 0.00, 0.00, 0.00, 0.00, 0.00, -13885.01, 0.00, 0.000, 0.000, 0.000, 14:55:47.471, 1551729347471
23, -18012.96, 0.00, 0.00, 0.00, 0.00, 0.00, -13875.69, 0.00, 0.000, 0.000, 0.000, 14:55:47.482, 1551729347482
24, -18028.42, 0.00, 0.00, 0.00, 0.00, 0.00, -13909.45, 0.00, 0.000, 0.000, 0.000, 14:55:47.483, 1551729347483
25, -18018.90, 0.00, 0.00, 0.00, 0.00, 0.00, -13916.29, 0.00, 0.000, 0.000, 0.000, 14:55:47.486, 1551729347486
26, -18016.85, 0.00, 0.00, 0.00, 0.00, 0.00, -13897.78, 0.00, 0.000, 0.000, 0.000, 14:55:47.486, 1551729347486
27, -18014.05, 0.00, 0.00, 0.00, 0.00, 0.00, -13879.76, 0.00, 0.000, 0.000, 0.000, 14:55:47.493, 1551729347493
28, -18032.07, 0.00, 0.00, 0.00, 0.00, 0.00, -13911.28, 0.00, 0.000, 0.000, 0.000, 14:55:47.494, 1551729347494
29, -18025.14, 0.00, 0.00, 0.00, 0.00, 0.00, -13922.10, 0.00, 0.000, 0.000, 0.000, 14:55:47.501, 1551729347501
30, -18012.60, 0.00, 0.00, 0.00, 0.00, 0.00, -13899.52, 0.00, -0.756, 0.568, -0.302, 14:55:47.501, 1551729347501
31, -18014.41, 0.00, 0.00, 0.00, 0.00, 0.00, -13877.39, 0.00, 0.000, 0.000, 0.000, 14:55:47.509, 1551729347509
32, -18032.58, 0.00, 0.00, 0.00, 0.00, 0.00, -13900.15, 0.00, 0.000, 0.000, 0.000, 14:55:47.510, 1551729347510
33, -18023.04, 0.00, 0.00, 0.00, 0.00, 0.00, -13913.78, 0.00, 0.000, 0.000, 0.000, 14:55:47.517, 1551729347517
34, -18011.59, 0.00, 0.00, 0.00, 0.00, 0.00, -13899.19, 0.00, 0.000, 0.000, 0.000, 14:55:47.518, 1551729347518
35, -18008.40, 0.00, 0.00, 0.00, 0.00, 0.00, -13874.53, 0.00, 0.000, 0.000, 0.000, 14:55:47.524, 1551729347524
36, -18031.33, 0.00, 0.00, 0.00, 0.00, 0.00, -13892.35, 0.00, 0.000, 0.000, 0.000, 14:55:47.524, 1551729347524
37, -18028.16, 0.00, 0.00, 0.00, 0.00, 0.00, -13916.13, 0.00, 0.000, 0.000, 0.000, 14:55:47.531, 1551729347531
38, -18010.63, 0.00, 0.00, 0.00, 0.00, 0.00, -13904.04, 0.00, 0.000, 0.000, 0.000, 14:55:47.538, 1551729347538
39, -18009.11, 0.00, 0.00, 0.00, 0.00, 0.00, -13879.67, 0.00, 0.000, 0.000, 0.000, 14:55:47.538, 1551729347538
40, -18029.79, 0.00, 0.00, 0.00, 0.00, 0.00, -13887.05, 0.00, -0.754, 0.562, -0.304, 14:55:47.546, 1551729347546
41, -18033.77, 0.00, 0.00, 0.00, 0.00, 0.00, -13915.64, 0.00, 0.000, 0.000, 0.000, 14:55:47.547, 1551729347547
42, -18021.27, 0.00, 0.00, 0.00, 0.00, 0.00, -13909.16, 0.00, 0.000, 0.000, 0.000, 14:55:47.554, 1551729347554
43, -18011.75, 0.00, 0.00, 0.00, 0.00, 0.00, -13883.20, 0.00, 0.000, 0.000, 0.000, 14:55:47.554, 1551729347554
44, -18027.75, 0.00, 0.00, 0.00, 0.00, 0.00, -13882.76, 0.00, 0.000, 0.000, 0.000, 14:55:47.562, 1551729347562
45, -18037.61, 0.00, 0.00, 0.00, 0.00, 0.00, -13912.82, 0.00, 0.000, 0.000, 0.000, 14:55:47.562, 1551729347562
46, -18025.99, 0.00, 0.00, 0.00, 0.00, 0.00, -13913.87, 0.00, 0.000, 0.000, 0.000, 14:55:47.569, 1551729347569
47, -18018.95, 0.00, 0.00, 0.00, 0.00, 0.00, -13895.27, 0.00, 0.000, 0.000, 0.000, 14:55:47.569, 1551729347569
48, -18022.46, 0.00, 0.00, 0.00, 0.00, 0.00, -13879.11, 0.00, 0.000, 0.000, 0.000, 14:55:47.576, 1551729347576
49, -18042.28, 0.00, 0.00, 0.00, 0.00, 0.00, -13912.78, 0.00, 0.000, 0.000, 0.000, 14:55:47.577, 1551729347577
50, -18029.86, 0.00, 0.00, 0.00, 0.00, 0.00, -13917.56, 0.00, -0.754, 0.560, -0.306, 14:55:47.585, 1551729347585
51, -18022.35, 0.00, 0.00, 0.00, 0.00, 0.00, -13895.34, 0.00, 0.000, 0.000, 0.000, 14:55:47.585, 1551729347585
52, -18024.80, 0.00, 0.00, 0.00, 0.00, 0.00, -13870.42, 0.00, 0.000, 0.000, 0.000, 14:55:47.592, 1551729347592
53, -18046.06, 0.00, 0.00, 0.00, 0.00, 0.00, -13891.70, 0.00, 0.000, 0.000, 0.000, 14:55:47.593, 1551729347593
54, -18033.90, 0.00, 0.00, 0.00, 0.00, 0.00, -13899.61, 0.00, 0.000, 0.000, 0.000, 14:55:47.598, 1551729347598
55, -18022.61, 0.00, 0.00, 0.00, 0.00, 0.00, -13884.32, 0.00, 0.000, 0.000, 0.000, 14:55:47.606, 1551729347606
56, -18022.26, 0.00, 0.00, 0.00, 0.00, 0.00, -13866.06, 0.00, 0.000, 0.000, 0.000, 14:55:47.606, 1551729347606
57, -18041.79, 0.00, 0.00, 0.00, 0.00, 0.00, -13894.04, 0.00, 0.000, 0.000, 0.000, 14:55:47.615, 1551729347615
58, -18039.78, 0.00, 0.00, 0.00, 0.00, 0.00, -13918.12, 0.00, 0.000, 0.000, 0.000, 14:55:47.615, 1551729347615
59, -18024.09, 0.00, 0.00, 0.00, 0.00, 0.00, -13904.01, 0.00, 0.000, 0.000, 0.000, 14:55:47.622, 1551729347622
60, -18019.73, 0.00, 0.00, 0.00, 0.00, 0.00, -13880.92, 0.00, -0.754, 0.556, -0.308, 14:55:47.623, 1551729347623
61, -18045.23, 0.00, 0.00, 0.00, 0.00, 0.00, -13901.53, 0.00, 0.000, 0.000, 0.000, 14:55:47.629, 1551729347629
62, -18041.52, 0.00, 0.00, 0.00, 0.00, 0.00, -13924.69, 0.00, 0.000, 0.000, 0.000, 14:55:47.629, 1551729347629
63, -18025.79, 0.00, 0.00, 0.00, 0.00, 0.00, -13917.34, 0.00, 0.000, 0.000, 0.000, 14:55:47.637, 1551729347637
64, -18022.01, 0.00, 0.00, 0.00, 0.00, 0.00, -13892.41, 0.00, 0.000, 0.000, 0.000, 14:55:47.637, 1551729347637
65, -18039.71, 0.00, 0.00, 0.00, 0.00, 0.00, -13895.63, 0.00, 0.000, 0.000, 0.000, 14:55:47.644, 1551729347644
66, -18042.48, 0.00, 0.00, 0.00, 0.00, 0.00, -13921.05, 0.00, 0.000, 0.000, 0.000, 14:55:47.644, 1551729347644
67, -18023.04, 0.00, 0.00, 0.00, 0.00, 0.00, -13913.89, 0.00, 0.000, 0.000, 0.000, 14:55:47.652, 1551729347652
68, -18020.67, 0.00, 0.00, 0.00, 0.00, 0.00, -13889.87, 0.00, 0.000, 0.000, 0.000, 14:55:47.652, 1551729347652
69, -18030.19, 0.00, 0.00, 0.00, 0.00, 0.00, -13884.05, 0.00, 0.000, 0.000, 0.000, 14:55:47.659, 1551729347659
70, -18044.50, 0.00, 0.00, 0.00, 0.00, 0.00, -13920.96, 0.00, -0.752, 0.558, -0.308, 14:55:47.666, 1551729347666
71, -18034.10, 0.00, 0.00, 0.00, 0.00, 0.00, -13927.04, 0.00, 0.000, 0.000, 0.000, 14:55:47.667, 1551729347667
72, -18026.03, 0.00, 0.00, 0.00, 0.00, 0.00, -13905.06, 0.00, 0.000, 0.000, 0.000, 14:55:47.674, 1551729347674
73, -18035.44, 0.00, 0.00, 0.00, 0.00, 0.00, -13891.83, 0.00, 0.000, 0.000, 0.000, 14:55:47.674, 1551729347674
74, -18051.04, 0.00, 0.00, 0.00, 0.00, 0.00, -13921.81, 0.00, 0.000, 0.000, 0.000, 14:55:47.682, 1551729347682
75, -18036.45, 0.00, 0.00, 0.00, 0.00, 0.00, -13929.76, 0.00, 0.000, 0.000, 0.000, 14:55:47.682, 1551729347682
76, -18026.28, 0.00, 0.00, 0.00, 0.00, 0.00, -13910.32, 0.00, 0.000, 0.000, 0.000, 14:55:47.689, 1551729347689
77, -18026.64, 0.00, 0.00, 0.00, 0.00, 0.00, -13885.26, 0.00, 0.000, 0.000, 0.000, 14:55:47.691, 1551729347691
78, -18047.92, 0.00, 0.00, 0.00, 0.00, 0.00, -13911.08, 0.00, 0.000, 0.000, 0.000, 14:55:47.697, 1551729347697
79, -18041.75, 0.00, 0.00, 0.00, 0.00, 0.00, -13925.78, 0.00, 0.000, 0.000, 0.000, 14:55:47.698, 1551729347698
80, -18028.07, 0.00, 0.00, 0.00, 0.00, 0.00, -13911.57, 0.00, -0.750, 0.562, -0.310, 14:55:47.704, 1551729347704
81, -18022.28, 0.00, 0.00, 0.00, 0.00, 0.00, -13886.29, 0.00, 0.000, 0.000, 0.000, 14:55:47.704, 1551729347704
82, -18046.04, 0.00, 0.00, 0.00, 0.00, 0.00, -13907.28, 0.00, 0.000, 0.000, 0.000, 14:55:47.712, 1551729347712
83, -18033.77, 0.00, 0.00, 0.00, 0.00, 0.00, -13921.65, 0.00, 0.000, 0.000, 0.000, 14:55:47.713, 1551729347713
84, -18019.73, 0.00, 0.00, 0.00, 0.00, 0.00, -13907.05, 0.00, 0.000, 0.000, 0.000, 14:55:47.719, 1551729347719
85, -18019.33, 0.00, 0.00, 0.00, 0.00, 0.00, -13886.36, 0.00, 0.000, 0.000, 0.000, 14:55:47.727, 1551729347727
86, -18039.40, 0.00, 0.00, 0.00, 0.00, 0.00, -13897.17, 0.00, 0.000, 0.000, 0.000, 14:55:47.727, 1551729347727
87, -18038.35, 0.00, 0.00, 0.00, 0.00, 0.00, -13921.52, 0.00, 0.000, 0.000, 0.000, 14:55:47.734, 1551729347734
88, -18024.98, 0.00, 0.00, 0.00, 0.00, 0.00, -13914.45, 0.00, 0.000, 0.000, 0.000, 14:55:47.735, 1551729347735
89, -18014.21, 0.00, 0.00, 0.00, 0.00, 0.00, -13884.17, 0.00, -0.746, 0.564, -0.306, 14:55:47.741, 1551729347741
90, -18026.88, 0.00, 0.00, 0.00, 0.00, 0.00, -13886.83, 0.00, 0.000, 0.000, 0.000, 14:55:47.742, 1551729347742
91, -18039.40, 0.00, 0.00, 0.00, 0.00, 0.00, -13917.56, 0.00, 0.000, 0.000, 0.000, 14:55:47.750, 1551729347750
92, -18024.71, 0.00, 0.00, 0.00, 0.00, 0.00, -13910.07, 0.00, 0.000, 0.000, 0.000, 14:55:47.751, 1551729347751
93, -18020.91, 0.00, 0.00, 0.00, 0.00, 0.00, -13885.44, 0.00, 0.000, 0.000, 0.000, 14:55:47.757, 1551729347757
94, -18032.20, 0.00, 0.00, 0.00, 0.00, 0.00, -13874.78, 0.00, 0.000, 0.000, 0.000, 14:55:47.757, 1551729347757
95, -18040.70, 0.00, 0.00, 0.00, 0.00, 0.00, -13904.15, 0.00, 0.000, 0.000, 0.000, 14:55:47.764, 1551729347764
96, -18022.57, 0.00, 0.00, 0.00, 0.00, 0.00, -13904.77, 0.00, 0.000, 0.000, 0.000, 14:55:47.764, 1551729347764
97, -18010.54, 0.00, 0.00, 0.00, 0.00, 0.00, -13882.98, 0.00, 0.000, 0.000, 0.000, 14:55:47.772, 1551729347772
98, -18032.98, 0.00, 0.00, 0.00, 0.00, 0.00, -13873.71, 0.00, 0.000, 0.000, 0.000, 14:55:47.772, 1551729347772
99, -18051.89, 0.00, 0.00, 0.00, 0.00, 0.00, -13907.10, 0.00, -0.748, 0.560, -0.302, 14:55:47.779, 1551729347779
100, -18026.03, 0.00, 0.00, 0.00, 0.00, 0.00, -13910.61, 0.00, 0.000, 0.000, 0.000, 14:55:47.786, 1551729347786
101, -18019.01, 0.00, 0.00, 0.00, 0.00, 0.00, -13893.08, 0.00, 0.000, 0.000, 0.000, 14:55:47.786, 1551729347786
102, -18021.61, 0.00, 0.00, 0.00, 0.00, 0.00, -13872.21, 0.00, 0.000, 0.000, 0.000, 14:55:47.794, 1551729347794
103, -18043.89, 0.00, 0.00, 0.00, 0.00, 0.00, -13897.40, 0.00, 0.000, 0.000, 0.000, 14:55:47.794, 1551729347794
104, -18034.82, 0.00, 0.00, 0.00, 0.00, 0.00, -13913.20, 0.00, 0.000, 0.000, 0.000, 14:55:47.802, 1551729347802
105, -18026.90, 0.00, 0.00, 0.00, 0.00, 0.00, -13902.16, 0.00, 0.000, 0.000, 0.000, 14:55:47.802, 1551729347802
106, -18023.20, 0.00, 0.00, 0.00, 0.00, 0.00, -13875.45, 0.00, 0.000, 0.000, 0.000, 14:55:47.809, 1551729347809
107, -18040.52, 0.00, 0.00, 0.00, 0.00, 0.00, -13894.20, 0.00, 0.000, 0.000, 0.000, 14:55:47.809, 1551729347809
108, -18034.48, 0.00, 0.00, 0.00, 0.00, 0.00, -13915.95, 0.00, 0.000, 0.000, 0.000, 14:55:47.817, 1551729347817
109, -18025.07, 0.00, 0.00, 0.00, 0.00, 0.00, -13906.74, 0.00, -0.748, 0.560, -0.304, 14:55:47.818, 1551729347818
110, -18017.21, 0.00, 0.00, 0.00, 0.00, 0.00, -13880.10, 0.00, 0.000, 0.000, 0.000, 14:55:47.824, 1551729347824
111, -18035.06, 0.00, 0.00, 0.00, 0.00, 0.00, -13888.90, 0.00, 0.000, 0.000, 0.000, 14:55:47.825, 1551729347825
112, -18043.49, 0.00, 0.00, 0.00, 0.00, 0.00, -13919.26, 0.00, 0.000, 0.000, 0.000, 14:55:47.832, 1551729347832
113, -18027.33, 0.00, 0.00, 0.00, 0.00, 0.00, -13911.64, 0.00, 0.000, 0.000, 0.000, 14:55:47.832, 1551729347832
114, -18014.77, 0.00, 0.00, 0.00, 0.00, 0.00, -13882.33, 0.00, 0.000, 0.000, 0.000, 14:55:47.839, 1551729347839
115, -18034.33, 0.00, 0.00, 0.00, 0.00, 0.00, -13882.09, 0.00, 0.000, 0.000, 0.000, 14:55:47.839, 1551729347839
116, -18041.63, 0.00, 0.00, 0.00, 0.00, 0.00, -13910.07, 0.00, 0.000, 0.000, 0.000, 14:55:47.846, 1551729347846
117, -18025.47, 0.00, 0.00, 0.00, 0.00, 0.00, -13904.51, 0.00, 0.000, 0.000, 0.000, 14:55:47.855, 1551729347855
118, -18018.70, 0.00, 0.00, 0.00, 0.00, 0.00, -13884.59, 0.00, 0.000, 0.000, 0.000, 14:55:47.855, 1551729347855
119, -18024.36, 0.00, 0.00, 0.00, 0.00, 0.00, -13871.98, 0.00, -0.752, 0.562, -0.304, 14:55:47.862, 1551729347862
120, -18036.54, 0.00, 0.00, 0.00, 0.00, 0.00, -13899.03, 0.00, 0.000, 0.000, 0.000, 14:55:47.862, 1551729347862
121, -18025.94, 0.00, 0.00, 0.00, 0.00, 0.00, -13903.50, 0.00, 0.000, 0.000, 0.000, 14:55:47.869, 1551729347869
122, -18008.31, 0.00, 0.00, 0.00, 0.00, 0.00, -13880.39, 0.00, 0.000, 0.000, 0.000, 14:55:47.869, 1551729347869
123, -18016.13, 0.00, 0.00, 0.00, 0.00, 0.00, -13867.89, 0.00, 0.000, 0.000, 0.000, 14:55:47.877, 1551729347877
124, -18035.98, 0.00, 0.00, 0.00, 0.00, 0.00, -13896.28, 0.00, 0.000, 0.000, 0.000, 14:55:47.877, 1551729347877
125, -18029.97, 0.00, 0.00, 0.00, 0.00, 0.00, -13905.15, 0.00, 0.000, 0.000, 0.000, 14:55:47.885, 1551729347885
126, -18009.11, 0.00, 0.00, 0.00, 0.00, 0.00, -13883.16, 0.00, 0.000, 0.000, 0.000, 14:55:47.886, 1551729347886
127, -18005.00, 0.00, 0.00, 0.00, 0.00, 0.00, -13860.14, 0.00, 0.000, 0.000, 0.000, 14:55:47.892, 1551729347892
128, -18030.06, 0.00, 0.00, 0.00, 0.00, 0.00, -13886.60, 0.00, 0.000, 0.000, 0.000, 14:55:47.892, 1551729347892
129, -18024.83, 0.00, 0.00, 0.00, 0.00, 0.00, -13905.62, 0.00, -0.754, 0.562, -0.312, 14:55:47.899, 1551729347899
130, -18013.65, 0.00, 0.00, 0.00, 0.00, 0.00, -13892.84, 0.00, 0.000, 0.000, 0.000, 14:55:47.899, 1551729347899
131, -18007.44, 0.00, 0.00, 0.00, 0.00, 0.00, -13864.14, 0.00, 0.000, 0.000, 0.000, 14:55:47.906, 1551729347906
132, -18027.17, 0.00, 0.00, 0.00, 0.00, 0.00, -13879.85, 0.00, 0.000, 0.000, 0.000, 14:55:47.915, 1551729347915
133, -18024.58, 0.00, 0.00, 0.00, 0.00, 0.00, -13905.18, 0.00, 0.000, 0.000, 0.000, 14:55:47.915, 1551729347915
134, -18015.26, 0.00, 0.00, 0.00, 0.00, 0.00, -13900.26, 0.00, 0.000, 0.000, 0.000, 14:55:47.921, 1551729347921
135, -18008.84, 0.00, 0.00, 0.00, 0.00, 0.00, -13874.38, 0.00, 0.000, 0.000, 0.000, 14:55:47.921, 1551729347921
136, -18034.44, 0.00, 0.00, 0.00, 0.00, 0.00, -13885.84, 0.00, 0.000, 0.000, 0.000, 14:55:47.929, 1551729347929
137, -18033.92, 0.00, 0.00, 0.00, 0.00, 0.00, -13911.57, 0.00, 0.000, 0.000, 0.000, 14:55:47.929, 1551729347929
138, -18017.52, 0.00, 0.00, 0.00, 0.00, 0.00, -13901.33, 0.00, 0.000, 0.000, 0.000, 14:55:47.938, 1551729347938
139, -18013.29, 0.00, 0.00, 0.00, 0.00, 0.00, -13877.84, 0.00, -0.756, 0.558, -0.312, 14:55:47.938, 1551729347938
140, -18028.38, 0.00, 0.00, 0.00, 0.00, 0.00, -13875.02, 0.00, 0.000, 0.000, 0.000, 14:55:47.944, 1551729347944
141, -18042.64, 0.00, 0.00, 0.00, 0.00, 0.00, -13907.75, 0.00, 0.000, 0.000, 0.000, 14:55:47.944, 1551729347944
142, -18025.99, 0.00, 0.00, 0.00, 0.00, 0.00, -13905.85, 0.00, 0.000, 0.000, 0.000, 14:55:47.953, 1551729347953
143, -18021.00, 0.00, 0.00, 0.00, 0.00, 0.00, -13880.97, 0.00, 0.000, 0.000, 0.000, 14:55:47.953, 1551729347953
144, -18024.80, 0.00, 0.00, 0.00, 0.00, 0.00, -13871.47, 0.00, 0.000, 0.000, 0.000, 14:55:47.960, 1551729347960
145, -18044.25, 0.00, 0.00, 0.00, 0.00, 0.00, -13906.07, 0.00, 0.000, 0.000, 0.000, 14:55:47.960, 1551729347960
146, -18029.77, 0.00, 0.00, 0.00, 0.00, 0.00, -13911.19, 0.00, 0.000, 0.000, 0.000, 14:55:47.966, 1551729347966
147, -18021.14, 0.00, 0.00, 0.00, 0.00, 0.00, -13895.32, 0.00, 0.000, 0.000, 0.000, 14:55:47.974, 1551729347974
148, -18026.48, 0.00, 0.00, 0.00, 0.00, 0.00, -13881.75, 0.00, -0.750, 0.558, -0.310, 14:55:47.974, 1551729347974
149, -18048.12, 0.00, 0.00, 0.00, 0.00, 0.00, -13910.52, 0.00, 0.000, 0.000, 0.000, 14:55:47.982, 1551729347982
150, -18036.90, 0.00, 0.00, 0.00, 0.00, 0.00, -13921.14, 0.00, 0.000, 0.000, 0.000, 14:55:47.982, 1551729347982
151, -18022.93, 0.00, 0.00, 0.00, 0.00, 0.00, -13901.15, 0.00, 0.000, 0.000, 0.000, 14:55:47.994, 1551729347994
152, -18022.70, 0.00, 0.00, 0.00, 0.00, 0.00, -13878.76, 0.00, 0.000, 0.000, 0.000, 14:55:47.994, 1551729347994
153, -18047.42, 0.00, 0.00, 0.00, 0.00, 0.00, -13900.13, 0.00, 0.000, 0.000, 0.000, 14:55:47.997, 1551729347997
154, -18047.67, 0.00, 0.00, 0.00, 0.00, 0.00, -13922.57, 0.00, 0.000, 0.000, 0.000, 14:55:47.997, 1551729347997
155, -18034.19, 0.00, 0.00, 0.00, 0.00, 0.00, -13909.58, 0.00, 0.000, 0.000, 0.000, 14:55:48.004, 1551729348004
156, -18030.79, 0.00, 0.00, 0.00, 0.00, 0.00, -13885.77, 0.00, 0.000, 0.000, 0.000, 14:55:48.004, 1551729348004
157, -18055.52, 0.00, 0.00, 0.00, 0.00, 0.00, -13902.23, 0.00, 0.000, 0.000, 0.000, 14:55:48.012, 1551729348012
158, -18057.79, 0.00, 0.00, 0.00, 0.00, 0.00, -13930.61, 0.00, -0.748, 0.570, -0.310, 14:55:48.012, 1551729348012
159, -18039.98, 0.00, 0.00, 0.00, 0.00, 0.00, -13917.85, 0.00, 0.000, 0.000, 0.000, 14:55:48.020, 1551729348020
160, -18033.03, 0.00, 0.00, 0.00, 0.00, 0.00, -13891.52, 0.00, 0.000, 0.000, 0.000, 14:55:48.020, 1551729348020
161, -18047.67, 0.00, 0.00, 0.00, 0.00, 0.00, -13891.97, 0.00, 0.000, 0.000, 0.000, 14:55:48.027, 1551729348027
162, -18049.59, 0.00, 0.00, 0.00, 0.00, 0.00, -13925.25, 0.00, 0.000, 0.000, 0.000, 14:55:48.034, 1551729348034
163, -18039.09, 0.00, 0.00, 0.00, 0.00, 0.00, -13925.72, 0.00, 0.000, 0.000, 0.000, 14:55:48.035, 1551729348035
164, -18026.53, 0.00, 0.00, 0.00, 0.00, 0.00, -13898.74, 0.00, 0.000, 0.000, 0.000, 14:55:48.042, 1551729348042
165, -18034.97, 0.00, 0.00, 0.00, 0.00, 0.00, -13890.51, 0.00, 0.000, 0.000, 0.000, 14:55:48.042, 1551729348042
166, -18052.07, 0.00, 0.00, 0.00, 0.00, 0.00, -13922.70, 0.00, 0.000, 0.000, 0.000, 14:55:48.051, 1551729348051
167, -18037.83, 0.00, 0.00, 0.00, 0.00, 0.00, -13923.93, 0.00, 0.000, 0.000, 0.000, 14:55:48.051, 1551729348051
168, -18021.14, 0.00, 0.00, 0.00, 0.00, 0.00, -13897.62, 0.00, -0.746, 0.570, -0.306, 14:55:48.059, 1551729348059
169, -18028.04, 0.00, 0.00, 0.00, 0.00, 0.00, -13882.82, 0.00, 0.000, 0.000, 0.000, 14:55:48.060, 1551729348060
170, -18052.25, 0.00, 0.00, 0.00, 0.00, 0.00, -13917.78, 0.00, 0.000, 0.000, 0.000, 14:55:48.065, 1551729348065
171, -18039.82, 0.00, 0.00, 0.00, 0.00, 0.00, -13928.02, 0.00, 0.000, 0.000, 0.000, 14:55:48.065, 1551729348065
172, -18028.54, 0.00, 0.00, 0.00, 0.00, 0.00, -13909.49, 0.00, 0.000, 0.000, 0.000, 14:55:48.073, 1551729348073
173, -18033.68, 0.00, 0.00, 0.00, 0.00, 0.00, -13887.99, 0.00, 0.000, 0.000, 0.000, 14:55:48.073, 1551729348073
174, -18052.25, 0.00, 0.00, 0.00, 0.00, 0.00, -13912.49, 0.00, 0.000, 0.000, 0.000, 14:55:48.079, 1551729348079
175, -18029.72, 0.00, 0.00, 0.00, 0.00, 0.00, -13919.26, 0.00, 0.000, 0.000, 0.000, 14:55:48.080, 1551729348080
176, -18017.83, 0.00, 0.00, 0.00, 0.00, 0.00, -13899.30, 0.00, 0.000, 0.000, 0.000, 14:55:48.086, 1551729348086
177, -18019.21, 0.00, 0.00, 0.00, 0.00, 0.00, -13876.30, 0.00, 0.000, 0.000, 0.000, 14:55:48.086, 1551729348086
178, -18043.18, 0.00, 0.00, 0.00, 0.00, 0.00, -13894.65, 0.00, -0.750, 0.570, -0.306, 14:55:48.095, 1551729348095
179, -18039.36, 0.00, 0.00, 0.00, 0.00, 0.00, -13916.78, 0.00, 0.000, 0.000, 0.000, 14:55:48.103, 1551729348103
180, -18025.61, 0.00, 0.00, 0.00, 0.00, 0.00, -13905.98, 0.00, 0.000, 0.000, 0.000, 14:55:48.103, 1551729348103
181, -18018.86, 0.00, 0.00, 0.00, 0.00, 0.00, -13880.72, 0.00, 0.000, 0.000, 0.000, 14:55:48.109, 1551729348109
182, -18037.01, 0.00, 0.00, 0.00, 0.00, 0.00, -13890.13, 0.00, 0.000, 0.000, 0.000, 14:55:48.109, 1551729348109
183, -18040.20, 0.00, 0.00, 0.00, 0.00, 0.00, -13917.25, 0.00, 0.000, 0.000, 0.000, 14:55:48.117, 1551729348117
184, -18025.52, 0.00, 0.00, 0.00, 0.00, 0.00, -13910.74, 0.00, 0.000, 0.000, 0.000, 14:55:48.117, 1551729348117
185, -18018.59, 0.00, 0.00, 0.00, 0.00, 0.00, -13887.21, 0.00, 0.000, 0.000, 0.000, 14:55:48.125, 1551729348125
186, -18035.96, 0.00, 0.00, 0.00, 0.00, 0.00, -13888.05, 0.00, 0.000, 0.000, 0.000, 14:55:48.125, 1551729348125
187, -18040.18, 0.00, 0.00, 0.00, 0.00, 0.00, -13918.92, 0.00, 0.000, 0.000, 0.000, 14:55:48.133, 1551729348133
188, -18023.08, 0.00, 0.00, 0.00, 0.00, 0.00, -13914.16, 0.00, -0.746, 0.566, -0.304, 14:55:48.133, 1551729348133
189, -18024.07, 0.00, 0.00, 0.00, 0.00, 0.00, -13894.40, 0.00, 0.000, 0.000, 0.000, 14:55:48.139, 1551729348139
190, -18034.13, 0.00, 0.00, 0.00, 0.00, 0.00, -13881.04, 0.00, 0.000, 0.000, 0.000, 14:55:48.139, 1551729348139
191, -18044.12, 0.00, 0.00, 0.00, 0.00, 0.00, -13906.96, 0.00, 0.000, 0.000, 0.000, 14:55:48.147, 1551729348147
192, -18032.36, 0.00, 0.00, 0.00, 0.00, 0.00, -13908.66, 0.00, 0.000, 0.000, 0.000, 14:55:48.147, 1551729348147
193, -18021.43, 0.00, 0.00, 0.00, 0.00, 0.00, -13890.27, 0.00, 0.000, 0.000, 0.000, 14:55:48.154, 1551729348154
194, -18025.29, 0.00, 0.00, 0.00, 0.00, 0.00, -13875.11, 0.00, 0.000, 0.000, 0.000, 14:55:48.163, 1551729348163
195, -18049.97, 0.00, 0.00, 0.00, 0.00, 0.00, -13908.26, 0.00, 0.000, 0.000, 0.000, 14:55:48.163, 1551729348163
196, -18039.67, 0.00, 0.00, 0.00, 0.00, 0.00, -13922.59, 0.00, 0.000, 0.000, 0.000, 14:55:48.169, 1551729348169
197, -18028.34, 0.00, 0.00, 0.00, 0.00, 0.00, -13904.77, 0.00, 0.000, 0.000, 0.000, 14:55:48.170, 1551729348170
198, -18029.10, 0.00, 0.00, 0.00, 0.00, 0.00, -13882.69, 0.00, -0.746, 0.562, -0.300, 14:55:48.177, 1551729348177
199, -18054.40, 0.00, 0.00, 0.00, 0.00, 0.00, -13910.03, 0.00, 0.000, 0.000, 0.000, 14:55:48.177, 1551729348177
200, -18044.12, 0.00, 0.00, 0.00, 0.00, 0.00, -13921.85, 0.00, 0.000, 0.000, 0.000, 14:55:48.185, 1551729348185
201, -18023.13, 0.00, 0.00, 0.00, 0.00, 0.00, -13900.64, 0.00, 0.000, 0.000, 0.000, 14:55:48.186, 1551729348186
202, -18020.69, 0.00, 0.00, 0.00, 0.00, 0.00, -13873.97, 0.00, 0.000, 0.000, 0.000, 14:55:48.191, 1551729348191
203, -18044.41, 0.00, 0.00, 0.00, 0.00, 0.00, -13892.55, 0.00, 0.000, 0.000, 0.000, 14:55:48.192, 1551729348192
204, -18036.00, 0.00, 0.00, 0.00, 0.00, 0.00, -13916.37, 0.00, 0.000, 0.000, 0.000, 14:55:48.201, 1551729348201
205, -18023.96, 0.00, 0.00, 0.00, 0.00, 0.00, -13908.44, 0.00, 0.000, 0.000, 0.000, 14:55:48.201, 1551729348201
206, -18020.51, 0.00, 0.00, 0.00, 0.00, 0.00, -13887.67, 0.00, 0.000, 0.000, 0.000, 14:55:48.208, 1551729348208
207, -18039.36, 0.00, 0.00, 0.00, 0.00, 0.00, -13897.33, 0.00, 0.000, 0.000, 0.000, 14:55:48.208, 1551729348208
208, -18051.76, 0.00, 0.00, 0.00, 0.00, 0.00, -13932.80, 0.00, -0.748, 0.566, -0.304, 14:55:48.215, 1551729348215
209, -18042.08, 0.00, 0.00, 0.00, 0.00, 0.00, -13929.54, 0.00, 0.000, 0.000, 0.000, 14:55:48.221, 1551729348221
210, -18027.73, 0.00, 0.00, 0.00, 0.00, 0.00, -13899.99, 0.00, 0.000, 0.000, 0.000, 14:55:48.221, 1551729348221
211, -18047.40, 0.00, 0.00, 0.00, 0.00, 0.00, -13900.04, 0.00, 0.000, 0.000, 0.000, 14:55:48.230, 1551729348230
212, -18058.96, 0.00, 0.00, 0.00, 0.00, 0.00, -13927.91, 0.00, 0.000, 0.000, 0.000, 14:55:48.230, 1551729348230
213, -18035.00, 0.00, 0.00, 0.00, 0.00, 0.00, -13915.21, 0.00, 0.000, 0.000, 0.000, 14:55:48.238, 1551729348238
214, -18034.68, 0.00, 0.00, 0.00, 0.00, 0.00, -13900.75, 0.00, 0.000, 0.000, 0.000, 14:55:48.238, 1551729348238
215, -18040.07, 0.00, 0.00, 0.00, 0.00, 0.00, -13887.05, 0.00, 0.000, 0.000, 0.000, 14:55:48.244, 1551729348244
216, -18058.42, 0.00, 0.00, 0.00, 0.00, 0.00, -13917.51, 0.00, 0.000, 0.000, 0.000, 14:55:48.244, 1551729348244
217, -18046.22, 0.00, 0.00, 0.00, 0.00, 0.00, -13927.97, 0.00, -0.754, 0.564, -0.306, 14:55:48.252, 1551729348252
218, -18037.39, 0.00, 0.00, 0.00, 0.00, 0.00, -13912.28, 0.00, 0.000, 0.000, 0.000, 14:55:48.252, 1551729348252
219, -18040.92, 0.00, 0.00, 0.00, 0.00, 0.00, -13896.15, 0.00, 0.000, 0.000, 0.000, 14:55:48.260, 1551729348260
220, -18062.53, 0.00, 0.00, 0.00, 0.00, 0.00, -13926.52, 0.00, 0.000, 0.000, 0.000, 14:55:48.260, 1551729348260
221, -18061.75, 0.00, 0.00, 0.00, 0.00, 0.00, -13941.54, 0.00, 0.000, 0.000, 0.000, 14:55:48.269, 1551729348269
222, -18047.96, 0.00, 0.00, 0.00, 0.00, 0.00, -13920.93, 0.00, 0.000, 0.000, 0.000, 14:55:48.269, 1551729348269
223, -18030.53, 0.00, 0.00, 0.00, 0.00, 0.00, -13892.66, 0.00, 0.000, 0.000, 0.000, 14:55:48.274, 1551729348274
224, -18052.97, 0.00, 0.00, 0.00, 0.00, 0.00, -13913.87, 0.00, 0.000, 0.000, 0.000, 14:55:48.281, 1551729348281
225, -18047.65, 0.00, 0.00, 0.00, 0.00, 0.00, -13930.25, 0.00, 0.000, 0.000, 0.000, 14:55:48.282, 1551729348282
226, -18050.84, 0.00, 0.00, 0.00, 0.00, 0.00, -13923.77, 0.00, 0.000, 0.000, 0.000, 14:55:48.289, 1551729348289
227, -18036.99, 0.00, 0.00, 0.00, 0.00, 0.00, -13892.97, 0.00, -0.750, 0.564, -0.308, 14:55:48.290, 1551729348290
228, -18051.02, 0.00, 0.00, 0.00, 0.00, 0.00, -13905.82, 0.00, 0.000, 0.000, 0.000, 14:55:48.304, 1551729348304
229, -18046.42, 0.00, 0.00, 0.00, 0.00, 0.00, -13929.38, 0.00, 0.000, 0.000, 0.000, 14:55:48.304, 1551729348304
230, -18034.04, 0.00, 0.00, 0.00, 0.00, 0.00, -13918.90, 0.00, 0.000, 0.000, 0.000, 14:55:48.305, 1551729348305
231, -18032.36, 0.00, 0.00, 0.00, 0.00, 0.00, -13897.96, 0.00, 0.000, 0.000, 0.000, 14:55:48.305, 1551729348305
232, -18042.60, 0.00, 0.00, 0.00, 0.00, 0.00, -13899.21, 0.00, 0.000, 0.000, 0.000, 14:55:48.312, 1551729348312
233, -18056.61, 0.00, 0.00, 0.00, 0.00, 0.00, -13930.86, 0.00, 0.000, 0.000, 0.000, 14:55:48.313, 1551729348313
234, -18041.99, 0.00, 0.00, 0.00, 0.00, 0.00, -13925.34, 0.00, 0.000, 0.000, 0.000, 14:55:48.320, 1551729348320
235, -18020.78, 0.00, 0.00, 0.00, 0.00, 0.00, -13897.20, 0.00, 0.000, 0.000, 0.000, 14:55:48.320, 1551729348320
236, -18032.78, 0.00, 0.00, 0.00, 0.00, 0.00, -13890.56, 0.00, 0.000, 0.000, 0.000, 14:55:48.327, 1551729348327
237, -18053.99, 0.00, 0.00, 0.00, 0.00, 0.00, -13926.46, 0.00, -0.754, 0.556, -0.310, 14:55:48.327, 1551729348327
238, -18034.15, 0.00, 0.00, 0.00, 0.00, 0.00, -13924.22, 0.00, 0.000, 0.000, 0.000, 14:55:48.334, 1551729348334
239, -18027.15, 0.00, 0.00, 0.00, 0.00, 0.00, -13905.58, 0.00, 0.000, 0.000, 0.000, 14:55:48.335, 1551729348335
240, -18036.47, 0.00, 0.00, 0.00, 0.00, 0.00, -13893.78, 0.00, 0.000, 0.000, 0.000, 14:55:48.342, 1551729348342
241, -18054.78, 0.00, 0.00, 0.00, 0.00, 0.00, -13919.26, 0.00, 0.000, 0.000, 0.000, 14:55:48.351, 1551729348351
242, -18045.41, 0.00, 0.00, 0.00, 0.00, 0.00, -13926.30, 0.00, 0.000, 0.000, 0.000, 14:55:48.351, 1551729348351
243, -18037.79, 0.00, 0.00, 0.00, 0.00, 0.00, -13912.66, 0.00, 0.000, 0.000, 0.000, 14:55:48.356, 1551729348356
244, -18032.52, 0.00, 0.00, 0.00, 0.00, 0.00, -13891.23, 0.00, 0.000, 0.000, 0.000, 14:55:48.357, 1551729348357
245, -18061.37, 0.00, 0.00, 0.00, 0.00, 0.00, -13921.27, 0.00, 0.000, 0.000, 0.000, 14:55:48.365, 1551729348365
246, -18046.78, 0.00, 0.00, 0.00, 0.00, 0.00, -13931.77, 0.00, 0.000, 0.000, 0.000, 14:55:48.365, 1551729348365
247, -18038.17, 0.00, 0.00, 0.00, 0.00, 0.00, -13919.82, 0.00, -0.756, 0.562, -0.306, 14:55:48.372, 1551729348372
248, -18032.43, 0.00, 0.00, 0.00, 0.00, 0.00, -13896.28, 0.00, 0.000, 0.000, 0.000, 14:55:48.373, 1551729348373
249, -18047.02, 0.00, 0.00, 0.00, 0.00, 0.00, -13912.19, 0.00, 0.000, 0.000, 0.000, 14:55:48.380, 1551729348380
250, -18042.33, 0.00, 0.00, 0.00, 0.00, 0.00, -13929.38, 0.00, 0.000, 0.000, 0.000, 14:55:48.380, 1551729348380
251, -18027.51, 0.00, 0.00, 0.00, 0.00, 0.00, -13913.38, 0.00, 0.000, 0.000, 0.000, 14:55:48.387, 1551729348387
252, -18027.38, 0.00, 0.00, 0.00, 0.00, 0.00, -13889.15, 0.00, 0.000, 0.000, 0.000, 14:55:48.388, 1551729348388
253, -18046.42, 0.00, 0.00, 0.00, 0.00, 0.00, -13897.24, 0.00, 0.000, 0.000, 0.000, 14:55:48.396, 1551729348396
254, -18051.74, 0.00, 0.00, 0.00, 0.00, 0.00, -13921.67, 0.00, 0.000, 0.000, 0.000, 14:55:48.396, 1551729348396
255, -18040.74, 0.00, 0.00, 0.00, 0.00, 0.00, -13914.34, 0.00, 0.000, 0.000, 0.000, 14:55:48.402, 1551729348402
0, -18041.90, 0.00, 0.00, 0.00, 0.00, 0.00, -13891.30, 0.00, 0.000, 0.000, 0.000, 14:55:48.409, 1551729348409
1, -18044.29, 0.00, 0.00, 0.00, 0.00, 0.00, -13888.79, 0.00, -0.756, 0.560, -0.304, 14:55:48.409, 1551729348409
2, -18053.75, 0.00, 0.00, 0.00, 0.00, 0.00, -13923.10, 0.00, 0.000, 0.000, 0.000, 14:55:48.417, 1551729348417
3, -18043.06, 0.00, 0.00, 0.00, 0.00, 0.00, -13922.34, 0.00, 0.000, 0.000, 0.000, 14:55:48.417, 1551729348417
4, -18038.75, 0.00, 0.00, 0.00, 0.00, 0.00, -13905.33, 0.00, 0.000, 0.000, 0.000, 14:55:48.425, 1551729348425
5, -18046.78, 0.00, 0.00, 0.00, 0.00, 0.00, -13895.90, 0.00, 0.000, 0.000, 0.000, 14:55:48.426, 1551729348426
6, -18060.79, 0.00, 0.00, 0.00, 0.00, 0.00, -13930.79, 0.00, 0.000, 0.000, 0.000, 14:55:48.434, 1551729348434
7, -18050.51, 0.00, 0.00, 0.00, 0.00, 0.00, -13938.21, 0.00, 0.000, 0.000, 0.000, 14:55:48.434, 1551729348434
8, -18037.72, 0.00, 0.00, 0.00, 0.00, 0.00, -13915.73, 0.00, 0.000, 0.000, 0.000, 14:55:48.439, 1551729348439
9, -18043.49, 0.00, 0.00, 0.00, 0.00, 0.00, -13898.45, 0.00, 0.000, 0.000, 0.000, 14:55:48.440, 1551729348440
10, -18066.60, 0.00, 0.00, 0.00, 0.00, 0.00, -13930.99, 0.00, 0.000, 0.000, 0.000, 14:55:48.447, 1551729348447
11, -18059.25, 0.00, 0.00, 0.00, 0.00, 0.00, -13945.34, 0.00, -0.756, 0.562, -0.306, 14:55:48.448, 1551729348448
12, -18047.49, 0.00, 0.00, 0.00, 0.00, 0.00, -13928.85, 0.00, 0.000, 0.000, 0.000, 14:55:48.456, 1551729348456
13, -18051.76, 0.00, 0.00, 0.00, 0.00, 0.00, -13913.54, 0.00, 0.000, 0.000, 0.000, 14:55:48.456, 1551729348456
14, -18074.16, 0.00, 0.00, 0.00, 0.00, 0.00, -13942.75, 0.00, 0.000, 0.000, 0.000, 14:55:48.462, 1551729348462
15, -18068.61, 0.00, 0.00, 0.00, 0.00, 0.00, -13961.17, 0.00, 0.000, 0.000, 0.000, 14:55:48.469, 1551729348469
16, -18056.01, 0.00, 0.00, 0.00, 0.00, 0.00, -13943.55, 0.00, 0.000, 0.000, 0.000, 14:55:48.469, 1551729348469
17, -18062.76, 0.00, 0.00, 0.00, 0.00, 0.00, -13918.86, 0.00, 0.000, 0.000, 0.000, 14:55:48.477, 1551729348477
18, -18058.64, 0.00, 0.00, 0.00, 0.00, 0.00, -13921.07, 0.00, 0.000, 0.000, 0.000, 14:55:48.477, 1551729348477
19, -18058.35, 0.00, 0.00, 0.00, 0.00, 0.00, -13938.79, 0.00, 0.000, 0.000, 0.000, 14:55:48.486, 1551729348486
20, -18038.93, 0.00, 0.00, 0.00, 0.00, 0.00, -13923.30, 0.00, -0.748, 0.560, -0.310, 14:55:48.486, 1551729348486
21, -18027.26, 0.00, 0.00, 0.00, 0.00, 0.00, -13897.69, 0.00, 0.000, 0.000, 0.000, 14:55:48.492, 1551729348492
22, -18049.97, 0.00, 0.00, 0.00, 0.00, 0.00, -13908.01, 0.00, 0.000, 0.000, 0.000, 14:55:48.492, 1551729348492
23, -18052.81, 0.00, 0.00, 0.00, 0.00, 0.00, -13938.57, 0.00, 0.000, 0.000, 0.000, 14:55:48.500, 1551729348500
24, -18033.34, 0.00, 0.00, 0.00, 0.00, 0.00, -13930.95, 0.00, 0.000, 0.000, 0.000, 14:55:48.501, 1551729348501
25, -18037.41, 0.00, 0.00, 0.00, 0.00, 0.00, -13913.04, 0.00, 0.000, 0.000, 0.000, 14:55:48.508, 1551729348508
26, -18051.60, 0.00, 0.00, 0.00, 0.00, 0.00, -13911.61, 0.00, 0.000, 0.000, 0.000, 14:55:48.508, 1551729348508
27, -18063.76, 0.00, 0.00, 0.00, 0.00, 0.00, -13942.48, 0.00, 0.000, 0.000, 0.000, 14:55:48.515, 1551729348515
28, -18046.80, 0.00, 0.00, 0.00, 0.00, 0.00, -13938.79, 0.00, 0.000, 0.000, 0.000, 14:55:48.515, 1551729348515
29, -18041.08, 0.00, 0.00, 0.00, 0.00, 0.00, -13919.06, 0.00, 0.000, 0.000, 0.000, 14:55:48.521, 1551729348521
30, -18050.80, 0.00, 0.00, 0.00, 0.00, 0.00, -13910.61, 0.00, -0.744, 0.556, -0.306, 14:55:48.530, 1551729348530
31, -18062.58, 0.00, 0.00, 0.00, 0.00, 0.00, -13940.67, 0.00, 0.000, 0.000, 0.000, 14:55:48.530, 1551729348530
32, -18053.71, 0.00, 0.00, 0.00, 0.00, 0.00, -13948.70, 0.00, 0.000, 0.000, 0.000, 14:55:48.538, 1551729348538
33, -18044.85, 0.00, 0.00, 0.00, 0.00, 0.00, -13926.79, 0.00, 0.000, 0.000, 0.000, 14:55:48.538, 1551729348538
34, -18050.35, 0.00, 0.00, 0.00, 0.00, 0.00, -13907.43, 0.00, 0.000, 0.000, 0.000, 14:55:48.545, 1551729348545
35, -18076.15, 0.00, 0.00, 0.00, 0.00, 0.00, -13936.33, 0.00, 0.000, 0.000, 0.000, 14:55:48.545, 1551729348545
36, -18054.02, 0.00, 0.00, 0.00, 0.00, 0.00, -13947.80, 0.00, 0.000, 0.000, 0.000, 14:55:48.552, 1551729348552
37, -18036.02, 0.00, 0.00, 0.00, 0.00, 0.00, -13929.70, 0.00, 0.000, 0.000, 0.000, 14:55:48.552, 1551729348552
38, -18036.87, 0.00, 0.00, 0.00, 0.00, 0.00, -13907.84, 0.00, 0.000, 0.000, 0.000, 14:55:48.560, 1551729348560
39, -18062.71, 0.00, 0.00, 0.00, 0.00, 0.00, -13933.61, 0.00, 0.000, 0.000, 0.000, 14:55:48.561, 1551729348561
40, -18054.40, 0.00, 0.00, 0.00, 0.00, 0.00, -13952.23, 0.00, -0.752, 0.554, -0.306, 14:55:48.570, 1551729348570
41, -18043.27, 0.00, 0.00, 0.00, 0.00, 0.00, -13936.29, 0.00, 0.000, 0.000, 0.000, 14:55:48.571, 1551729348571
42, -18041.86, 0.00, 0.00, 0.00, 0.00, 0.00, -13913.80, 0.00, 0.000, 0.000, 0.000, 14:55:48.575, 1551729348575
43, -18064.01, 0.00, 0.00, 0.00, 0.00, 0.00, -13931.64, 0.00, 0.000, 0.000, 0.000, 14:55:48.575, 1551729348575
44, -18062.96, 0.00, 0.00, 0.00, 0.00, 0.00, -13958.93, 0.00, 0.000, 0.000, 0.000, 14:55:48.582, 1551729348582
45, -18047.76, 0.00, 0.00, 0.00, 0.00, 0.00, -13948.87, 0.00, 0.000, 0.000, 0.000, 14:55:48.582, 1551729348582
46, -18040.90, 0.00, 0.00, 0.00, 0.00, 0.00, -13923.73, 0.00, 0.000, 0.000, 0.000, 14:55:48.590, 1551729348590
47, -18056.83, 0.00, 0.00, 0.00, 0.00, 0.00, -13921.87, 0.00, 0.000, 0.000, 0.000, 14:55:48.598, 1551729348598
48, -18065.33, 0.00, 0.00, 0.00, 0.00, 0.00, -13951.40, 0.00, 0.000, 0.000, 0.000, 14:55:48.599, 1551729348599
49, -18048.36, 0.00, 0.00, 0.00, 0.00, 0.00, -13945.32, 0.00, 0.000, 0.000, 0.000, 14:55:48.605, 1551729348605
50, -18039.00, 0.00, 0.00, 0.00, 0.00, 0.00, -13919.91, 0.00, -0.750, 0.554, -0.300, 14:55:48.605, 1551729348605
51, -18060.19, 0.00, 0.00, 0.00, 0.00, 0.00, -13916.40, 0.00, 0.000, 0.000, 0.000, 14:55:48.612, 1551729348612
52, -18069.80, 0.00, 0.00, 0.00, 0.00, 0.00, -13947.35, 0.00, 0.000, 0.000, 0.000, 14:55:48.612, 1551729348612
53, -18040.47, 0.00, 0.00, 0.00, 0.00, 0.00, -13945.81, 0.00, 0.000, 0.000, 0.000, 14:55:48.620, 1551729348620
54, -18036.27, 0.00, 0.00, 0.00, 0.00, 0.00, -13928.13, 0.00, 0.000, 0.000, 0.000, 14:55:48.621, 1551729348621
55, -18045.95, 0.00, 0.00, 0.00, 0.00, 0.00, -13916.06, 0.00, 0.000, 0.000, 0.000, 14:55:48.627, 1551729348627
56, -18070.92, 0.00, 0.00, 0.00, 0.00, 0.00, -13949.46, 0.00, 0.000, 0.000, 0.000, 14:55:48.627, 1551729348627
57, -18056.43, 0.00, 0.00, 0.00, 0.00, 0.00, -13954.69, 0.00, 0.000, 0.000, 0.000, 14:55:48.636, 1551729348636
58, -18047.27, 0.00, 0.00, 0.00, 0.00, 0.00, -13934.95, 0.00, 0.000, 0.000, 0.000, 14:55:48.636, 1551729348636
59, -18057.84, 0.00, 0.00, 0.00, 0.00, 0.00, -13919.21, 0.00, 0.000, 0.000, 0.000, 14:55:48.643, 1551729348643
60, -18064.03, 0.00, 0.00, 0.00, 0.00, 0.00, -13940.51, 0.00, -0.750, 0.558, -0.306, 14:55:48.643, 1551729348643
61, -18048.38, 0.00, 0.00, 0.00, 0.00, 0.00, -13953.23, 0.00, 0.000, 0.000, 0.000, 14:55:48.650, 1551729348650
62, -18036.72, 0.00, 0.00, 0.00, 0.00, 0.00, -13933.12, 0.00, 0.000, 0.000, 0.000, 14:55:48.657, 1551729348657
63, -18045.95, 0.00, 0.00, 0.00, 0.00, 0.00, -13912.82, 0.00, 0.000, 0.000, 0.000, 14:55:48.657, 1551729348657
64, -18068.90, 0.00, 0.00, 0.00, 0.00, 0.00, -13934.14, 0.00, 0.000, 0.000, 0.000, 14:55:48.665, 1551729348665
65, -18060.97, 0.00, 0.00, 0.00, 0.00, 0.00, -13956.03, 0.00, 0.000, 0.000, 0.000, 14:55:48.666, 1551729348666
66, -18047.36, 0.00, 0.00, 0.00, 0.00, 0.00, -13944.52, 0.00, 0.000, 0.000, 0.000, 14:55:48.673, 1551729348673
67, -18054.20, 0.00, 0.00, 0.00, 0.00, 0.00, -13926.72, 0.00, 0.000, 0.000, 0.000, 14:55:48.674, 1551729348674
68, -18065.95, 0.00, 0.00, 0.00, 0.00, 0.00, -13937.50, 0.00, 0.000, 0.000, 0.000, 14:55:48.680, 1551729348680
69, -18058.40, 0.00, 0.00, 0.00, 0.00, 0.00, -13959.60, 0.00, 0.000, 0.000, 0.000, 14:55:48.680, 1551729348680
70, -18048.18, 0.00, 0.00, 0.00, 0.00, 0.00, -13950.82, 0.00, -0.754, 0.556, -0.304, 14:55:48.687, 1551729348687
71, -18039.73, 0.00, 0.00, 0.00, 0.00, 0.00, -13919.79, 0.00, 0.000, 0.000, 0.000, 14:55:48.688, 1551729348688
72, -18056.65, 0.00, 0.00, 0.00, 0.00, 0.00, -13919.46, 0.00, 0.000, 0.000, 0.000, 14:55:48.696, 1551729348696
73, -18068.46, 0.00, 0.00, 0.00, 0.00, 0.00, -13952.61, 0.00, 0.000, 0.000, 0.000, 14:55:48.696, 1551729348696
74, -18057.95, 0.00, 0.00, 0.00, 0.00, 0.00, -13954.28, 0.00, 0.000, 0.000, 0.000, 14:55:48.704, 1551729348704
75, -18054.44, 0.00, 0.00, 0.00, 0.00, 0.00, -13934.39, 0.00, 0.000, 0.000, 0.000, 14:55:48.704, 1551729348704
76, -18057.57, 0.00, 0.00, 0.00, 0.00, 0.00, -13926.41, 0.00, 0.000, 0.000, 0.000, 14:55:48.710, 1551729348710
77, -18064.14, 0.00, 0.00, 0.00, 0.00, 0.00, -13951.38, 0.00, 0.000, 0.000, 0.000, 14:55:48.717, 1551729348717
78, -18044.70, 0.00, 0.00, 0.00, 0.00, 0.00, -13947.51, 0.00, 0.000, 0.000, 0.000, 14:55:48.717, 1551729348717
79, -18035.29, 0.00, 0.00, 0.00, 0.00, 0.00, -13925.16, 0.00, 0.000, 0.000, 0.000, 14:55:48.725, 1551729348725
80, -18043.94, 0.00, 0.00, 0.00, 0.00, 0.00, -13907.72, 0.00, -0.758, 0.556, -0.306, 14:55:48.726, 1551729348726
81, -18064.50, 0.00, 0.00, 0.00, 0.00, 0.00, -13939.42, 0.00, 0.000, 0.000, 0.000, 14:55:48.732, 1551729348732
82, -18054.40, 0.00, 0.00, 0.00, 0.00, 0.00, -13949.97, 0.00, 0.000, 0.000, 0.000, 14:55:48.732, 1551729348732
83, -18035.26, 0.00, 0.00, 0.00, 0.00, 0.00, -13928.85, 0.00, 0.000, 0.000, 0.000, 14:55:48.740, 1551729348740
84, -18038.13, 0.00, 0.00, 0.00, 0.00, 0.00, -13911.50, 0.00, 0.000, 0.000, 0.000, 14:55:48.741, 1551729348741
85, -18060.79, 0.00, 0.00, 0.00, 0.00, 0.00, -13936.58, 0.00, 0.000, 0.000, 0.000, 14:55:48.748, 1551729348748
86, -18051.20, 0.00, 0.00, 0.00, 0.00, 0.00, -13951.15, 0.00, 0.000, 0.000, 0.000, 14:55:48.748, 1551729348748
87, -18031.11, 0.00, 0.00, 0.00, 0.00, 0.00, -13929.63, 0.00, 0.000, 0.000, 0.000, 14:55:48.756, 1551729348756
88, -18029.56, 0.00, 0.00, 0.00, 0.00, 0.00, -13904.37, 0.00, 0.000, 0.000, 0.000, 14:55:48.756, 1551729348756
89, -18059.36, 0.00, 0.00, 0.00, 0.00, 0.00, -13920.80, 0.00, -0.752, 0.556, -0.308, 14:55:48.762, 1551729348762
90, -18049.23, 0.00, 0.00, 0.00, 0.00, 0.00, -13940.72, 0.00, 0.000, 0.000, 0.000, 14:55:48.762, 1551729348762
91, -18029.23, 0.00, 0.00, 0.00, 0.00, 0.00, -13929.47, 0.00, 0.000, 0.000, 0.000, 14:55:48.769, 1551729348769
92, -18025.14, 0.00, 0.00, 0.00, 0.00, 0.00, -13908.39, 0.00, 0.000, 0.000, 0.000, 14:55:48.778, 1551729348778
93, -18045.63, 0.00, 0.00, 0.00, 0.00, 0.00, -13918.34, 0.00, 0.000, 0.000, 0.000, 14:55:48.778, 1551729348778
94, -18051.89, 0.00, 0.00, 0.00, 0.00, 0.00, -13947.58, 0.00, 0.000, 0.000, 0.000, 14:55:48.786, 1551729348786
95, -18040.85, 0.00, 0.00, 0.00, 0.00, 0.00, -13944.78, 0.00, 0.000, 0.000, 0.000, 14:55:48.786, 1551729348786
96, -18036.65, 0.00, 0.00, 0.00, 0.00, 0.00, -13920.87, 0.00, 0.000, 0.000, 0.000, 14:55:48.792, 1551729348792
97, -18050.87, 0.00, 0.00, 0.00, 0.00, 0.00, -13916.75, 0.00, 0.000, 0.000, 0.000, 14:55:48.792, 1551729348792
98, -18057.37, 0.00, 0.00, 0.00, 0.00, 0.00, -13947.20, 0.00, 0.000, 0.000, 0.000, 14:55:48.800, 1551729348800
99, -18040.14, 0.00, 0.00, 0.00, 0.00, 0.00, -13946.01, 0.00, -0.754, 0.558, -0.312, 14:55:48.800, 1551729348800
100, -18027.44, 0.00, 0.00, 0.00, 0.00, 0.00, -13921.16, 0.00, 0.000, 0.000, 0.000, 14:55:48.809, 1551729348809
101, -18039.11, 0.00, 0.00, 0.00, 0.00, 0.00, -13908.98, 0.00, 0.000, 0.000, 0.000, 14:55:48.809, 1551729348809
102, -18061.28, 0.00, 0.00, 0.00, 0.00, 0.00, -13941.36, 0.00, 0.000, 0.000, 0.000, 14:55:48.815, 1551729348815
103, -18049.48, 0.00, 0.00, 0.00, 0.00, 0.00, -13943.69, 0.00, 0.000, 0.000, 0.000, 14:55:48.815, 1551729348815
104, -18029.14, 0.00, 0.00, 0.00, 0.00, 0.00, -13918.52, 0.00, 0.000, 0.000, 0.000, 14:55:48.823, 1551729348823
105, -18036.11, 0.00, 0.00, 0.00, 0.00, 0.00, -13903.16, 0.00, 0.000, 0.000, 0.000, 14:55:48.823, 1551729348823
106, -18063.58, 0.00, 0.00, 0.00, 0.00, 0.00, -13938.01, 0.00, 0.000, 0.000, 0.000, 14:55:48.830, 1551729348830
107, -18057.91, 0.00, 0.00, 0.00, 0.00, 0.00, -13949.19, 0.00, 0.000, 0.000, 0.000, 14:55:48.830, 1551729348830
108, -18041.52, 0.00, 0.00, 0.00, 0.00, 0.00, -13929.65, 0.00, 0.000, 0.000, 0.000, 14:55:48.838, 1551729348838
109, -18043.65, 0.00, 0.00, 0.00, 0.00, 0.00, -13907.30, 0.00, -0.754, 0.560, -0.304, 14:55:48.845, 1551729348845
110, -18058.55, 0.00, 0.00, 0.00, 0.00, 0.00, -13929.41, 0.00, 0.000, 0.000, 0.000, 14:55:48.845, 1551729348845
111, -18056.79, 0.00, 0.00, 0.00, 0.00, 0.00, -13947.35, 0.00, 0.000, 0.000, 0.000, 14:55:48.852, 1551729348852
112, -18042.17, 0.00, 0.00, 0.00, 0.00, 0.00, -13935.89, 0.00, 0.000, 0.000, 0.000, 14:55:48.852, 1551729348852
113, -18043.56, 0.00, 0.00, 0.00, 0.00, 0.00, -13913.54, 0.00, 0.000, 0.000, 0.000, 14:55:48.861, 1551729348861
114, -18060.48, 0.00, 0.00, 0.00, 0.00, 0.00, -13925.23, 0.00, 0.000, 0.000, 0.000, 14:55:48.861, 1551729348861
115, -18065.17, 0.00, 0.00, 0.00, 0.00, 0.00, -13952.43, 0.00, 0.000, 0.000, 0.000, 14:55:48.868, 1551729348868
116, -18044.41, 0.00, 0.00, 0.00, 0.00, 0.00, -13939.80, 0.00, 0.000, 0.000, 0.000, 14:55:48.868, 1551729348868
117, -18032.25, 0.00, 0.00, 0.00, 0.00, 0.00, -13910.81, 0.00, 0.000, 0.000, 0.000, 14:55:48.875, 1551729348875
118, -18058.51, 0.00, 0.00, 0.00, 0.00, 0.00, -13920.51, 0.00, 0.000, 0.000, 0.000, 14:55:48.876, 1551729348876
119, -18064.17, 0.00, 0.00, 0.00, 0.00, 0.00, -13952.43, 0.00, -0.748, 0.562, -0.304, 14:55:48.884, 1551729348884
120, -18046.93, 0.00, 0.00, 0.00, 0.00, 0.00, -13947.06, 0.00, 0.000, 0.000, 0.000, 14:55:48.885, 1551729348885
121, -18041.19, 0.00, 0.00, 0.00, 0.00, 0.00, -13924.94, 0.00, 0.000, 0.000, 0.000, 14:55:48.891, 1551729348891
122, -18050.84, 0.00, 0.00, 0.00, 0.00, 0.00, -13916.75, 0.00, 0.000, 0.000, 0.000, 14:55:48.891, 1551729348891
123, -18067.27, 0.00, 0.00, 0.00, 0.00, 0.00, -13952.63, 0.00, 0.000, 0.000, 0.000, 14:55:48.897, 1551729348897
124, -18057.19, 0.00, 0.00, 0.00, 0.00, 0.00, -13953.39, 0.00, 0.000, 0.000, 0.000, 14:55:48.905, 1551729348905
125, -18032.02, 0.00, 0.00, 0.00, 0.00, 0.00, -13924.06, 0.00, 0.000, 0.000, 0.000, 14:55:48.905, 1551729348905
126, -18038.17, 0.00, 0.00, 0.00, 0.00, 0.00, -13906.63, 0.00, 0.000, 0.000, 0.000, 14:55:48.913, 1551729348913
127, -18059.40, 0.00, 0.00, 0.00, 0.00, 0.00, -13939.37, 0.00, 0.000, 0.000, 0.000, 14:55:48.913, 1551729348913
128, -18043.76, 0.00, 0.00, 0.00, 0.00, 0.00, -13945.30, 0.00, 0.000, 0.000, 0.000, 14:55:48.921, 1551729348921
129, -18032.58, 0.00, 0.00, 0.00, 0.00, 0.00, -13925.90, 0.00, -0.750, 0.556, -0.304, 14:55:48.921, 1551729348921
130, -18039.71, 0.00, 0.00, 0.00, 0.00, 0.00, -13907.81, 0.00, 0.000, 0.000, 0.000, 14:55:48.927, 1551729348927
131, -18059.63, 0.00, 0.00, 0.00, 0.00, 0.00, -13932.49, 0.00, 0.000, 0.000, 0.000, 14:55:48.927, 1551729348927
132, -18046.22, 0.00, 0.00, 0.00, 0.00, 0.00, -13945.79, 0.00, 0.000, 0.000, 0.000, 14:55:48.936, 1551729348936
133, -18029.47, 0.00, 0.00, 0.00, 0.00, 0.00, -13929.92, 0.00, 0.000, 0.000, 0.000, 14:55:48.936, 1551729348936
134, -18032.04, 0.00, 0.00, 0.00, 0.00, 0.00, -13909.18, 0.00, 0.000, 0.000, 0.000, 14:55:48.944, 1551729348944
135, -18059.40, 0.00, 0.00, 0.00, 0.00, 0.00, -13931.19, 0.00, 0.000, 0.000, 0.000, 14:55:48.944, 1551729348944
136, -18049.12, 0.00, 0.00, 0.00, 0.00, 0.00, -13948.87, 0.00, 0.000, 0.000, 0.000, 14:55:48.951, 1551729348951
137, -18033.68, 0.00, 0.00, 0.00, 0.00, 0.00, -13937.72, 0.00, 0.000, 0.000, 0.000, 14:55:48.951, 1551729348951
138, -18037.61, 0.00, 0.00, 0.00, 0.00, 0.00, -13916.08, 0.00, 0.000, 0.000, 0.000, 14:55:48.957, 1551729348957
139, -18054.82, 0.00, 0.00, 0.00, 0.00, 0.00, -13924.67, 0.00, -0.742, 0.554, -0.308, 14:55:48.966, 1551729348966
140, -18061.28, 0.00, 0.00, 0.00, 0.00, 0.00, -13953.54, 0.00, 0.000, 0.000, 0.000, 14:55:48.966, 1551729348966
141, -18047.24, 0.00, 0.00, 0.00, 0.00, 0.00, -13944.09, 0.00, 0.000, 0.000, 0.000, 14:55:48.973, 1551729348973
142, -18048.94, 0.00, 0.00, 0.00, 0.00, 0.00, -13921.43, 0.00, 0.000, 0.000, 0.000, 14:55:48.973, 1551729348973
143, -18059.11, 0.00, 0.00, 0.00, 0.00, 0.00, -13920.73, 0.00, 0.000, 0.000, 0.000, 14:55:48.980, 1551729348980
144, -18066.22, 0.00, 0.00, 0.00, 0.00, 0.00, -13952.52, 0.00, 0.000, 0.000, 0.000, 14:55:48.981, 1551729348981
145, -18046.31, 0.00, 0.00, 0.00, 0.00, 0.00, -13948.70, 0.00, 0.000, 0.000, 0.000, 14:55:48.988, 1551729348988
146, -18044.21, 0.00, 0.00, 0.00, 0.00, 0.00, -13927.17, 0.00, 0.000, 0.000, 0.000, 14:55:48.988, 1551729348988
147, -18056.57, 0.00, 0.00, 0.00, 0.00, 0.00, -13920.35, 0.00, 0.000, 0.000, 0.000, 14:55:48.996, 1551729348996
148, -18063.52, 0.00, 0.00, 0.00, 0.00, 0.00, -13948.74, 0.00, -0.744, 0.556, -0.308, 14:55:48.996, 1551729348996
149, -18047.29, 0.00, 0.00, 0.00, 0.00, 0.00, -13949.03, 0.00, 0.000, 0.000, 0.000, 14:55:49.003, 1551729349003
150, -18043.11, 0.00, 0.00, 0.00, 0.00, 0.00, -13930.39, 0.00, 0.000, 0.000, 0.000, 14:55:49.003, 1551729349003
151, -18049.95, 0.00, 0.00, 0.00, 0.00, 0.00, -13915.77, 0.00, 0.000, 0.000, 0.000, 14:55:49.010, 1551729349010
152, -18072.37, 0.00, 0.00, 0.00, 0.00, 0.00, -13949.03, 0.00, 0.000, 0.000, 0.000, 14:55:49.011, 1551729349011
153, -18057.93, 0.00, 0.00, 0.00, 0.00, 0.00, -13959.09, 0.00, 0.000, 0.000, 0.000, 14:55:49.018, 1551729349018
154, -18040.40, 0.00, 0.00, 0.00, 0.00, 0.00, -13937.97, 0.00, 0.000, 0.000, 0.000, 14:55:49.025, 1551729349025
155, -18046.04, 0.00, 0.00, 0.00, 0.00, 0.00, -13917.89, 0.00, 0.000, 0.000, 0.000, 14:55:49.025, 1551729349025
156, -18070.63, 0.00, 0.00, 0.00, 0.00, 0.00, -13943.60, 0.00, 0.000, 0.000, 0.000, 14:55:49.032, 1551729349032
157, -18055.94, 0.00, 0.00, 0.00, 0.00, 0.00, -13954.35, 0.00, 0.000, 0.000, 0.000, 14:55:49.033, 1551729349033
158, -18046.73, 0.00, 0.00, 0.00, 0.00, 0.00, -13942.44, 0.00, -0.746, 0.564, -0.312, 14:55:49.040, 1551729349040
159, -18047.22, 0.00, 0.00, 0.00, 0.00, 0.00, -13917.69, 0.00, 0.000, 0.000, 0.000, 14:55:49.040, 1551729349040
160, -18067.25, 0.00, 0.00, 0.00, 0.00, 0.00, -13937.05, 0.00, 0.000, 0.000, 0.000, 14:55:49.048, 1551729349048
161, -18067.94, 0.00, 0.00, 0.00, 0.00, 0.00, -13958.82, 0.00, 0.000, 0.000, 0.000, 14:55:49.049, 1551729349049
162, -18056.43, 0.00, 0.00, 0.00, 0.00, 0.00, -13945.63, 0.00, 0.000, 0.000, 0.000, 14:55:49.056, 1551729349056
163, -18048.63, 0.00, 0.00, 0.00, 0.00, 0.00, -13918.41, 0.00, 0.000, 0.000, 0.000, 14:55:49.057, 1551729349057
164, -18074.67, 0.00, 0.00, 0.00, 0.00, 0.00, -13923.84, 0.00, 0.000, 0.000, 0.000, 14:55:49.063, 1551729349063
165, -18068.14, 0.00, 0.00, 0.00, 0.00, 0.00, -13947.80, 0.00, 0.000, 0.000, 0.000, 14:55:49.063, 1551729349063
166, -18055.78, 0.00, 0.00, 0.00, 0.00, 0.00, -13944.29, 0.00, 0.000, 0.000, 0.000, 14:55:49.070, 1551729349070
167, -18045.03, 0.00, 0.00, 0.00, 0.00, 0.00, -13921.09, 0.00, 0.000, 0.000, 0.000, 14:55:49.071, 1551729349071
168, -18053.95, 0.00, 0.00, 0.00, 0.00, 0.00, -13920.31, 0.00, -0.750, 0.560, -0.306, 14:55:49.079, 1551729349079
169, -18070.78, 0.00, 0.00, 0.00, 0.00, 0.00, -13954.91, 0.00, 0.000, 0.000, 0.000, 14:55:49.079, 1551729349079
170, -18054.15, 0.00, 0.00, 0.00, 0.00, 0.00, -13954.01, 0.00, 0.000, 0.000, 0.000, 14:55:49.087, 1551729349087
171, -18039.64, 0.00, 0.00, 0.00, 0.00, 0.00, -13929.32, 0.00, 0.000, 0.000, 0.000, 14:55:49.092, 1551729349092
172, -18048.41, 0.00, 0.00, 0.00, 0.00, 0.00, -13918.83, 0.00, 0.000, 0.000, 0.000, 14:55:49.092, 1551729349092
173, -18067.23, 0.00, 0.00, 0.00, 0.00, 0.00, -13950.97, 0.00, 0.000, 0.000, 0.000, 14:55:49.100, 1551729349100
174, -18050.51, 0.00, 0.00, 0.00, 0.00, 0.00, -13954.06, 0.00, 0.000, 0.000, 0.000, 14:55:49.100, 1551729349100
175, -18037.39, 0.00, 0.00, 0.00, 0.00, 0.00, -13933.29, 0.00, 0.000, 0.000, 0.000, 14:55:49.109, 1551729349109
176, -18043.13, 0.00, 0.00, 0.00, 0.00, 0.00, -13918.01, 0.00, 0.000, 0.000, 0.000, 14:55:49.109, 1551729349109
177, -18064.10, 0.00, 0.00, 0.00, 0.00, 0.00, -13949.97, 0.00, 0.000, 0.000, 0.000, 14:55:49.117, 1551729349117
178, -18051.42, 0.00, 0.00, 0.00, 0.00, 0.00, -13961.01, 0.00, -0.750, 0.556, -0.302, 14:55:49.117, 1551729349117
179, -18037.19, 0.00, 0.00, 0.00, 0.00, 0.00, -13941.94, 0.00, 0.000, 0.000, 0.000, 14:55:49.123, 1551729349123
180, -18034.88, 0.00, 0.00, 0.00, 0.00, 0.00, -13916.98, 0.00, 0.000, 0.000, 0.000, 14:55:49.123, 1551729349123
181, -18062.09, 0.00, 0.00, 0.00, 0.00, 0.00, -13941.14, 0.00, 0.000, 0.000, 0.000, 14:55:49.131, 1551729349131
182, -18062.91, 0.00, 0.00, 0.00, 0.00, 0.00, -13958.80, 0.00, 0.000, 0.000, 0.000, 14:55:49.131, 1551729349131
183, -18054.58, 0.00, 0.00, 0.00, 0.00, 0.00, -13943.11, 0.00, 0.000, 0.000, 0.000, 14:55:49.138, 1551729349138
184, -18031.06, 0.00, 0.00, 0.00, 0.00, 0.00, -13914.27, 0.00, 0.000, 0.000, 0.000, 14:55:49.138, 1551729349138
185, -18049.32, 0.00, 0.00, 0.00, 0.00, 0.00, -13929.25, 0.00, 0.000, 0.000, 0.000, 14:55:49.146, 1551729349146
186, -18053.01, 0.00, 0.00, 0.00, 0.00, 0.00, -13958.04, 0.00, 0.000, 0.000, 0.000, 14:55:49.154, 1551729349154
187, -18045.61, 0.00, 0.00, 0.00, 0.00, 0.00, -13951.51, 0.00, 0.000, 0.000, 0.000, 14:55:49.155, 1551729349155
188, -18047.00, 0.00, 0.00, 0.00, 0.00, 0.00, -13930.05, 0.00, -0.744, 0.556, -0.304, 14:55:49.161, 1551729349161
189, -18070.54, 0.00, 0.00, 0.00, 0.00, 0.00, -13938.97, 0.00, 0.000, 0.000, 0.000, 14:55:49.161, 1551729349161
190, -18084.26, 0.00, 0.00, 0.00, 0.00, 0.00, -13976.23, 0.00, 0.000, 0.000, 0.000, 14:55:49.168, 1551729349168
191, -18068.50, 0.00, 0.00, 0.00, 0.00, 0.00, -13975.67, 0.00, 0.000, 0.000, 0.000, 14:55:49.168, 1551729349168
192, -18065.75, 0.00, 0.00, 0.00, 0.00, 0.00, -13957.23, 0.00, 0.000, 0.000, 0.000, 14:55:49.175, 1551729349175
193, -18084.19, 0.00, 0.00, 0.00, 0.00, 0.00, -13955.40, 0.00, 0.000, 0.000, 0.000, 14:55:49.175, 1551729349175
194, -18099.26, 0.00, 0.00, 0.00, 0.00, 0.00, -13992.08, 0.00, 0.000, 0.000, 0.000, 14:55:49.184, 1551729349184
195, -18087.28, 0.00, 0.00, 0.00, 0.00, 0.00, -13995.23, 0.00, 0.000, 0.000, 0.000, 14:55:49.184, 1551729349184
196, -18087.19, 0.00, 0.00, 0.00, 0.00, 0.00, -13975.92, 0.00, 0.000, 0.000, 0.000, 14:55:49.192, 1551729349192
197, -18098.23, 0.00, 0.00, 0.00, 0.00, 0.00, -13967.07, 0.00, 0.000, 0.000, 0.000, 14:55:49.192, 1551729349192
198, -18112.94, 0.00, 0.00, 0.00, 0.00, 0.00, -13999.14, 0.00, -0.754, 0.556, -0.312, 14:55:49.199, 1551729349199
199, -18109.18, 0.00, 0.00, 0.00, 0.00, 0.00, -14010.34, 0.00, 0.000, 0.000, 0.000, 14:55:49.199, 1551729349199
200, -18085.31, 0.00, 0.00, 0.00, 0.00, 0.00, -13987.52, 0.00, 0.000, 0.000, 0.000, 14:55:49.205, 1551729349205
201, -18087.68, 0.00, 0.00, 0.00, 0.00, 0.00, -13967.43, 0.00, 0.000, 0.000, 0.000, 14:55:49.213, 1551729349213
202, -18110.34, 0.00, 0.00, 0.00, 0.00, 0.00, -13993.96, 0.00, 0.000, 0.000, 0.000, 14:55:49.213, 1551729349213
203, -18105.78, 0.00, 0.00, 0.00, 0.00, 0.00, -14009.00, 0.00, 0.000, 0.000, 0.000, 14:55:49.221, 1551729349221
204, -18092.93, 0.00, 0.00, 0.00, 0.00, 0.00, -13996.80, 0.00, 0.000, 0.000, 0.000, 14:55:49.221, 1551729349221
205, -18093.16, 0.00, 0.00, 0.00, 0.00, 0.00, -13977.13, 0.00, 0.000, 0.000, 0.000, 14:55:49.229, 1551729349229
206, -18112.78, 0.00, 0.00, 0.00, 0.00, 0.00, -13998.03, 0.00, 0.000, 0.000, 0.000, 14:55:49.230, 1551729349230
207, -18108.62, 0.00, 0.00, 0.00, 0.00, 0.00, -14019.28, 0.00, -0.744, 0.560, -0.310, 14:55:49.236, 1551729349236
208, -18096.84, 0.00, 0.00, 0.00, 0.00, 0.00, -14006.36, 0.00, 0.000, 0.000, 0.000, 14:55:49.236, 1551729349236
209, -18097.89, 0.00, 0.00, 0.00, 0.00, 0.00, -13983.05, 0.00, 0.000, 0.000, 0.000, 14:55:49.244, 1551729349244
210, -18112.24, 0.00, 0.00, 0.00, 0.00, 0.00, -13988.64, 0.00, 0.000, 0.000, 0.000, 14:55:49.244, 1551729349244
211, -18111.95, 0.00, 0.00, 0.00, 0.00, 0.00, -14011.55, 0.00, 0.000, 0.000, 0.000, 14:55:49.251, 1551729349251
212, -18095.46, 0.00, 0.00, 0.00, 0.00, 0.00, -14001.83, 0.00, 0.000, 0.000, 0.000, 14:55:49.251, 1551729349251
213, -18087.30, 0.00, 0.00, 0.00, 0.00, 0.00, -13976.41, 0.00, 0.000, 0.000, 0.000, 14:55:49.258, 1551729349258
214, -18104.94, 0.00, 0.00, 0.00, 0.00, 0.00, -13977.53, 0.00, 0.000, 0.000, 0.000, 14:55:49.259, 1551729349259
215, -18114.19, 0.00, 0.00, 0.00, 0.00, 0.00, -14008.93, 0.00, 0.000, 0.000, 0.000, 14:55:49.265, 1551729349265
216, -18094.63, 0.00, 0.00, 0.00, 0.00, 0.00, -14002.12, 0.00, 0.000, 0.000, 0.000, 14:55:49.273, 1551729349273
217, -18080.71, 0.00, 0.00, 0.00, 0.00, 0.00, -13972.79, 0.00, -0.744, 0.564, -0.306, 14:55:49.273, 1551729349273
218, -18092.98, 0.00, 0.00, 0.00, 0.00, 0.00, -13964.83, 0.00, 0.000, 0.000, 0.000, 14:55:49.280, 1551729349280
219, -18104.73, 0.00, 0.00, 0.00, 0.00, 0.00, -13994.72, 0.00, 0.000, 0.000, 0.000, 14:55:49.280, 1551729349280
220, -18090.12, 0.00, 0.00, 0.00, 0.00, 0.00, -13997.98, 0.00, 0.000, 0.000, 0.000, 14:55:49.288, 1551729349288
221, -18074.83, 0.00, 0.00, 0.00, 0.00, 0.00, -13975.20, 0.00, 0.000, 0.000, 0.000, 14:55:49.288, 1551729349288
222, -18083.14, 0.00, 0.00, 0.00, 0.00, 0.00, -13961.91, 0.00, 0.000, 0.000, 0.000, 14:55:49.297, 1551729349297
223, -18099.30, 0.00, 0.00, 0.00, 0.00, 0.00, -13993.22, 0.00, 0.000, 0.000, 0.000, 14:55:49.297, 1551729349297
224, -18087.08, 0.00, 0.00, 0.00, 0.00, 0.00, -14001.60, 0.00, 0.000, 0.000, 0.000, 14:55:49.303, 1551729349303
225, -18086.18, 0.00, 0.00, 0.00, 0.00, 0.00, -13983.36, 0.00, 0.000, 0.000, 0.000, 14:55:49.303, 1551729349303
226, -18085.27, 0.00, 0.00, 0.00, 0.00, 0.00, -13960.68, 0.00, 0.000, 0.000, 0.000, 14:55:49.310, 1551729349310
227, -18096.04, 0.00, 0.00, 0.00, 0.00, 0.00, -13981.08, 0.00, -0.754, 0.566, -0.306, 14:55:49.310, 1551729349310
228, -18081.96, 0.00, 0.00, 0.00, 0.00, 0.00, -13992.79, 0.00, 0.000, 0.000, 0.000, 14:55:49.319, 1551729349319
229, -18069.11, 0.00, 0.00, 0.00, 0.00, 0.00, -13975.76, 0.00, 0.000, 0.000, 0.000, 14:55:49.319, 1551729349319
230, -18066.69, 0.00, 0.00, 0.00, 0.00, 0.00, -13952.32, 0.00, 0.000, 0.000, 0.000, 14:55:49.326, 1551729349326
231, -18088.91, 0.00, 0.00, 0.00, 0.00, 0.00, -13972.16, 0.00, 0.000, 0.000, 0.000, 14:55:49.327, 1551729349327
232, -18087.12, 0.00, 0.00, 0.00, 0.00, 0.00, -13995.34, 0.00, 0.000, 0.000, 0.000, 14:55:49.333, 1551729349333
233, -18073.44, 0.00, 0.00, 0.00, 0.00, 0.00, -13978.83, 0.00, 0.000, 0.000, 0.000, 14:55:49.340, 1551729349340
234, -18065.95, 0.00, 0.00, 0.00, 0.00, 0.00, -13947.51, 0.00, 0.000, 0.000, 0.000, 14:55:49.340, 1551729349340
235, -18080.13, 0.00, 0.00, 0.00, 0.00, 0.00, -13954.69, 0.00, 0.000, 0.000, 0.000, 14:55:49.348, 1551729349348
236, -18084.37, 0.00, 0.00, 0.00, 0.00, 0.00, -13979.56, 0.00, 0.000, 0.000, 0.000, 14:55:49.348, 1551729349348
237, -18067.94, 0.00, 0.00, 0.00, 0.00, 0.00, -13972.39, 0.00, -0.752, 0.564, -0.308, 14:55:49.357, 1551729349357
238, -18059.45, 0.00, 0.00, 0.00, 0.00, 0.00, -13948.54, 0.00, 0.000, 0.000, 0.000, 14:55:49.357, 1551729349357
239, -18069.19, 0.00, 0.00, 0.00, 0.00, 0.00, -13946.91, 0.00, 0.000, 0.000, 0.000, 14:55:49.364, 1551729349364
240, -18083.14, 0.00, 0.00, 0.00, 0.00, 0.00, -13982.92, 0.00, 0.000, 0.000, 0.000, 14:55:49.364, 1551729349364
241, -18067.27, 0.00, 0.00, 0.00, 0.00, 0.00, -13979.50, 0.00, 0.000, 0.000, 0.000, 14:55:49.372, 1551729349372
242, -18060.46, 0.00, 0.00, 0.00, 0.00, 0.00, -13959.11, 0.00, 0.000, 0.000, 0.000, 14:55:49.372, 1551729349372
243, -18070.47, 0.00, 0.00, 0.00, 0.00, 0.00, -13949.08, 0.00, 0.000, 0.000, 0.000, 14:55:49.381, 1551729349381
244, -18086.79, 0.00, 0.00, 0.00, 0.00, 0.00, -13980.05, 0.00, 0.000, 0.000, 0.000, 14:55:49.381, 1551729349381
245, -18065.84, 0.00, 0.00, 0.00, 0.00, 0.00, -13977.04, 0.00, 0.000, 0.000, 0.000, 14:55:49.387, 1551729349387
246, -18053.75, 0.00, 0.00, 0.00, 0.00, 0.00, -13953.10, 0.00, 0.000, 0.000, 0.000, 14:55:49.387, 1551729349387
247, -18055.98, 0.00, 0.00, 0.00, 0.00, 0.00, -13932.47, 0.00, -0.752, 0.556, -0.304, 14:55:49.393, 1551729349393
248, -18075.72, 0.00, 0.00, 0.00, 0.00, 0.00, -13958.42, 0.00, 0.000, 0.000, 0.000, 14:55:49.402, 1551729349402
249, -18063.49, 0.00, 0.00, 0.00, 0.00, 0.00, -13968.59, 0.00, 0.000, 0.000, 0.000, 14:55:49.402, 1551729349402
250, -18053.88, 0.00, 0.00, 0.00, 0.00, 0.00, -13952.72, 0.00, 0.000, 0.000, 0.000, 14:55:49.409, 1551729349409
251, -18056.79, 0.00, 0.00, 0.00, 0.00, 0.00, -13930.63, 0.00, 0.000, 0.000, 0.000, 14:55:49.409, 1551729349409
252, -18082.65, 0.00, 0.00, 0.00, 0.00, 0.00, -13956.63, 0.00, 0.000, 0.000, 0.000, 14:55:49.415, 1551729349415
253, -18071.90, 0.00, 0.00, 0.00, 0.00, 0.00, -13972.34, 0.00, 0.000, 0.000, 0.000, 14:55:49.415, 1551729349415
254, -18068.05, 0.00, 0.00, 0.00, 0.00, 0.00, -13958.02, 0.00, 0.000, 0.000, 0.000, 14:55:49.428, 1551729349428
255, -18055.25, 0.00, 0.00, 0.00, 0.00, 0.00, -13930.23, 0.00, 0.000, 0.000, 0.000, 14:55:49.428, 1551729349428
0, -18072.68, 0.00, 0.00, 0.00, 0.00, 0.00, -13946.53, 0.00, 0.000, 0.000, 0.000, 14:55:49.430, 1551729349430
1, -18070.78, 0.00, 0.00, 0.00, 0.00, 0.00, -13968.43, 0.00, -0.756, 0.556, -0.302, 14:55:49.431, 1551729349431
2, -18061.08, 0.00, 0.00, 0.00, 0.00, 0.00, -13961.41, 0.00, 0.000, 0.000, 0.000, 14:55:49.438, 1551729349438
3, -18052.14, 0.00, 0.00, 0.00, 0.00, 0.00, -13933.38, 0.00, 0.000, 0.000, 0.000, 14:55:49.438, 1551729349438
4, -18070.85, 0.00, 0.00, 0.00, 0.00, 0.00, -13939.75, 0.00, 0.000, 0.000, 0.000, 14:55:49.447, 1551729349447
5, -18068.55, 0.00, 0.00, 0.00, 0.00, 0.00, -13964.34, 0.00, 0.000, 0.000, 0.000, 14:55:49.448, 1551729349448
6, -18051.18, 0.00, 0.00, 0.00, 0.00, 0.00, -13961.59, 0.00, 0.000, 0.000, 0.000, 14:55:49.453, 1551729349453
7, -18045.26, 0.00, 0.00, 0.00, 0.00, 0.00, -13940.09, 0.00, 0.000, 0.000, 0.000, 14:55:49.461, 1551729349461
8, -18059.99, 0.00, 0.00, 0.00, 0.00, 0.00, -13936.83, 0.00, 0.000, 0.000, 0.000, 14:55:49.461, 1551729349461
9, -18073.11, 0.00, 0.00, 0.00, 0.00, 0.00, -13969.37, 0.00, 0.000, 0.000, 0.000, 14:55:49.469, 1551729349469
10, -18052.43, 0.00, 0.00, 0.00, 0.00, 0.00, -13961.93, 0.00, 0.000, 0.000, 0.000, 14:55:49.469, 1551729349469
11, -18040.52, 0.00, 0.00, 0.00, 0.00, 0.00, -13940.51, 0.00, -0.746, 0.560, -0.304, 14:55:49.476, 1551729349476
12, -18048.27, 0.00, 0.00, 0.00, 0.00, 0.00, -13928.87, 0.00, 0.000, 0.000, 0.000, 14:55:49.476, 1551729349476
13, -18071.88, 0.00, 0.00, 0.00, 0.00, 0.00, -13959.98, 0.00, 0.000, 0.000, 0.000, 14:55:49.484, 1551729349484
14, -18062.20, 0.00, 0.00, 0.00, 0.00, 0.00, -13964.43, 0.00, 0.000, 0.000, 0.000, 14:55:49.484, 1551729349484
15, -18054.64, 0.00, 0.00, 0.00, 0.00, 0.00, -13945.90, 0.00, 0.000, 0.000, 0.000, 14:55:49.491, 1551729349491
16, -18045.66, 0.00, 0.00, 0.00, 0.00, 0.00, -13925.72, 0.00, 0.000, 0.000, 0.000, 14:55:49.492, 1551729349492
17, -18074.56, 0.00, 0.00, 0.00, 0.00, 0.00, -13958.19, 0.00, 0.000, 0.000, 0.000, 14:55:49.500, 1551729349500
18, -18069.71, 0.00, 0.00, 0.00, 0.00, 0.00, -13977.13, 0.00, 0.000, 0.000, 0.000, 14:55:49.500, 1551729349500
19, -18067.74, 0.00, 0.00, 0.00, 0.00, 0.00, -13968.74, 0.00, 0.000, 0.000, 0.000, 14:55:49.506, 1551729349506
20, -18066.49, 0.00, 0.00, 0.00, 0.00, 0.00, -13947.67, 0.00, -0.748, 0.558, -0.304, 14:55:49.506, 1551729349506
21, -18088.13, 0.00, 0.00, 0.00, 0.00, 0.00, -13964.52, 0.00, 0.000, 0.000, 0.000, 14:55:49.512, 1551729349512
22, -18076.21, 0.00, 0.00, 0.00, 0.00, 0.00, -13974.49, 0.00, 0.000, 0.000, 0.000, 14:55:49.521, 1551729349521
23, -18049.75, 0.00, 0.00, 0.00, 0.00, 0.00, -13953.59, 0.00, 0.000, 0.000, 0.000, 14:55:49.521, 1551729349521
24, -18044.14, 0.00, 0.00, 0.00, 0.00, 0.00, -13924.00, 0.00, 0.000, 0.000, 0.000, 14:55:49.529, 1551729349529
25, -18063.23, 0.00, 0.00, 0.00, 0.00, 0.00, -13932.78, 0.00, 0.000, 0.000, 0.000, 14:55:49.529, 1551729349529
26, -18068.30, 0.00, 0.00, 0.00, 0.00, 0.00, -13960.81, 0.00, 0.000, 0.000, 0.000, 14:55:49.537, 1551729349537
27, -18051.92, 0.00, 0.00, 0.00, 0.00, 0.00, -13952.18, 0.00, 0.000, 0.000, 0.000, 14:55:49.537, 1551729349537
28, -18043.69, 0.00, 0.00, 0.00, 0.00, 0.00, -13927.37, 0.00, 0.000, 0.000, 0.000, 14:55:49.543, 1551729349543
29, -18065.55, 0.00, 0.00, 0.00, 0.00, 0.00, -13937.23, 0.00, 0.000, 0.000, 0.000, 14:55:49.543, 1551729349543
30, -18075.92, 0.00, 0.00, 0.00, 0.00, 0.00, -13968.28, 0.00, -0.748, 0.558, -0.312, 14:55:49.551, 1551729349551
31, -18059.11, 0.00, 0.00, 0.00, 0.00, 0.00, -13964.27, 0.00, 0.000, 0.000, 0.000, 14:55:49.552, 1551729349552
32, -18047.85, 0.00, 0.00, 0.00, 0.00, 0.00, -13939.46, 0.00, 0.000, 0.000, 0.000, 14:55:49.566, 1551729349566
33, -18059.47, 0.00, 0.00, 0.00, 0.00, 0.00, -13933.43, 0.00, 0.000, 0.000, 0.000, 14:55:49.567, 1551729349567
34, -18070.16, 0.00, 0.00, 0.00, 0.00, 0.00, -13963.85, 0.00, 0.000, 0.000, 0.000, 14:55:49.567, 1551729349567
35, -18052.92, 0.00, 0.00, 0.00, 0.00, 0.00, -13959.87, 0.00, 0.000, 0.000, 0.000, 14:55:49.568, 1551729349568
36, -18055.02, 0.00, 0.00, 0.00, 0.00, 0.00, -13945.77, 0.00, 0.000, 0.000, 0.000, 14:55:49.573, 1551729349573
37, -18047.29, 0.00, 0.00, 0.00, 0.00, 0.00, -13926.77, 0.00, 0.000, 0.000, 0.000, 14:55:49.573, 1551729349573
38, -18068.28, 0.00, 0.00, 0.00, 0.00, 0.00, -13957.43, 0.00, 0.000, 0.000, 0.000, 14:55:49.581, 1551729349581
39, -18056.65, 0.00, 0.00, 0.00, 0.00, 0.00, -13967.69, 0.00, 0.000, 0.000, 0.000, 14:55:49.589, 1551729349589
40, -18048.99, 0.00, 0.00, 0.00, 0.00, 0.00, -13950.01, 0.00, -0.754, 0.560, -0.314, 14:55:49.589, 1551729349589
41, -18047.83, 0.00, 0.00, 0.00, 0.00, 0.00, -13927.44, 0.00, 0.000, 0.000, 0.000, 14:55:49.596, 1551729349596
42, -18071.56, 0.00, 0.00, 0.00, 0.00, 0.00, -13953.50, 0.00, 0.000, 0.000, 0.000, 14:55:49.596, 1551729349596
43, -18062.71, 0.00, 0.00, 0.00, 0.00, 0.00, -13966.84, 0.00, 0.000, 0.000, 0.000, 14:55:49.605, 1551729349605
44, -18049.73, 0.00, 0.00, 0.00, 0.00, 0.00, -13952.34, 0.00, 0.000, 0.000, 0.000, 14:55:49.605, 1551729349605
45, -18043.94, 0.00, 0.00, 0.00, 0.00, 0.00, -13926.46, 0.00, 0.000, 0.000, 0.000, 14:55:49.611, 1551729349611
46, -18067.41, 0.00, 0.00, 0.00, 0.00, 0.00, -13944.85, 0.00, 0.000, 0.000, 0.000, 14:55:49.612, 1551729349612
47, -18063.88, 0.00, 0.00, 0.00, 0.00, 0.00, -13968.48, 0.00, 0.000, 0.000, 0.000, 14:55:49.618, 1551729349618
48, -18049.90, 0.00, 0.00, 0.00, 0.00, 0.00, -13954.84, 0.00, 0.000, 0.000, 0.000, 14:55:49.619, 1551729349619
49, -18041.23, 0.00, 0.00, 0.00, 0.00, 0.00, -13925.92, 0.00, 0.000, 0.000, 0.000, 14:55:49.627, 1551729349627
50, -18063.90, 0.00, 0.00, 0.00, 0.00, 0.00, -13935.13, 0.00, -0.748, 0.556, -0.304, 14:55:49.627, 1551729349627
51, -18065.15, 0.00, 0.00, 0.00, 0.00, 0.00, -13960.43, 0.00, 0.000, 0.000, 0.000, 14:55:49.634, 1551729349634
52, -18049.57, 0.00, 0.00, 0.00, 0.00, 0.00, -13953.88, 0.00, 0.000, 0.000, 0.000, 14:55:49.635, 1551729349635
53, -18038.33, 0.00, 0.00, 0.00, 0.00, 0.00, -13928.40, 0.00, 0.000, 0.000, 0.000, 14:55:49.641, 1551729349641
54, -18054.55, 0.00, 0.00, 0.00, 0.00, 0.00, -13929.25, 0.00, 0.000, 0.000, 0.000, 14:55:49.648, 1551729349648
55, -18064.01, 0.00, 0.00, 0.00, 0.00, 0.00, -13958.80, 0.00, 0.000, 0.000, 0.000, 14:55:49.648, 1551729349648
56, -18047.29, 0.00, 0.00, 0.00, 0.00, 0.00, -13955.67, 0.00, 0.000, 0.000, 0.000, 14:55:49.656, 1551729349656
57, -18043.33, 0.00, 0.00, 0.00, 0.00, 0.00, -13936.60, 0.00, 0.000, 0.000, 0.000, 14:55:49.656, 1551729349656
58, -18050.49, 0.00, 0.00, 0.00, 0.00, 0.00, -13925.56, 0.00, 0.000, 0.000, 0.000, 14:55:49.664, 1551729349664
59, -18071.65, 0.00, 0.00, 0.00, 0.00, 0.00, -13961.70, 0.00, 0.000, 0.000, 0.000, 14:55:49.665, 1551729349665
60, -18060.25, 0.00, 0.00, 0.00, 0.00, 0.00, -13964.34, 0.00, -0.754, 0.554, -0.304, 14:55:49.672, 1551729349672
61, -18053.06, 0.00, 0.00, 0.00, 0.00, 0.00, -13945.79, 0.00, 0.000, 0.000, 0.000, 14:55:49.672, 1551729349672
62, -18045.17, 0.00, 0.00, 0.00, 0.00, 0.00, -13925.36, 0.00, 0.000, 0.000, 0.000, 14:55:49.678, 1551729349678
63, -18076.55, 0.00, 0.00, 0.00, 0.00, 0.00, -13962.93, 0.00, 0.000, 0.000, 0.000, 14:55:49.678, 1551729349678
64, -18061.46, 0.00, 0.00, 0.00, 0.00, 0.00, -13971.78, 0.00, 0.000, 0.000, 0.000, 14:55:49.686, 1551729349686
65, -18047.27, 0.00, 0.00, 0.00, 0.00, 0.00, -13950.66, 0.00, 0.000, 0.000, 0.000, 14:55:49.687, 1551729349687
66, -18053.48, 0.00, 0.00, 0.00, 0.00, 0.00, -13927.53, 0.00, 0.000, 0.000, 0.000, 14:55:49.700, 1551729349700
67, -18074.07, 0.00, 0.00, 0.00, 0.00, 0.00, -13949.28, 0.00, 0.000, 0.000, 0.000, 14:55:49.701, 1551729349701
68, -18059.09, 0.00, 0.00, 0.00, 0.00, 0.00, -13962.22, 0.00, 0.000, 0.000, 0.000, 14:55:49.702, 1551729349702
69, -18049.75, 0.00, 0.00, 0.00, 0.00, 0.00, -13953.05, 0.00, 0.000, 0.000, 0.000, 14:55:49.708, 1551729349708
70, -18044.99, 0.00, 0.00, 0.00, 0.00, 0.00, -13927.80, 0.00, -0.750, 0.554, -0.306, 14:55:49.708, 1551729349708
71, -18070.13, 0.00, 0.00, 0.00, 0.00, 0.00, -13944.72, 0.00, 0.000, 0.000, 0.000, 14:55:49.716, 1551729349716
72, -18064.34, 0.00, 0.00, 0.00, 0.00, 0.00, -13967.02, 0.00, 0.000, 0.000, 0.000, 14:55:49.717, 1551729349717
73, -18052.74, 0.00, 0.00, 0.00, 0.00, 0.00, -13962.53, 0.00, 0.000, 0.000, 0.000, 14:55:49.724, 1551729349724
74, -18052.74, 0.00, 0.00, 0.00, 0.00, 0.00, -13942.10, 0.00, 0.000, 0.000, 0.000, 14:55:49.724, 1551729349724
75, -18068.12, 0.00, 0.00, 0.00, 0.00, 0.00, -13945.45, 0.00, 0.000, 0.000, 0.000, 14:55:49.731, 1551729349731
76, -18066.38, 0.00, 0.00, 0.00, 0.00, 0.00, -13971.78, 0.00, 0.000, 0.000, 0.000, 14:55:49.732, 1551729349732
77, -18052.47, 0.00, 0.00, 0.00, 0.00, 0.00, -13966.91, 0.00, 0.000, 0.000, 0.000, 14:55:49.739, 1551729349739
78, -18046.55, 0.00, 0.00, 0.00, 0.00, 0.00, -13942.73, 0.00, 0.000, 0.000, 0.000, 14:55:49.739, 1551729349739
79, -18061.62, 0.00, 0.00, 0.00, 0.00, 0.00, -13941.25, 0.00, -0.752, 0.560, -0.306, 14:55:49.747, 1551729349747
80, -18069.69, 0.00, 0.00, 0.00, 0.00, 0.00, -13973.68, 0.00, 0.000, 0.000, 0.000, 14:55:49.747, 1551729349747
81, -18052.30, 0.00, 0.00, 0.00, 0.00, 0.00, -13970.24, 0.00, 0.000, 0.000, 0.000, 14:55:49.754, 1551729349754
82, -18047.07, 0.00, 0.00, 0.00, 0.00, 0.00, -13949.19, 0.00, 0.000, 0.000, 0.000, 14:55:49.754, 1551729349754
83, -18056.16, 0.00, 0.00, 0.00, 0.00, 0.00, -13941.65, 0.00, 0.000, 0.000, 0.000, 14:55:49.761, 1551729349761
84, -18074.74, 0.00, 0.00, 0.00, 0.00, 0.00, -13973.26, 0.00, 0.000, 0.000, 0.000, 14:55:49.769, 1551729349769
85, -18055.65, 0.00, 0.00, 0.00, 0.00, 0.00, -13976.30, 0.00, 0.000, 0.000, 0.000, 14:55:49.769, 1551729349769
86, -18041.93, 0.00, 0.00, 0.00, 0.00, 0.00, -13951.20, 0.00, 0.000, 0.000, 0.000, 14:55:49.776, 1551729349776
87, -18056.21, 0.00, 0.00, 0.00, 0.00, 0.00, -13933.85, 0.00, 0.000, 0.000, 0.000, 14:55:49.777, 1551729349777
88, -18064.59, 0.00, 0.00, 0.00, 0.00, 0.00, -13956.85, 0.00, 0.000, 0.000, 0.000, 14:55:49.783, 1551729349783
89, -18051.13, 0.00, 0.00, 0.00, 0.00, 0.00, -13968.54, 0.00, -0.752, 0.560, -0.304, 14:55:49.784, 1551729349784
90, -18034.68, 0.00, 0.00, 0.00, 0.00, 0.00, -13950.64, 0.00, 0.000, 0.000, 0.000, 14:55:49.791, 1551729349791
91, -18037.16, 0.00, 0.00, 0.00, 0.00, 0.00, -13928.80, 0.00, 0.000, 0.000, 0.000, 14:55:49.791, 1551729349791
92, -18063.32, 0.00, 0.00, 0.00, 0.00, 0.00, -13952.58, 0.00, 0.000, 0.000, 0.000, 14:55:49.800, 1551729349800
93, -18054.31, 0.00, 0.00, 0.00, 0.00, 0.00, -13969.04, 0.00, 0.000, 0.000, 0.000, 14:55:49.800, 1551729349800
94, -18036.20, 0.00, 0.00, 0.00, 0.00, 0.00, -13951.89, 0.00, 0.000, 0.000, 0.000, 14:55:49.807, 1551729349807
95, -18032.83, 0.00, 0.00, 0.00, 0.00, 0.00, -13927.86, 0.00, 0.000, 0.000, 0.000, 14:55:49.807, 1551729349807
96, -18060.81, 0.00, 0.00, 0.00, 0.00, 0.00, -13948.09, 0.00, 0.000, 0.000, 0.000, 14:55:49.814, 1551729349814
97, -18064.50, 0.00, 0.00, 0.00, 0.00, 0.00, -13976.70, 0.00, 0.000, 0.000, 0.000, 14:55:49.814, 1551729349814
98, -18047.85, 0.00, 0.00, 0.00, 0.00, 0.00, -13965.82, 0.00, 0.000, 0.000, 0.000, 14:55:49.821, 1551729349821
99, -18038.91, 0.00, 0.00, 0.00, 0.00, 0.00, -13937.12, 0.00, -0.752, 0.562, -0.308, 14:55:49.822, 1551729349822
100, -18063.03, 0.00, 0.00, 0.00, 0.00, 0.00, -13944.16, 0.00, 0.000, 0.000, 0.000, 14:55:49.830, 1551729349830
101, -18062.27, 0.00, 0.00, 0.00, 0.00, 0.00, -13969.35, 0.00, 0.000, 0.000, 0.000, 14:55:49.837, 1551729349837
102, -18040.34, 0.00, 0.00, 0.00, 0.00, 0.00, -13960.25, 0.00, 0.000, 0.000, 0.000, 14:55:49.837, 1551729349837
103, -18036.83, 0.00, 0.00, 0.00, 0.00, 0.00, -13938.82, 0.00, 0.000, 0.000, 0.000, 14:55:49.843, 1551729349843
104, -18051.58, 0.00, 0.00, 0.00, 0.00, 0.00, -13931.71, 0.00, 0.000, 0.000, 0.000, 14:55:49.844, 1551729349844
105, -18074.45, 0.00, 0.00, 0.00, 0.00, 0.00, -13966.06, 0.00, 0.000, 0.000, 0.000, 14:55:49.852, 1551729349852
106, -18062.20, 0.00, 0.00, 0.00, 0.00, 0.00, -13966.02, 0.00, 0.000, 0.000, 0.000, 14:55:49.852, 1551729349852
107, -18036.99, 0.00, 0.00, 0.00, 0.00, 0.00, -13939.93, 0.00, 0.000, 0.000, 0.000, 14:55:49.859, 1551729349859
108, -18037.21, 0.00, 0.00, 0.00, 0.00, 0.00, -13924.31, 0.00, 0.000, 0.000, 0.000, 14:55:49.860, 1551729349860
109, -18063.20, 0.00, 0.00, 0.00, 0.00, 0.00, -13959.83, 0.00, -0.752, 0.558, -0.308, 14:55:49.867, 1551729349867
110, -18046.17, 0.00, 0.00, 0.00, 0.00, 0.00, -13963.51, 0.00, 0.000, 0.000, 0.000, 14:55:49.867, 1551729349867
111, -18035.62, 0.00, 0.00, 0.00, 0.00, 0.00, -13944.38, 0.00, 0.000, 0.000, 0.000, 14:55:49.874, 1551729349874
112, -18037.05, 0.00, 0.00, 0.00, 0.00, 0.00, -13922.90, 0.00, 0.000, 0.000, 0.000, 14:55:49.874, 1551729349874
113, -18061.93, 0.00, 0.00, 0.00, 0.00, 0.00, -13951.65, 0.00, 0.000, 0.000, 0.000, 14:55:49.883, 1551729349883
114, -18057.84, 0.00, 0.00, 0.00, 0.00, 0.00, -13967.65, 0.00, 0.000, 0.000, 0.000, 14:55:49.883, 1551729349883
115, -18042.37, 0.00, 0.00, 0.00, 0.00, 0.00, -13947.94, 0.00, 0.000, 0.000, 0.000, 14:55:49.889, 1551729349889
116, -18039.24, 0.00, 0.00, 0.00, 0.00, 0.00, -13925.43, 0.00, 0.000, 0.000, 0.000, 14:55:49.897, 1551729349897
117, -18059.14, 0.00, 0.00, 0.00, 0.00, 0.00, -13945.12, 0.00, 0.000, 0.000, 0.000, 14:55:49.897, 1551729349897
118, -18056.81, 0.00, 0.00, 0.00, 0.00, 0.00, -13967.02, 0.00, 0.000, 0.000, 0.000, 14:55:49.904, 1551729349904
119, -18044.90, 0.00, 0.00, 0.00, 0.00, 0.00, -13960.65, 0.00, -0.746, 0.564, -0.304, 14:55:49.905, 1551729349905
120, -18033.34, 0.00, 0.00, 0.00, 0.00, 0.00, -13935.55, 0.00, 0.000, 0.000, 0.000, 14:55:49.912, 1551729349912
121, -18055.00, 0.00, 0.00, 0.00, 0.00, 0.00, -13946.57, 0.00, 0.000, 0.000, 0.000, 14:55:49.912, 1551729349912
122, -18064.68, 0.00, 0.00, 0.00, 0.00, 0.00, -13976.86, 0.00, 0.000, 0.000, 0.000, 14:55:49.918, 1551729349918
123, -18050.42, 0.00, 0.00, 0.00, 0.00, 0.00, -13970.17, 0.00, 0.000, 0.000, 0.000, 14:55:49.918, 1551729349918
124, -18036.65, 0.00, 0.00, 0.00, 0.00, 0.00, -13942.97, 0.00, 0.000, 0.000, 0.000, 14:55:49.926, 1551729349926
125, -18061.13, 0.00, 0.00, 0.00, 0.00, 0.00, -13947.62, 0.00, 0.000, 0.000, 0.000, 14:55:49.926, 1551729349926
126, -18071.07, 0.00, 0.00, 0.00, 0.00, 0.00, -13979.65, 0.00, 0.000, 0.000, 0.000, 14:55:49.937, 1551729349937
127, -18047.04, 0.00, 0.00, 0.00, 0.00, 0.00, -13972.01, 0.00, 0.000, 0.000, 0.000, 14:55:49.937, 1551729349937
128, -18042.08, 0.00, 0.00, 0.00, 0.00, 0.00, -13950.06, 0.00, 0.000, 0.000, 0.000, 14:55:49.941, 1551729349941
129, -18048.88, 0.00, 0.00, 0.00, 0.00, 0.00, -13938.93, 0.00, -0.744, 0.564, -0.300, 14:55:49.941, 1551729349941
130, -18063.81, 0.00, 0.00, 0.00, 0.00, 0.00, -13971.90, 0.00, 0.000, 0.000, 0.000, 14:55:49.948, 1551729349948
131, -18049.97, 0.00, 0.00, 0.00, 0.00, 0.00, -13969.28, 0.00, 0.000, 0.000, 0.000, 14:55:49.956, 1551729349956
132, -18044.25, 0.00, 0.00, 0.00, 0.00, 0.00, -13951.53, 0.00, 0.000, 0.000, 0.000, 14:55:49.956, 1551729349956
133, -18050.24, 0.00, 0.00, 0.00, 0.00, 0.00, -13935.31, 0.00, 0.000, 0.000, 0.000, 14:55:49.965, 1551729349965
134, -18071.09, 0.00, 0.00, 0.00, 0.00, 0.00, -13965.19, 0.00, 0.000, 0.000, 0.000, 14:55:49.965, 1551729349965
135, -18060.32, 0.00, 0.00, 0.00, 0.00, 0.00, -13975.29, 0.00, 0.000, 0.000, 0.000, 14:55:49.971, 1551729349971
136, -18042.44, 0.00, 0.00, 0.00, 0.00, 0.00, -13956.92, 0.00, 0.000, 0.000, 0.000, 14:55:49.972, 1551729349972
137, -18044.59, 0.00, 0.00, 0.00, 0.00, 0.00, -13936.63, 0.00, 0.000, 0.000, 0.000, 14:55:49.979, 1551729349979
138, -18065.53, 0.00, 0.00, 0.00, 0.00, 0.00, -13960.99, 0.00, 0.000, 0.000, 0.000, 14:55:49.979, 1551729349979
139, -18051.85, 0.00, 0.00, 0.00, 0.00, 0.00, -13974.80, 0.00, -0.752, 0.566, -0.304, 14:55:49.987, 1551729349987
140, -18040.72, 0.00, 0.00, 0.00, 0.00, 0.00, -13960.16, 0.00, 0.000, 0.000, 0.000, 14:55:49.987, 1551729349987
141, -18038.73, 0.00, 0.00, 0.00, 0.00, 0.00, -13936.63, 0.00, 0.000, 0.000, 0.000, 14:55:49.995, 1551729349995
142, -18059.47, 0.00, 0.00, 0.00, 0.00, 0.00, -13952.47, 0.00, 0.000, 0.000, 0.000, 14:55:49.995, 1551729349995
143, -18058.02, 0.00, 0.00, 0.00, 0.00, 0.00, -13974.53, 0.00, 0.000, 0.000, 0.000, 14:55:50.002, 1551729350002
144, -18045.37, 0.00, 0.00, 0.00, 0.00, 0.00, -13966.62, 0.00, 0.000, 0.000, 0.000, 14:55:50.002, 1551729350002
145, -18044.47, 0.00, 0.00, 0.00, 0.00, 0.00, -13942.46, 0.00, 0.000, 0.000, 0.000, 14:55:50.008, 1551729350008
146, -18065.01, 0.00, 0.00, 0.00, 0.00, 0.00, -13948.07, 0.00, 0.000, 0.000, 0.000, 14:55:50.016, 1551729350016
147, -18071.59, 0.00, 0.00, 0.00, 0.00, 0.00, -13982.54, 0.00, 0.000, 0.000, 0.000, 14:55:50.016, 1551729350016
148, -18055.87, 0.00, 0.00, 0.00, 0.00, 0.00, -13973.26, 0.00, -0.752, 0.568, -0.306, 14:55:50.024, 1551729350024
149, -18047.78, 0.00, 0.00, 0.00, 0.00, 0.00, -13946.97, 0.00, 0.000, 0.000, 0.000, 14:55:50.025, 1551729350025
150, -18057.79, 0.00, 0.00, 0.00, 0.00, 0.00, -13939.53, 0.00, 0.000, 0.000, 0.000, 14:55:50.031, 1551729350031
151, -18083.37, 0.00, 0.00, 0.00, 0.00, 0.00, -13977.55, 0.00, 0.000, 0.000, 0.000, 14:55:50.031, 1551729350031
152, -18067.67, 0.00, 0.00, 0.00, 0.00, 0.00, -13979.25, 0.00, 0.000, 0.000, 0.000, 14:55:50.039, 1551729350039
153, -18049.17, 0.00, 0.00, 0.00, 0.00, 0.00, -13955.83, 0.00, 0.000, 0.000, 0.000, 14:55:50.040, 1551729350040
154, -18064.86, 0.00, 0.00, 0.00, 0.00, 0.00, -13949.41, 0.00, 0.000, 0.000, 0.000, 14:55:50.047, 1551729350047
155, -18083.14, 0.00, 0.00, 0.00, 0.00, 0.00, -13982.76, 0.00, 0.000, 0.000, 0.000, 14:55:50.047, 1551729350047
156, -18057.28, 0.00, 0.00, 0.00, 0.00, 0.00, -13979.45, 0.00, 0.000, 0.000, 0.000, 14:55:50.054, 1551729350054
157, -18045.88, 0.00, 0.00, 0.00, 0.00, 0.00, -13959.87, 0.00, 0.000, 0.000, 0.000, 14:55:50.054, 1551729350054
158, -18048.83, 0.00, 0.00, 0.00, 0.00, 0.00, -13938.75, 0.00, -0.752, 0.572, -0.308, 14:55:50.061, 1551729350061
159, -18069.19, 0.00, 0.00, 0.00, 0.00, 0.00, -13964.18, 0.00, 0.000, 0.000, 0.000, 14:55:50.062, 1551729350062
160, -18058.62, 0.00, 0.00, 0.00, 0.00, 0.00, -13977.46, 0.00, 0.000, 0.000, 0.000, 14:55:50.070, 1551729350070
161, -18045.32, 0.00, 0.00, 0.00, 0.00, 0.00, -13960.81, 0.00, 0.000, 0.000, 0.000, 14:55:50.071, 1551729350071
162, -18049.50, 0.00, 0.00, 0.00, 0.00, 0.00, -13940.72, 0.00, 0.000, 0.000, 0.000, 14:55:50.077, 1551729350077
163, -18077.11, 0.00, 0.00, 0.00, 0.00, 0.00, -13967.16, 0.00, 0.000, 0.000, 0.000, 14:55:50.083, 1551729350083
164, -18068.72, 0.00, 0.00, 0.00, 0.00, 0.00, -13984.55, 0.00, 0.000, 0.000, 0.000, 14:55:50.084, 1551729350084
165, -18057.66, 0.00, 0.00, 0.00, 0.00, 0.00, -13969.21, 0.00, 0.000, 0.000, 0.000, 14:55:50.091, 1551729350091
166, -18052.63, 0.00, 0.00, 0.00, 0.00, 0.00, -13943.49, 0.00, 0.000, 0.000, 0.000, 14:55:50.092, 1551729350092
167, -18077.78, 0.00, 0.00, 0.00, 0.00, 0.00, -13957.79, 0.00, 0.000, 0.000, 0.000, 14:55:50.099, 1551729350099
168, -18075.23, 0.00, 0.00, 0.00, 0.00, 0.00, -13981.95, 0.00, -0.756, 0.564, -0.306, 14:55:50.099, 1551729350099
169, -18061.59, 0.00, 0.00, 0.00, 0.00, 0.00, -13973.46, 0.00, 0.000, 0.000, 0.000, 14:55:50.107, 1551729350107
170, -18053.88, 0.00, 0.00, 0.00, 0.00, 0.00, -13947.29, 0.00, 0.000, 0.000, 0.000, 14:55:50.107, 1551729350107
171, -18076.57, 0.00, 0.00, 0.00, 0.00, 0.00, -13956.23, 0.00, 0.000, 0.000, 0.000, 14:55:50.115, 1551729350115
172, -18096.44, 0.00, 0.00, 0.00, 0.00, 0.00, -13993.85, 0.00, 0.000, 0.000, 0.000, 14:55:50.115, 1551729350115
173, -18068.39, 0.00, 0.00, 0.00, 0.00, 0.00, -13985.20, 0.00, 0.000, 0.000, 0.000, 14:55:50.122, 1551729350122
174, -18060.52, 0.00, 0.00, 0.00, 0.00, 0.00, -13958.75, 0.00, 0.000, 0.000, 0.000, 14:55:50.122, 1551729350122
175, -18072.55, 0.00, 0.00, 0.00, 0.00, 0.00, -13953.88, 0.00, 0.000, 0.000, 0.000, 14:55:50.130, 1551729350130
176, -18084.68, 0.00, 0.00, 0.00, 0.00, 0.00, -13983.61, 0.00, 0.000, 0.000, 0.000, 14:55:50.131, 1551729350131
177, -18072.35, 0.00, 0.00, 0.00, 0.00, 0.00, -13984.21, 0.00, 0.000, 0.000, 0.000, 14:55:50.137, 1551729350137
178, -18058.71, 0.00, 0.00, 0.00, 0.00, 0.00, -13959.65, 0.00, -0.752, 0.554, -0.304, 14:55:50.145, 1551729350145
179, -18068.21, 0.00, 0.00, 0.00, 0.00, 0.00, -13950.59, 0.00, 0.000, 0.000, 0.000, 14:55:50.146, 1551729350146
180, -18086.72, 0.00, 0.00, 0.00, 0.00, 0.00, -13982.78, 0.00, 0.000, 0.000, 0.000, 14:55:50.152, 1551729350152
181, -18070.96, 0.00, 0.00, 0.00, 0.00, 0.00, -13988.41, 0.00, 0.000, 0.000, 0.000, 14:55:50.152, 1551729350152
182, -18055.27, 0.00, 0.00, 0.00, 0.00, 0.00, -13966.96, 0.00, 0.000, 0.000, 0.000, 14:55:50.160, 1551729350160
183, -18062.44, 0.00, 0.00, 0.00, 0.00, 0.00, -13946.57, 0.00, 0.000, 0.000, 0.000, 14:55:50.160, 1551729350160
184, -18083.63, 0.00, 0.00, 0.00, 0.00, 0.00, -13970.17, 0.00, 0.000, 0.000, 0.000, 14:55:50.166, 1551729350166
185, -18067.81, 0.00, 0.00, 0.00, 0.00, 0.00, -13983.38, 0.00, 0.000, 0.000, 0.000, 14:55:50.166, 1551729350166
186, -18059.81, 0.00, 0.00, 0.00, 0.00, 0.00, -13971.07, 0.00, 0.000, 0.000, 0.000, 14:55:50.175, 1551729350175
187, -18056.14, 0.00, 0.00, 0.00, 0.00, 0.00, -13946.17, 0.00, 0.000, 0.000, 0.000, 14:55:50.178, 1551729350178
188, -18075.77, 0.00, 0.00, 0.00, 0.00, 0.00, -13963.00, 0.00, -0.752, 0.562, -0.306, 14:55:50.183, 1551729350183
189, -18069.71, 0.00, 0.00, 0.00, 0.00, 0.00, -13982.49, 0.00, 0.000, 0.000, 0.000, 14:55:50.184, 1551729350184
190, -18058.73, 0.00, 0.00, 0.00, 0.00, 0.00, -13969.75, 0.00, 0.000, 0.000, 0.000, 14:55:50.189, 1551729350189
191, -18065.84, 0.00, 0.00, 0.00, 0.00, 0.00, -13948.54, 0.00, 0.000, 0.000, 0.000, 14:55:50.189, 1551729350189
192, -18068.37, 0.00, 0.00, 0.00, 0.00, 0.00, -13951.94, 0.00, 0.000, 0.000, 0.000, 14:55:50.196, 1551729350196
193, -18074.89, 0.00, 0.00, 0.00, 0.00, 0.00, -13979.12, 0.00, 0.000, 0.000, 0.000, 14:55:50.205, 1551729350205
194, -18058.91, 0.00, 0.00, 0.00, 0.00, 0.00, -13971.83, 0.00, 0.000, 0.000, 0.000, 14:55:50.205, 1551729350205
195, -18052.07, 0.00, 0.00, 0.00, 0.00, 0.00, -13948.09, 0.00, 0.000, 0.000, 0.000, 14:55:50.212, 1551729350212
196, -18067.00, 0.00, 0.00, 0.00, 0.00, 0.00, -13945.95, 0.00, 0.000, 0.000, 0.000, 14:55:50.213, 1551729350213
197, -18072.32, 0.00, 0.00, 0.00, 0.00, 0.00, -13973.51, 0.00, 0.000, 0.000, 0.000, 14:55:50.218, 1551729350218
198, -18054.46, 0.00, 0.00, 0.00, 0.00, 0.00, -13968.88, 0.00, -0.752, 0.556, -0.304, 14:55:50.219, 1551729350219
199, -18050.80, 0.00, 0.00, 0.00, 0.00, 0.00, -13947.35, 0.00, 0.000, 0.000, 0.000, 14:55:50.227, 1551729350227
200, -18063.81, 0.00, 0.00, 0.00, 0.00, 0.00, -13938.95, 0.00, 0.000, 0.000, 0.000, 14:55:50.227, 1551729350227
201, -18075.83, 0.00, 0.00, 0.00, 0.00, 0.00, -13969.08, 0.00, 0.000, 0.000, 0.000, 14:55:50.235, 1551729350235
202, -18059.96, 0.00, 0.00, 0.00, 0.00, 0.00, -13975.76, 0.00, 0.000, 0.000, 0.000, 14:55:50.235, 1551729350235
203, -18051.69, 0.00, 0.00, 0.00, 0.00, 0.00, -13956.67, 0.00, 0.000, 0.000, 0.000, 14:55:50.242, 1551729350242
204, -18058.51, 0.00, 0.00, 0.00, 0.00, 0.00, -13941.30, 0.00, 0.000, 0.000, 0.000, 14:55:50.243, 1551729350243
205, -18075.63, 0.00, 0.00, 0.00, 0.00, 0.00, -13972.52, 0.00, 0.000, 0.000, 0.000, 14:55:50.249, 1551729350249
206, -18062.13, 0.00, 0.00, 0.00, 0.00, 0.00, -13981.55, 0.00, 0.000, 0.000, 0.000, 14:55:50.249, 1551729350249
207, -18057.57, 0.00, 0.00, 0.00, 0.00, 0.00, -13965.12, 0.00, -0.756, 0.554, -0.306, 14:55:50.257, 1551729350257
208, -18058.29, 0.00, 0.00, 0.00, 0.00, 0.00, -13940.11, 0.00, 0.000, 0.000, 0.000, 14:55:50.264, 1551729350264
209, -18078.54, 0.00, 0.00, 0.00, 0.00, 0.00, -13967.31, 0.00, 0.000, 0.000, 0.000, 14:55:50.264, 1551729350264
210, -18078.16, 0.00, 0.00, 0.00, 0.00, 0.00, -13987.94, 0.00, 0.000, 0.000, 0.000, 14:55:50.271, 1551729350271
211, -18061.48, 0.00, 0.00, 0.00, 0.00, 0.00, -13968.70, 0.00, 0.000, 0.000, 0.000, 14:55:50.271, 1551729350271
212, -18060.52, 0.00, 0.00, 0.00, 0.00, 0.00, -13944.09, 0.00, 0.000, 0.000, 0.000, 14:55:50.281, 1551729350281
213, -18079.81, 0.00, 0.00, 0.00, 0.00, 0.00, -13959.94, 0.00, 0.000, 0.000, 0.000, 14:55:50.281, 1551729350281
214, -18077.22, 0.00, 0.00, 0.00, 0.00, 0.00, -13981.51, 0.00, 0.000, 0.000, 0.000, 14:55:50.287, 1551729350287
215, -18059.63, 0.00, 0.00, 0.00, 0.00, 0.00, -13966.69, 0.00, 0.000, 0.000, 0.000, 14:55:50.287, 1551729350287
216, -18055.80, 0.00, 0.00, 0.00, 0.00, 0.00, -13942.03, 0.00, 0.000, 0.000, 0.000, 14:55:50.295, 1551729350295
217, -18076.73, 0.00, 0.00, 0.00, 0.00, 0.00, -13953.41, 0.00, -0.752, 0.562, -0.302, 14:55:50.295, 1551729350295
218, -18086.25, 0.00, 0.00, 0.00, 0.00, 0.00, -13983.94, 0.00, 0.000, 0.000, 0.000, 14:55:50.301, 1551729350301
219, -18069.69, 0.00, 0.00, 0.00, 0.00, 0.00, -13978.20, 0.00, 0.000, 0.000, 0.000, 14:55:50.302, 1551729350302
220, -18061.82, 0.00, 0.00, 0.00, 0.00, 0.00, -13955.85, 0.00, 0.000, 0.000, 0.000, 14:55:50.310, 1551729350310
221, -18081.42, 0.00, 0.00, 0.00, 0.00, 0.00, -13954.33, 0.00, 0.000, 0.000, 0.000, 14:55:50.310, 1551729350310
222, -18087.61, 0.00, 0.00, 0.00, 0.00, 0.00, -13984.41, 0.00, 0.000, 0.000, 0.000, 14:55:50.317, 1551729350317
223, -18069.96, 0.00, 0.00, 0.00, 0.00, 0.00, -13981.13, 0.00, 0.000, 0.000, 0.000, 14:55:50.318, 1551729350318
224, -18058.26, 0.00, 0.00, 0.00, 0.00, 0.00, -13956.18, 0.00, 0.000, 0.000, 0.000, 14:55:50.323, 1551729350323
225, -18075.05, 0.00, 0.00, 0.00, 0.00, 0.00, -13951.40, 0.00, 0.000, 0.000, 0.000, 14:55:50.331, 1551729350331
226, -18093.09, 0.00, 0.00, 0.00, 0.00, 0.00, -13983.99, 0.00, 0.000, 0.000, 0.000, 14:55:50.331, 1551729350331
227, -18069.73, 0.00, 0.00, 0.00, 0.00, 0.00, -13987.92, 0.00, -0.754, 0.556, -0.300, 14:55:50.339, 1551729350339
228, -18065.80, 0.00, 0.00, 0.00, 0.00, 0.00, -13974.06, 0.00, 0.000, 0.000, 0.000, 14:55:50.339, 1551729350339
229, -18074.31, 0.00, 0.00, 0.00, 0.00, 0.00, -13958.08, 0.00, 0.000, 0.000, 0.000, 14:55:50.348, 1551729350348
230, -18098.79, 0.00, 0.00, 0.00, 0.00, 0.00, -13987.92, 0.00, 0.000, 0.000, 0.000, 14:55:50.348, 1551729350348
231, -18084.13, 0.00, 0.00, 0.00, 0.00, 0.00, -13999.10, 0.00, 0.000, 0.000, 0.000, 14:55:50.354, 1551729350354
232, -18066.42, 0.00, 0.00, 0.00, 0.00, 0.00, -13979.03, 0.00, 0.000, 0.000, 0.000, 14:55:50.354, 1551729350354
233, -18068.63, 0.00, 0.00, 0.00, 0.00, 0.00, -13956.16, 0.00, 0.000, 0.000, 0.000, 14:55:50.362, 1551729350362
234, -18091.01, 0.00, 0.00, 0.00, 0.00, 0.00, -13978.38, 0.00, 0.000, 0.000, 0.000, 14:55:50.363, 1551729350363
235, -18086.90, 0.00, 0.00, 0.00, 0.00, 0.00, -13998.54, 0.00, 0.000, 0.000, 0.000, 14:55:50.370, 1551729350370
236, -18069.02, 0.00, 0.00, 0.00, 0.00, 0.00, -13978.92, 0.00, 0.000, 0.000, 0.000, 14:55:50.370, 1551729350370
237, -18063.61, 0.00, 0.00, 0.00, 0.00, 0.00, -13951.53, 0.00, -0.756, 0.554, -0.304, 14:55:50.377, 1551729350377
238, -18086.07, 0.00, 0.00, 0.00, 0.00, 0.00, -13966.73, 0.00, 0.000, 0.000, 0.000, 14:55:50.377, 1551729350377
239, -18089.54, 0.00, 0.00, 0.00, 0.00, 0.00, -13992.46, 0.00, 0.000, 0.000, 0.000, 14:55:50.385, 1551729350385
240, -18076.62, 0.00, 0.00, 0.00, 0.00, 0.00, -13985.35, 0.00, 0.000, 0.000, 0.000, 14:55:50.391, 1551729350391
241, -18072.37, 0.00, 0.00, 0.00, 0.00, 0.00, -13959.11, 0.00, 0.000, 0.000, 0.000, 14:55:50.392, 1551729350392
242, -18092.55, 0.00, 0.00, 0.00, 0.00, 0.00, -13963.65, 0.00, 0.000, 0.000, 0.000, 14:55:50.400, 1551729350400
243, -18099.23, 0.00, 0.00, 0.00, 0.00, 0.00, -13992.73, 0.00, 0.000, 0.000, 0.000, 14:55:50.401, 1551729350401
244, -18080.93, 0.00, 0.00, 0.00, 0.00, 0.00, -13983.68, 0.00, 0.000, 0.000, 0.000, 14:55:50.406, 1551729350406
245, -18071.14, 0.00, 0.00, 0.00, 0.00, 0.00, -13955.36, 0.00, 0.000, 0.000, 0.000, 14:55:50.407, 1551729350407
246, -18086.81, 0.00, 0.00, 0.00, 0.00, 0.00, -13951.87, 0.00, 0.000, 0.000, 0.000, 14:55:50.414, 1551729350414
247, -18095.01, 0.00, 0.00, 0.00, 0.00, 0.00, -13979.38, 0.00, -0.754, 0.554, -0.308, 14:55:50.415, 1551729350415
248, -18076.97, 0.00, 0.00, 0.00, 0.00, 0.00, -13979.09, 0.00, 0.000, 0.000, 0.000, 14:55:50.422, 1551729350422
249, -18070.65, 0.00, 0.00, 0.00, 0.00, 0.00, -13962.89, 0.00, 0.000, 0.000, 0.000, 14:55:50.422, 1551729350422
250, -18082.43, 0.00, 0.00, 0.00, 0.00, 0.00, -13953.28, 0.00, 0.000, 0.000, 0.000, 14:55:50.430, 1551729350430
251, -18100.60, 0.00, 0.00, 0.00, 0.00, 0.00, -13982.38, 0.00, 0.000, 0.000, 0.000, 14:55:50.430, 1551729350430
252, -18080.30, 0.00, 0.00, 0.00, 0.00, 0.00, -13985.93, 0.00, 0.000, 0.000, 0.000, 14:55:50.437, 1551729350437
253, -18071.14, 0.00, 0.00, 0.00, 0.00, 0.00, -13970.35, 0.00, 0.000, 0.000, 0.000, 14:55:50.437, 1551729350437
254, -18075.61, 0.00, 0.00, 0.00, 0.00, 0.00, -13951.00, 0.00, 0.000, 0.000, 0.000, 14:55:50.444, 1551729350444
255, -18101.94, 0.00, 0.00, 0.00, 0.00, 0.00, -13982.85, 0.00, 0.000, 0.000, 0.000, 14:55:50.452, 1551729350452
0, -18092.46, 0.00, 0.00, 0.00, 0.00, 0.00, -13997.27, 0.00, 0.000, 0.000, 0.000, 14:55:50.453, 1551729350453
1, -18076.86, 0.00, 0.00, 0.00, 0.00, 0.00, -13973.51, 0.00, -0.754, 0.562, -0.304, 14:55:50.459, 1551729350459
2, -18078.34, 0.00, 0.00, 0.00, 0.00, 0.00, -13953.25, 0.00, 0.000, 0.000, 0.000, 14:55:50.459, 1551729350459
3, -18101.52, 0.00, 0.00, 0.00, 0.00, 0.00, -13974.44, 0.00, 0.000, 0.000, 0.000, 14:55:50.467, 1551729350467
4, -18096.15, 0.00, 0.00, 0.00, 0.00, 0.00, -13994.23, 0.00, 0.000, 0.000, 0.000, 14:55:50.467, 1551729350467
5, -18075.72, 0.00, 0.00, 0.00, 0.00, 0.00, -13974.89, 0.00, 0.000, 0.000, 0.000, 14:55:50.474, 1551729350474
6, -18072.21, 0.00, 0.00, 0.00, 0.00, 0.00, -13950.28, 0.00, 0.000, 0.000, 0.000, 14:55:50.475, 1551729350475
7, -18091.75, 0.00, 0.00, 0.00, 0.00, 0.00, -13962.82, 0.00, 0.000, 0.000, 0.000, 14:55:50.483, 1551729350483
8, -18092.98, 0.00, 0.00, 0.00, 0.00, 0.00, -13990.13, 0.00, 0.000, 0.000, 0.000, 14:55:50.484, 1551729350484
9, -18081.64, 0.00, 0.00, 0.00, 0.00, 0.00, -13983.41, 0.00, 0.000, 0.000, 0.000, 14:55:50.489, 1551729350489
10, -18076.46, 0.00, 0.00, 0.00, 0.00, 0.00, -13959.02, 0.00, -0.752, 0.556, -0.306, 14:55:50.490, 1551729350490
11, -18091.93, 0.00, 0.00, 0.00, 0.00, 0.00, -13963.13, 0.00, 0.000, 0.000, 0.000, 14:55:50.497, 1551729350497
12, -18099.57, 0.00, 0.00, 0.00, 0.00, 0.00, -13994.76, 0.00, 0.000, 0.000, 0.000, 14:55:50.497, 1551729350497
13, -18077.84, 0.00, 0.00, 0.00, 0.00, 0.00, -13984.68, 0.00, 0.000, 0.000, 0.000, 14:55:50.504, 1551729350504
14, -18063.90, 0.00, 0.00, 0.00, 0.00, 0.00, -13956.34, 0.00, 0.000, 0.000, 0.000, 14:55:50.512, 1551729350512
15, -18074.89, 0.00, 0.00, 0.00, 0.00, 0.00, -13949.43, 0.00, 0.000, 0.000, 0.000, 14:55:50.512, 1551729350512
16, -18089.38, 0.00, 0.00, 0.00, 0.00, 0.00, -13979.32, 0.00, 0.000, 0.000, 0.000, 14:55:50.519, 1551729350519
17, -18074.78, 0.00, 0.00, 0.00, 0.00, 0.00, -13981.73, 0.00, 0.000, 0.000, 0.000, 14:55:50.520, 1551729350520
18, -18067.63, 0.00, 0.00, 0.00, 0.00, 0.00, -13963.51, 0.00, 0.000, 0.000, 0.000, 14:55:50.527, 1551729350527
19, -18074.89, 0.00, 0.00, 0.00, 0.00, 0.00, -13951.31, 0.00, 0.000, 0.000, 0.000, 14:55:50.528, 1551729350528
20, -18088.62, 0.00, 0.00, 0.00, 0.00, 0.00, -13977.46, 0.00, -0.750, 0.552, -0.304, 14:55:50.535, 1551729350535
21, -18071.79, 0.00, 0.00, 0.00, 0.00, 0.00, -13977.80, 0.00, 0.000, 0.000, 0.000, 14:55:50.535, 1551729350535
22, -18060.57, 0.00, 0.00, 0.00, 0.00, 0.00, -13957.70, 0.00, 0.000, 0.000, 0.000, 14:55:50.542, 1551729350542
23, -18070.42, 0.00, 0.00, 0.00, 0.00, 0.00, -13942.75, 0.00, 0.000, 0.000, 0.000, 14:55:50.542, 1551729350542
24, -18097.34, 0.00, 0.00, 0.00, 0.00, 0.00, -13972.61, 0.00, 0.000, 0.000, 0.000, 14:55:50.549, 1551729350549
25, -18084.51, 0.00, 0.00, 0.00, 0.00, 0.00, -13990.49, 0.00, 0.000, 0.000, 0.000, 14:55:50.549, 1551729350549
26, -18073.91, 0.00, 0.00, 0.00, 0.00, 0.00, -13977.77, 0.00, 0.000, 0.000, 0.000, 14:55:50.557, 1551729350557
27, -18081.35, 0.00, 0.00, 0.00, 0.00, 0.00, -13959.94, 0.00, 0.000, 0.000, 0.000, 14:55:50.558, 1551729350558
28, -18102.16, 0.00, 0.00, 0.00, 0.00, 0.00, -13978.53, 0.00, 0.000, 0.000, 0.000, 14:55:50.565, 1551729350565
29, -18097.78, 0.00, 0.00, 0.00, 0.00, 0.00, -13995.48, 0.00, 0.000, 0.000, 0.000, 14:55:50.565, 1551729350565
30, -18077.96, 0.00, 0.00, 0.00, 0.00, 0.00, -13974.13, 0.00, -0.744, 0.556, -0.300, 14:55:50.571, 1551729350571
31, -18073.64, 0.00, 0.00, 0.00, 0.00, 0.00, -13944.96, 0.00, 0.000, 0.000, 0.000, 14:55:50.579, 1551729350579
32, -18101.72, 0.00, 0.00, 0.00, 0.00, 0.00, -13955.18, 0.00, 0.000, 0.000, 0.000, 14:55:50.579, 1551729350579
33, -18093.69, 0.00, 0.00, 0.00, 0.00, 0.00, -13980.55, 0.00, 0.000, 0.000, 0.000, 14:55:50.588, 1551729350588
34, -18074.71, 0.00, 0.00, 0.00, 0.00, 0.00, -13973.80, 0.00, 0.000, 0.000, 0.000, 14:55:50.588, 1551729350588
35, -18068.37, 0.00, 0.00, 0.00, 0.00, 0.00, -13953.61, 0.00, 0.000, 0.000, 0.000, 14:55:50.594, 1551729350594
36, -18087.01, 0.00, 0.00, 0.00, 0.00, 0.00, -13958.17, 0.00, 0.000, 0.000, 0.000, 14:55:50.594, 1551729350594
37, -18098.36, 0.00, 0.00, 0.00, 0.00, 0.00, -13992.66, 0.00, 0.000, 0.000, 0.000, 14:55:50.602, 1551729350602
38, -18082.00, 0.00, 0.00, 0.00, 0.00, 0.00, -13988.71, 0.00, 0.000, 0.000, 0.000, 14:55:50.602, 1551729350602
39, -18070.20, 0.00, 0.00, 0.00, 0.00, 0.00, -13962.93, 0.00, 0.000, 0.000, 0.000, 14:55:50.610, 1551729350610
40, -18084.39, 0.00, 0.00, 0.00, 0.00, 0.00, -13961.44, 0.00, -0.752, 0.558, -0.300, 14:55:50.610, 1551729350610
41, -18103.21, 0.00, 0.00, 0.00, 0.00, 0.00, -13993.13, 0.00, 0.000, 0.000, 0.000, 14:55:50.618, 1551729350618
42, -18088.97, 0.00, 0.00, 0.00, 0.00, 0.00, -13995.81, 0.00, 0.000, 0.000, 0.000, 14:55:50.618, 1551729350618
43, -18073.80, 0.00, 0.00, 0.00, 0.00, 0.00, -13977.08, 0.00, 0.000, 0.000, 0.000, 14:55:50.627, 1551729350627
44, -18078.27, 0.00, 0.00, 0.00, 0.00, 0.00, -13956.83, 0.00, 0.000, 0.000, 0.000, 14:55:50.627, 1551729350627
45, -18099.50, 0.00, 0.00, 0.00, 0.00, 0.00, -13985.84, 0.00, 0.000, 0.000, 0.000, 14:55:50.631, 1551729350631
46, -18080.59, 0.00, 0.00, 0.00, 0.00, 0.00, -13988.59, 0.00, 0.000, 0.000, 0.000, 14:55:50.639, 1551729350639
