%OpenBCI Raw EEG Data
%Number of channels = 8
%Sample Rate = 250.0 Hz
%First Column = SampleIndex
%Last Column = Timestamp 
%Other Columns = EEG data in microvolts followed by Accel Data (in G) interleaved with Aux Data
0, -29995.88, 0.00, 0.00, 0.00, 0.00, 0.00, 0.00, -8354.50, 0.074, 0.090, -1.032, 14:38:01.071, 1553971081071
1, -29946.80, 0.00, 0.00, 0.00, 0.00, 0.00, 0.00, -8260.58, 0.000, 0.000, 0.000, 14:38:01.071, 1553971081071
2, -29902.90, 0.00, 0.00, 0.00, 0.00, 0.00, 0.00, -8202.44, 0.000, 0.000, 0.000, 14:38:01.071, 1553971081071
3, -29944.09, 0.00, 0.00, 0.00, 0.00, 0.00, 0.00, -8275.15, 0.000, 0.000, 0.000, 14:38:01.071, 1553971081071
4, -29987.63, 0.00, 0.00, 0.00, 0.00, 0.00, 0.00, -8358.03, 0.000, 0.000, 0.000, 14:38:01.071, 1553971081071
5, -29954.98, 0.00, 0.00, 0.00, 0.00, 0.00, 0.00, -8281.10, 0.000, 0.000, 0.000, 14:38:01.071, 1553971081071
6, -29921.86, 0.00, 0.00, 0.00, 0.00, 0.00, 0.00, -8219.63, 0.000, 0.000, 0.000, 14:38:01.071, 1553971081071
7, -29957.91, 0.00, 0.00, 0.00, 0.00, 0.00, 0.00, -8284.58, 0.000, 0.000, 0.000, 14:38:01.071, 1553971081071
8, -30013.16, 0.00, 0.00, 0.00, 0.00, 0.00, 0.00, -8376.90, 0.000, 0.000, 0.000, 14:38:01.071, 1553971081071
9, -29972.04, 0.00, 0.00, 0.00, 0.00, 0.00, 0.00, -8308.72, 0.000, 0.000, 0.000, 14:38:01.071, 1553971081071
10, -29922.75, 0.00, 0.00, 0.00, 0.00, 0.00, 0.00, -8207.69, 0.074, 0.088, -1.034, 14:38:01.072, 1553971081072
11, -29937.99, 0.00, 0.00, 0.00, 0.00, 0.00, 0.00, -8254.99, 0.000, 0.000, 0.000, 14:38:01.072, 1553971081072
12, -29991.19, 0.00, 0.00, 0.00, 0.00, 0.00, 0.00, -8360.60, 0.000, 0.000, 0.000, 14:38:01.072, 1553971081072
13, -29984.44, 0.00, 0.00, 0.00, 0.00, 0.00, 0.00, -8332.60, 0.000, 0.000, 0.000, 14:38:01.072, 1553971081072
14, -29931.67, 0.00, 0.00, 0.00, 0.00, 0.00, 0.00, -8229.00, 0.000, 0.000, 0.000, 14:38:01.072, 1553971081072
15, -29950.49, 0.00, 0.00, 0.00, 0.00, 0.00, 0.00, -8252.69, 0.000, 0.000, 0.000, 14:38:01.072, 1553971081072
16, -29988.04, 0.00, 0.00, 0.00, 0.00, 0.00, 0.00, -8328.01, 0.000, 0.000, 0.000, 14:38:01.072, 1553971081072
17, -29990.14, 0.00, 0.00, 0.00, 0.00, 0.00, 0.00, -8343.66, 0.000, 0.000, 0.000, 14:38:01.072, 1553971081072
18, -29932.81, 0.00, 0.00, 0.00, 0.00, 0.00, 0.00, -8228.82, 0.000, 0.000, 0.000, 14:38:01.072, 1553971081072
19, -29932.43, 0.00, 0.00, 0.00, 0.00, 0.00, 0.00, -8219.72, 0.000, 0.000, 0.000, 14:38:01.072, 1553971081072
20, -29975.45, 0.00, 0.00, 0.00, 0.00, 0.00, 0.00, -8305.62, 0.070, 0.088, -1.032, 14:38:01.072, 1553971081072
21, -29995.46, 0.00, 0.00, 0.00, 0.00, 0.00, 0.00, -8346.41, 0.000, 0.000, 0.000, 14:38:01.072, 1553971081072
22, -29946.13, 0.00, 0.00, 0.00, 0.00, 0.00, 0.00, -8252.76, 0.000, 0.000, 0.000, 14:38:01.072, 1553971081072
23, -29931.15, 0.00, 0.00, 0.00, 0.00, 0.00, 0.00, -8225.17, 0.000, 0.000, 0.000, 14:38:01.072, 1553971081072
24, -29976.28, 0.00, 0.00, 0.00, 0.00, 0.00, 0.00, -8304.10, 0.000, 0.000, 0.000, 14:38:01.072, 1553971081072
25, -30007.26, 0.00, 0.00, 0.00, 0.00, 0.00, 0.00, -8360.47, 0.000, 0.000, 0.000, 14:38:01.072, 1553971081072
26, -29975.32, 0.00, 0.00, 0.00, 0.00, 0.00, 0.00, -8289.95, 0.000, 0.000, 0.000, 14:38:01.073, 1553971081073
27, -29938.84, 0.00, 0.00, 0.00, 0.00, 0.00, 0.00, -8236.06, 0.000, 0.000, 0.000, 14:38:01.073, 1553971081073
28, -29976.17, 0.00, 0.00, 0.00, 0.00, 0.00, 0.00, -8298.24, 0.000, 0.000, 0.000, 14:38:01.073, 1553971081073
29, -30016.87, 0.00, 0.00, 0.00, 0.00, 0.00, 0.00, -8365.83, 0.000, 0.000, 0.000, 14:38:01.073, 1553971081073
30, -29993.60, 0.00, 0.00, 0.00, 0.00, 0.00, 0.00, -8306.27, 0.070, 0.090, -1.028, 14:38:01.077, 1553971081077
31, -29944.83, 0.00, 0.00, 0.00, 0.00, 0.00, 0.00, -8232.73, 0.000, 0.000, 0.000, 14:38:01.077, 1553971081077
32, -29962.11, 0.00, 0.00, 0.00, 0.00, 0.00, 0.00, -8277.48, 0.000, 0.000, 0.000, 14:38:01.077, 1553971081077
33, -30015.84, 0.00, 0.00, 0.00, 0.00, 0.00, 0.00, -8355.28, 0.000, 0.000, 0.000, 14:38:01.077, 1553971081077
34, -30002.70, 0.00, 0.00, 0.00, 0.00, 0.00, 0.00, -8326.40, 0.000, 0.000, 0.000, 14:38:01.077, 1553971081077
35, -29948.54, 0.00, 0.00, 0.00, 0.00, 0.00, 0.00, -8237.53, 0.000, 0.000, 0.000, 14:38:01.077, 1553971081077
36, -29962.31, 0.00, 0.00, 0.00, 0.00, 0.00, 0.00, -8274.19, 0.000, 0.000, 0.000, 14:38:01.077, 1553971081077
37, -30017.47, 0.00, 0.00, 0.00, 0.00, 0.00, 0.00, -8365.99, 0.000, 0.000, 0.000, 14:38:01.077, 1553971081077
38, -30009.72, 0.00, 0.00, 0.00, 0.00, 0.00, 0.00, -8351.08, 0.000, 0.000, 0.000, 14:38:01.078, 1553971081078
39, -29951.61, 0.00, 0.00, 0.00, 0.00, 0.00, 0.00, -8244.55, 0.000, 0.000, 0.000, 14:38:01.078, 1553971081078
40, -29952.23, 0.00, 0.00, 0.00, 0.00, 0.00, 0.00, -8254.14, 0.072, 0.092, -1.026, 14:38:01.078, 1553971081078
41, -29994.90, 0.00, 0.00, 0.00, 0.00, 0.00, 0.00, -8342.16, 0.000, 0.000, 0.000, 14:38:01.078, 1553971081078
42, -30018.03, 0.00, 0.00, 0.00, 0.00, 0.00, 0.00, -8371.67, 0.000, 0.000, 0.000, 14:38:01.078, 1553971081078
43, -29953.10, 0.00, 0.00, 0.00, 0.00, 0.00, 0.00, -8251.86, 0.000, 0.000, 0.000, 14:38:01.078, 1553971081078
44, -29937.28, 0.00, 0.00, 0.00, 0.00, 0.00, 0.00, -8227.95, 0.000, 0.000, 0.000, 14:38:01.078, 1553971081078
45, -29980.77, 0.00, 0.00, 0.00, 0.00, 0.00, 0.00, -8310.56, 0.000, 0.000, 0.000, 14:38:01.078, 1553971081078
46, -30011.06, 0.00, 0.00, 0.00, 0.00, 0.00, 0.00, -8356.58, 0.000, 0.000, 0.000, 14:38:01.078, 1553971081078
47, -29961.53, 0.00, 0.00, 0.00, 0.00, 0.00, 0.00, -8261.43, 0.000, 0.000, 0.000, 14:38:01.078, 1553971081078
48, -29945.95, 0.00, 0.00, 0.00, 0.00, 0.00, 0.00, -8233.56, 0.000, 0.000, 0.000, 14:38:01.078, 1553971081078
49, -29996.17, 0.00, 0.00, 0.00, 0.00, 0.00, 0.00, -8314.65, 0.000, 0.000, 0.000, 14:38:01.078, 1553971081078
50, -30028.67, 0.00, 0.00, 0.00, 0.00, 0.00, 0.00, -8378.13, 0.068, 0.086, -1.030, 14:38:01.078, 1553971081078
51, -29992.22, 0.00, 0.00, 0.00, 0.00, 0.00, 0.00, -8305.21, 0.000, 0.000, 0.000, 14:38:01.078, 1553971081078
52, -29952.43, 0.00, 0.00, 0.00, 0.00, 0.00, 0.00, -8239.21, 0.000, 0.000, 0.000, 14:38:01.078, 1553971081078
53, -29983.88, 0.00, 0.00, 0.00, 0.00, 0.00, 0.00, -8307.56, 0.000, 0.000, 0.000, 14:38:01.078, 1553971081078
54, -30012.00, 0.00, 0.00, 0.00, 0.00, 0.00, 0.00, -8362.95, 0.000, 0.000, 0.000, 14:38:01.078, 1553971081078
55, -29978.52, 0.00, 0.00, 0.00, 0.00, 0.00, 0.00, -8296.97, 0.000, 0.000, 0.000, 14:38:01.078, 1553971081078
56, -29933.72, 0.00, 0.00, 0.00, 0.00, 0.00, 0.00, -8214.98, 0.000, 0.000, 0.000, 14:38:01.079, 1553971081079
57, -29956.46, 0.00, 0.00, 0.00, 0.00, 0.00, 0.00, -8264.09, 0.000, 0.000, 0.000, 14:38:01.079, 1553971081079
58, -30004.20, 0.00, 0.00, 0.00, 0.00, 0.00, 0.00, -8350.41, 0.000, 0.000, 0.000, 14:38:01.079, 1553971081079
59, -29991.10, 0.00, 0.00, 0.00, 0.00, 0.00, 0.00, -8315.85, 0.000, 0.000, 0.000, 14:38:01.079, 1553971081079
60, -29940.67, 0.00, 0.00, 0.00, 0.00, 0.00, 0.00, -8225.82, 0.066, 0.090, -1.030, 14:38:01.079, 1553971081079
61, -29943.16, 0.00, 0.00, 0.00, 0.00, 0.00, 0.00, -8249.04, 0.000, 0.000, 0.000, 14:38:01.080, 1553971081080
62, -29997.83, 0.00, 0.00, 0.00, 0.00, 0.00, 0.00, -8345.18, 0.000, 0.000, 0.000, 14:38:01.080, 1553971081080
63, -29998.99, 0.00, 0.00, 0.00, 0.00, 0.00, 0.00, -8339.46, 0.000, 0.000, 0.000, 14:38:01.080, 1553971081080
64, -29943.83, 0.00, 0.00, 0.00, 0.00, 0.00, 0.00, -8243.55, 0.000, 0.000, 0.000, 14:38:01.080, 1553971081080
65, -29952.92, 0.00, 0.00, 0.00, 0.00, 0.00, 0.00, -8265.36, 0.000, 0.000, 0.000, 14:38:01.080, 1553971081080
66, -29996.80, 0.00, 0.00, 0.00, 0.00, 0.00, 0.00, -8344.11, 0.000, 0.000, 0.000, 14:38:01.080, 1553971081080
67, -30004.80, 0.00, 0.00, 0.00, 0.00, 0.00, 0.00, -8348.26, 0.000, 0.000, 0.000, 14:38:01.080, 1553971081080
68, -29959.47, 0.00, 0.00, 0.00, 0.00, 0.00, 0.00, -8255.64, 0.000, 0.000, 0.000, 14:38:01.080, 1553971081080
69, -29938.93, 0.00, 0.00, 0.00, 0.00, 0.00, 0.00, -8237.49, 0.068, 0.090, -1.028, 14:38:01.080, 1553971081080
70, -29988.35, 0.00, 0.00, 0.00, 0.00, 0.00, 0.00, -8329.56, 0.000, 0.000, 0.000, 14:38:01.080, 1553971081080
71, -30031.24, 0.00, 0.00, 0.00, 0.00, 0.00, 0.00, -8386.11, 0.000, 0.000, 0.000, 14:38:01.080, 1553971081080
72, -29978.54, 0.00, 0.00, 0.00, 0.00, 0.00, 0.00, -8293.48, 0.000, 0.000, 0.000, 14:38:01.080, 1553971081080
73, -29946.62, 0.00, 0.00, 0.00, 0.00, 0.00, 0.00, -8250.50, 0.000, 0.000, 0.000, 14:38:01.081, 1553971081081
74, -29985.96, 0.00, 0.00, 0.00, 0.00, 0.00, 0.00, -8319.14, 0.000, 0.000, 0.000, 14:38:01.081, 1553971081081
75, -30014.30, 0.00, 0.00, 0.00, 0.00, 0.00, 0.00, -8380.94, 0.000, 0.000, 0.000, 14:38:01.081, 1553971081081
76, -29975.45, 0.00, 0.00, 0.00, 0.00, 0.00, 0.00, -8303.54, 0.000, 0.000, 0.000, 14:38:01.081, 1553971081081
77, -29948.45, 0.00, 0.00, 0.00, 0.00, 0.00, 0.00, -8251.33, 0.000, 0.000, 0.000, 14:38:01.081, 1553971081081
78, -29985.24, 0.00, 0.00, 0.00, 0.00, 0.00, 0.00, -8311.85, 0.000, 0.000, 0.000, 14:38:01.081, 1553971081081
79, -30019.91, 0.00, 0.00, 0.00, 0.00, 0.00, 0.00, -8386.75, 0.066, 0.090, -1.030, 14:38:01.081, 1553971081081
80, -30003.77, 0.00, 0.00, 0.00, 0.00, 0.00, 0.00, -8351.04, 0.000, 0.000, 0.000, 14:38:01.081, 1553971081081
81, -29961.66, 0.00, 0.00, 0.00, 0.00, 0.00, 0.00, -8263.75, 0.000, 0.000, 0.000, 14:38:01.081, 1553971081081
82, -29962.94, 0.00, 0.00, 0.00, 0.00, 0.00, 0.00, -8284.47, 0.000, 0.000, 0.000, 14:38:01.081, 1553971081081
83, -30007.42, 0.00, 0.00, 0.00, 0.00, 0.00, 0.00, -8364.00, 0.000, 0.000, 0.000, 14:38:01.081, 1553971081081
84, -30000.80, 0.00, 0.00, 0.00, 0.00, 0.00, 0.00, -8345.52, 0.000, 0.000, 0.000, 14:38:01.081, 1553971081081
85, -29953.53, 0.00, 0.00, 0.00, 0.00, 0.00, 0.00, -8259.01, 0.000, 0.000, 0.000, 14:38:01.081, 1553971081081
86, -29958.78, 0.00, 0.00, 0.00, 0.00, 0.00, 0.00, -8279.69, 0.000, 0.000, 0.000, 14:38:01.081, 1553971081081
87, -30008.65, 0.00, 0.00, 0.00, 0.00, 0.00, 0.00, -8364.38, 0.000, 0.000, 0.000, 14:38:01.081, 1553971081081
88, -30017.86, 0.00, 0.00, 0.00, 0.00, 0.00, 0.00, -8370.42, 0.000, 0.000, 0.000, 14:38:01.081, 1553971081081
89, -29956.10, 0.00, 0.00, 0.00, 0.00, 0.00, 0.00, -8264.54, 0.072, 0.094, -1.026, 14:38:01.081, 1553971081081
90, -29951.16, 0.00, 0.00, 0.00, 0.00, 0.00, 0.00, -8256.89, 0.000, 0.000, 0.000, 14:38:01.082, 1553971081082
91, -30001.47, 0.00, 0.00, 0.00, 0.00, 0.00, 0.00, -8340.31, 0.000, 0.000, 0.000, 14:38:01.082, 1553971081082
92, -30011.37, 0.00, 0.00, 0.00, 0.00, 0.00, 0.00, -8360.47, 0.000, 0.000, 0.000, 14:38:01.083, 1553971081083
93, -29961.44, 0.00, 0.00, 0.00, 0.00, 0.00, 0.00, -8258.75, 0.000, 0.000, 0.000, 14:38:01.083, 1553971081083
94, -29955.49, 0.00, 0.00, 0.00, 0.00, 0.00, 0.00, -8249.22, 0.000, 0.000, 0.000, 14:38:01.083, 1553971081083
95, -30001.38, 0.00, 0.00, 0.00, 0.00, 0.00, 0.00, -8333.20, 0.000, 0.000, 0.000, 14:38:01.083, 1553971081083
96, -30013.07, 0.00, 0.00, 0.00, 0.00, 0.00, 0.00, -8372.00, 0.000, 0.000, 0.000, 14:38:01.083, 1553971081083
97, -29971.21, 0.00, 0.00, 0.00, 0.00, 0.00, 0.00, -8283.24, 0.000, 0.000, 0.000, 14:38:01.083, 1553971081083
98, -29948.30, 0.00, 0.00, 0.00, 0.00, 0.00, 0.00, -8243.70, 0.000, 0.000, 0.000, 14:38:01.083, 1553971081083
99, -29974.40, 0.00, 0.00, 0.00, 0.00, 0.00, 0.00, -8303.54, 0.064, 0.094, -1.020, 14:38:01.083, 1553971081083
100, -30005.96, 0.00, 0.00, 0.00, 0.00, 0.00, 0.00, -8367.91, 0.000, 0.000, 0.000, 14:38:01.083, 1553971081083
101, -29964.41, 0.00, 0.00, 0.00, 0.00, 0.00, 0.00, -8293.23, 0.000, 0.000, 0.000, 14:38:01.083, 1553971081083
102, -29929.37, 0.00, 0.00, 0.00, 0.00, 0.00, 0.00, -8226.22, 0.000, 0.000, 0.000, 14:38:01.083, 1553971081083
103, -29962.42, 0.00, 0.00, 0.00, 0.00, 0.00, 0.00, -8285.39, 0.000, 0.000, 0.000, 14:38:01.083, 1553971081083
104, -30006.72, 0.00, 0.00, 0.00, 0.00, 0.00, 0.00, -8360.71, 0.000, 0.000, 0.000, 14:38:01.083, 1553971081083
105, -29984.28, 0.00, 0.00, 0.00, 0.00, 0.00, 0.00, -8310.83, 0.000, 0.000, 0.000, 14:38:01.083, 1553971081083
106, -29937.61, 0.00, 0.00, 0.00, 0.00, 0.00, 0.00, -8225.53, 0.000, 0.000, 0.000, 14:38:01.083, 1553971081083
107, -29954.13, 0.00, 0.00, 0.00, 0.00, 0.00, 0.00, -8262.41, 0.000, 0.000, 0.000, 14:38:01.084, 1553971081084
108, -30001.61, 0.00, 0.00, 0.00, 0.00, 0.00, 0.00, -8350.19, 0.000, 0.000, 0.000, 14:38:01.084, 1553971081084
109, -29992.44, 0.00, 0.00, 0.00, 0.00, 0.00, 0.00, -8331.75, 0.066, 0.092, -1.024, 14:38:01.084, 1553971081084
110, -29940.34, 0.00, 0.00, 0.00, 0.00, 0.00, 0.00, -8237.22, 0.000, 0.000, 0.000, 14:38:01.084, 1553971081084
111, -29948.32, 0.00, 0.00, 0.00, 0.00, 0.00, 0.00, -8255.30, 0.000, 0.000, 0.000, 14:38:01.084, 1553971081084
112, -29997.07, 0.00, 0.00, 0.00, 0.00, 0.00, 0.00, -8339.44, 0.000, 0.000, 0.000, 14:38:01.084, 1553971081084
113, -30011.80, 0.00, 0.00, 0.00, 0.00, 0.00, 0.00, -8355.77, 0.000, 0.000, 0.000, 14:38:01.084, 1553971081084
114, -29948.47, 0.00, 0.00, 0.00, 0.00, 0.00, 0.00, -8252.31, 0.000, 0.000, 0.000, 14:38:01.084, 1553971081084
115, -29946.04, 0.00, 0.00, 0.00, 0.00, 0.00, 0.00, -8256.96, 0.000, 0.000, 0.000, 14:38:01.084, 1553971081084
116, -29991.77, 0.00, 0.00, 0.00, 0.00, 0.00, 0.00, -8335.05, 0.000, 0.000, 0.000, 14:38:01.084, 1553971081084
117, -30002.88, 0.00, 0.00, 0.00, 0.00, 0.00, 0.00, -8360.94, 0.000, 0.000, 0.000, 14:38:01.084, 1553971081084
118, -29955.05, 0.00, 0.00, 0.00, 0.00, 0.00, 0.00, -8268.58, 0.000, 0.000, 0.000, 14:38:01.084, 1553971081084
119, -29944.99, 0.00, 0.00, 0.00, 0.00, 0.00, 0.00, -8247.66, 0.070, 0.088, -1.028, 14:38:01.084, 1553971081084
120, -29984.19, 0.00, 0.00, 0.00, 0.00, 0.00, 0.00, -8319.65, 0.000, 0.000, 0.000, 14:38:01.549, 1553971081549
121, -30030.82, 0.00, 0.00, 0.00, 0.00, 0.00, 0.00, -8383.11, 0.000, 0.000, 0.000, 14:38:01.550, 1553971081550
122, -29973.73, 0.00, 0.00, 0.00, 0.00, 0.00, 0.00, -8289.43, 0.000, 0.000, 0.000, 14:38:01.550, 1553971081550
123, -29945.77, 0.00, 0.00, 0.00, 0.00, 0.00, 0.00, -8239.10, 0.000, 0.000, 0.000, 14:38:01.550, 1553971081550
124, -29985.67, 0.00, 0.00, 0.00, 0.00, 0.00, 0.00, -8308.75, 0.000, 0.000, 0.000, 14:38:01.550, 1553971081550
125, -30024.54, 0.00, 0.00, 0.00, 0.00, 0.00, 0.00, -8380.03, 0.000, 0.000, 0.000, 14:38:01.550, 1553971081550
126, -29988.37, 0.00, 0.00, 0.00, 0.00, 0.00, 0.00, -8309.82, 0.000, 0.000, 0.000, 14:38:01.550, 1553971081550
127, -29938.15, 0.00, 0.00, 0.00, 0.00, 0.00, 0.00, -8229.17, 0.000, 0.000, 0.000, 14:38:01.550, 1553971081550
128, -29968.75, 0.00, 0.00, 0.00, 0.00, 0.00, 0.00, -8285.10, 0.000, 0.000, 0.000, 14:38:01.550, 1553971081550
129, -30026.35, 0.00, 0.00, 0.00, 0.00, 0.00, 0.00, -8376.03, 0.066, 0.092, -1.026, 14:38:01.550, 1553971081550
130, -30006.52, 0.00, 0.00, 0.00, 0.00, 0.00, 0.00, -8335.73, 0.000, 0.000, 0.000, 14:38:01.550, 1553971081550
131, -29947.07, 0.00, 0.00, 0.00, 0.00, 0.00, 0.00, -8239.25, 0.000, 0.000, 0.000, 14:38:01.550, 1553971081550
132, -29969.15, 0.00, 0.00, 0.00, 0.00, 0.00, 0.00, -8283.15, 0.000, 0.000, 0.000, 14:38:01.550, 1553971081550
133, -30010.50, 0.00, 0.00, 0.00, 0.00, 0.00, 0.00, -8360.20, 0.000, 0.000, 0.000, 14:38:01.550, 1553971081550
134, -30004.98, 0.00, 0.00, 0.00, 0.00, 0.00, 0.00, -8344.38, 0.000, 0.000, 0.000, 14:38:01.550, 1553971081550
135, -29953.64, 0.00, 0.00, 0.00, 0.00, 0.00, 0.00, -8246.94, 0.000, 0.000, 0.000, 14:38:01.550, 1553971081550
136, -29962.60, 0.00, 0.00, 0.00, 0.00, 0.00, 0.00, -8272.18, 0.000, 0.000, 0.000, 14:38:01.550, 1553971081550
137, -30010.32, 0.00, 0.00, 0.00, 0.00, 0.00, 0.00, -8357.36, 0.000, 0.000, 0.000, 14:38:01.550, 1553971081550
138, -30018.71, 0.00, 0.00, 0.00, 0.00, 0.00, 0.00, -8366.41, 0.068, 0.092, -1.026, 14:38:01.550, 1553971081550
139, -29960.10, 0.00, 0.00, 0.00, 0.00, 0.00, 0.00, -8257.54, 0.000, 0.000, 0.000, 14:38:01.550, 1553971081550
140, -29946.40, 0.00, 0.00, 0.00, 0.00, 0.00, 0.00, -8251.93, 0.000, 0.000, 0.000, 14:38:01.551, 1553971081551
141, -29992.73, 0.00, 0.00, 0.00, 0.00, 0.00, 0.00, -8338.90, 0.000, 0.000, 0.000, 14:38:01.551, 1553971081551
142, -30013.56, 0.00, 0.00, 0.00, 0.00, 0.00, 0.00, -8374.62, 0.000, 0.000, 0.000, 14:38:01.551, 1553971081551
143, -29961.64, 0.00, 0.00, 0.00, 0.00, 0.00, 0.00, -8273.65, 0.000, 0.000, 0.000, 14:38:01.551, 1553971081551
144, -29941.61, 0.00, 0.00, 0.00, 0.00, 0.00, 0.00, -8248.82, 0.000, 0.000, 0.000, 14:38:01.551, 1553971081551
145, -29981.49, 0.00, 0.00, 0.00, 0.00, 0.00, 0.00, -8320.24, 0.000, 0.000, 0.000, 14:38:01.551, 1553971081551
146, -30017.10, 0.00, 0.00, 0.00, 0.00, 0.00, 0.00, -8375.56, 0.000, 0.000, 0.000, 14:38:01.551, 1553971081551
147, -29970.89, 0.00, 0.00, 0.00, 0.00, 0.00, 0.00, -8286.57, 0.000, 0.000, 0.000, 14:38:01.551, 1553971081551
148, -29934.60, 0.00, 0.00, 0.00, 0.00, 0.00, 0.00, -8231.14, 0.062, 0.092, -1.026, 14:38:01.551, 1553971081551
149, -29969.02, 0.00, 0.00, 0.00, 0.00, 0.00, 0.00, -8295.49, 0.000, 0.000, 0.000, 14:38:01.551, 1553971081551
150, -30013.47, 0.00, 0.00, 0.00, 0.00, 0.00, 0.00, -8368.81, 0.000, 0.000, 0.000, 14:38:01.551, 1553971081551
151, -29981.36, 0.00, 0.00, 0.00, 0.00, 0.00, 0.00, -8305.55, 0.000, 0.000, 0.000, 14:38:01.552, 1553971081552
152, -29933.95, 0.00, 0.00, 0.00, 0.00, 0.00, 0.00, -8232.48, 0.000, 0.000, 0.000, 14:38:01.552, 1553971081552
153, -29977.31, 0.00, 0.00, 0.00, 0.00, 0.00, 0.00, -8299.78, 0.000, 0.000, 0.000, 14:38:01.552, 1553971081552
154, -30015.04, 0.00, 0.00, 0.00, 0.00, 0.00, 0.00, -8372.00, 0.000, 0.000, 0.000, 14:38:01.552, 1553971081552
155, -29988.20, 0.00, 0.00, 0.00, 0.00, 0.00, 0.00, -8323.70, 0.000, 0.000, 0.000, 14:38:01.552, 1553971081552
156, -29932.16, 0.00, 0.00, 0.00, 0.00, 0.00, 0.00, -8226.09, 0.000, 0.000, 0.000, 14:38:01.552, 1553971081552
157, -29953.71, 0.00, 0.00, 0.00, 0.00, 0.00, 0.00, -8267.80, 0.000, 0.000, 0.000, 14:38:01.552, 1553971081552
158, -30011.87, 0.00, 0.00, 0.00, 0.00, 0.00, 0.00, -8359.06, 0.062, 0.092, -1.016, 14:38:01.552, 1553971081552
159, -30002.57, 0.00, 0.00, 0.00, 0.00, 0.00, 0.00, -8342.07, 0.000, 0.000, 0.000, 14:38:01.552, 1553971081552
160, -29940.25, 0.00, 0.00, 0.00, 0.00, 0.00, 0.00, -8235.34, 0.000, 0.000, 0.000, 14:38:01.552, 1553971081552
161, -29940.88, 0.00, 0.00, 0.00, 0.00, 0.00, 0.00, -8246.70, 0.000, 0.000, 0.000, 14:38:01.552, 1553971081552
162, -29987.90, 0.00, 0.00, 0.00, 0.00, 0.00, 0.00, -8333.07, 0.000, 0.000, 0.000, 14:38:01.552, 1553971081552
163, -30002.90, 0.00, 0.00, 0.00, 0.00, 0.00, 0.00, -8348.33, 0.000, 0.000, 0.000, 14:38:01.552, 1553971081552
164, -29946.98, 0.00, 0.00, 0.00, 0.00, 0.00, 0.00, -8242.29, 0.000, 0.000, 0.000, 14:38:01.552, 1553971081552
165, -29942.11, 0.00, 0.00, 0.00, 0.00, 0.00, 0.00, -8239.55, 0.000, 0.000, 0.000, 14:38:01.552, 1553971081552
166, -29990.50, 0.00, 0.00, 0.00, 0.00, 0.00, 0.00, -8322.65, 0.000, 0.000, 0.000, 14:38:01.553, 1553971081553
167, -30022.57, 0.00, 0.00, 0.00, 0.00, 0.00, 0.00, -8370.28, 0.000, 0.000, 0.000, 14:38:01.553, 1553971081553
168, -29965.89, 0.00, 0.00, 0.00, 0.00, 0.00, 0.00, -8269.09, 0.066, 0.092, -1.020, 14:38:01.553, 1553971081553
169, -29935.06, 0.00, 0.00, 0.00, 0.00, 0.00, 0.00, -8225.60, 0.000, 0.000, 0.000, 14:38:01.553, 1553971081553
170, -29970.36, 0.00, 0.00, 0.00, 0.00, 0.00, 0.00, -8294.46, 0.000, 0.000, 0.000, 14:38:01.553, 1553971081553
171, -30003.75, 0.00, 0.00, 0.00, 0.00, 0.00, 0.00, -8353.12, 0.000, 0.000, 0.000, 14:38:01.553, 1553971081553
172, -29970.09, 0.00, 0.00, 0.00, 0.00, 0.00, 0.00, -8281.99, 0.000, 0.000, 0.000, 14:38:01.553, 1553971081553
173, -29931.26, 0.00, 0.00, 0.00, 0.00, 0.00, 0.00, -8222.40, 0.000, 0.000, 0.000, 14:38:01.553, 1553971081553
174, -29967.88, 0.00, 0.00, 0.00, 0.00, 0.00, 0.00, -8286.44, 0.000, 0.000, 0.000, 14:38:01.553, 1553971081553
175, -30009.74, 0.00, 0.00, 0.00, 0.00, 0.00, 0.00, -8359.57, 0.000, 0.000, 0.000, 14:38:01.553, 1553971081553
176, -29980.68, 0.00, 0.00, 0.00, 0.00, 0.00, 0.00, -8299.29, 0.000, 0.000, 0.000, 14:38:01.553, 1553971081553
177, -29935.73, 0.00, 0.00, 0.00, 0.00, 0.00, 0.00, -8221.93, 0.000, 0.000, 0.000, 14:38:01.553, 1553971081553
178, -29959.29, 0.00, 0.00, 0.00, 0.00, 0.00, 0.00, -8267.87, 0.072, 0.090, -1.028, 14:38:01.553, 1553971081553
179, -30005.27, 0.00, 0.00, 0.00, 0.00, 0.00, 0.00, -8345.81, 0.000, 0.000, 0.000, 14:38:01.553, 1553971081553
180, -29987.88, 0.00, 0.00, 0.00, 0.00, 0.00, 0.00, -8318.11, 0.000, 0.000, 0.000, 14:38:01.553, 1553971081553
181, -29926.35, 0.00, 0.00, 0.00, 0.00, 0.00, 0.00, -8216.08, 0.000, 0.000, 0.000, 14:38:01.553, 1553971081553
182, -29942.11, 0.00, 0.00, 0.00, 0.00, 0.00, 0.00, -8245.40, 0.000, 0.000, 0.000, 14:38:01.554, 1553971081554
183, -29988.69, 0.00, 0.00, 0.00, 0.00, 0.00, 0.00, -8326.61, 0.000, 0.000, 0.000, 14:38:01.554, 1553971081554
184, -30000.46, 0.00, 0.00, 0.00, 0.00, 0.00, 0.00, -8332.77, 0.000, 0.000, 0.000, 14:38:01.554, 1553971081554
185, -29932.92, 0.00, 0.00, 0.00, 0.00, 0.00, 0.00, -8225.67, 0.000, 0.000, 0.000, 14:38:01.554, 1553971081554
186, -29934.51, 0.00, 0.00, 0.00, 0.00, 0.00, 0.00, -8241.85, 0.000, 0.000, 0.000, 14:38:01.554, 1553971081554
187, -29983.10, 0.00, 0.00, 0.00, 0.00, 0.00, 0.00, -8318.18, 0.000, 0.000, 0.000, 14:38:01.554, 1553971081554
188, -30000.73, 0.00, 0.00, 0.00, 0.00, 0.00, 0.00, -8345.38, 0.070, 0.090, -1.030, 14:38:01.554, 1553971081554
189, -29939.96, 0.00, 0.00, 0.00, 0.00, 0.00, 0.00, -8234.90, 0.000, 0.000, 0.000, 14:38:01.554, 1553971081554
190, -29935.22, 0.00, 0.00, 0.00, 0.00, 0.00, 0.00, -8227.63, 0.000, 0.000, 0.000, 14:38:01.554, 1553971081554
191, -29984.26, 0.00, 0.00, 0.00, 0.00, 0.00, 0.00, -8314.09, 0.000, 0.000, 0.000, 14:38:01.554, 1553971081554
192, -30008.13, 0.00, 0.00, 0.00, 0.00, 0.00, 0.00, -8358.03, 0.000, 0.000, 0.000, 14:38:01.554, 1553971081554
193, -29955.81, 0.00, 0.00, 0.00, 0.00, 0.00, 0.00, -8258.90, 0.000, 0.000, 0.000, 14:38:01.555, 1553971081555
194, -29941.70, 0.00, 0.00, 0.00, 0.00, 0.00, 0.00, -8231.50, 0.000, 0.000, 0.000, 14:38:01.555, 1553971081555
195, -29984.46, 0.00, 0.00, 0.00, 0.00, 0.00, 0.00, -8307.45, 0.000, 0.000, 0.000, 14:38:01.555, 1553971081555
196, -30017.41, 0.00, 0.00, 0.00, 0.00, 0.00, 0.00, -8363.98, 0.000, 0.000, 0.000, 14:38:01.555, 1553971081555
197, -29972.04, 0.00, 0.00, 0.00, 0.00, 0.00, 0.00, -8281.83, 0.000, 0.000, 0.000, 14:38:01.555, 1553971081555
198, -29932.96, 0.00, 0.00, 0.00, 0.00, 0.00, 0.00, -8217.44, 0.070, 0.094, -1.030, 14:38:01.555, 1553971081555
199, -29975.05, 0.00, 0.00, 0.00, 0.00, 0.00, 0.00, -8289.05, 0.000, 0.000, 0.000, 14:38:01.555, 1553971081555
200, -30009.88, 0.00, 0.00, 0.00, 0.00, 0.00, 0.00, -8358.17, 0.000, 0.000, 0.000, 14:38:01.555, 1553971081555
201, -29981.38, 0.00, 0.00, 0.00, 0.00, 0.00, 0.00, -8301.75, 0.000, 0.000, 0.000, 14:38:01.555, 1553971081555
202, -29934.48, 0.00, 0.00, 0.00, 0.00, 0.00, 0.00, -8218.98, 0.000, 0.000, 0.000, 14:38:01.555, 1553971081555
203, -29953.57, 0.00, 0.00, 0.00, 0.00, 0.00, 0.00, -8266.81, 0.000, 0.000, 0.000, 14:38:01.555, 1553971081555
204, -30001.07, 0.00, 0.00, 0.00, 0.00, 0.00, 0.00, -8346.52, 0.000, 0.000, 0.000, 14:38:01.555, 1553971081555
205, -29985.51, 0.00, 0.00, 0.00, 0.00, 0.00, 0.00, -8312.77, 0.000, 0.000, 0.000, 14:38:01.555, 1553971081555
206, -29928.92, 0.00, 0.00, 0.00, 0.00, 0.00, 0.00, -8210.73, 0.000, 0.000, 0.000, 14:38:01.555, 1553971081555
207, -29947.96, 0.00, 0.00, 0.00, 0.00, 0.00, 0.00, -8249.25, 0.066, 0.096, -1.030, 14:38:01.555, 1553971081555
208, -29990.74, 0.00, 0.00, 0.00, 0.00, 0.00, 0.00, -8330.27, 0.000, 0.000, 0.000, 14:38:01.555, 1553971081555
209, -29996.46, 0.00, 0.00, 0.00, 0.00, 0.00, 0.00, -8335.34, 0.000, 0.000, 0.000, 14:38:01.555, 1553971081555
210, -29928.67, 0.00, 0.00, 0.00, 0.00, 0.00, 0.00, -8223.34, 0.000, 0.000, 0.000, 14:38:01.555, 1553971081555
211, -29930.30, 0.00, 0.00, 0.00, 0.00, 0.00, 0.00, -8231.86, 0.000, 0.000, 0.000, 14:38:01.555, 1553971081555
212, -29974.76, 0.00, 0.00, 0.00, 0.00, 0.00, 0.00, -8309.84, 0.000, 0.000, 0.000, 14:38:01.556, 1553971081556
213, -29992.66, 0.00, 0.00, 0.00, 0.00, 0.00, 0.00, -8335.61, 0.000, 0.000, 0.000, 14:38:01.556, 1553971081556
214, -29937.95, 0.00, 0.00, 0.00, 0.00, 0.00, 0.00, -8233.35, 0.000, 0.000, 0.000, 14:38:01.556, 1553971081556
215, -29921.36, 0.00, 0.00, 0.00, 0.00, 0.00, 0.00, -8217.78, 0.000, 0.000, 0.000, 14:38:01.556, 1553971081556
216, -29969.98, 0.00, 0.00, 0.00, 0.00, 0.00, 0.00, -8303.09, 0.000, 0.000, 0.000, 14:38:01.556, 1553971081556
217, -30008.65, 0.00, 0.00, 0.00, 0.00, 0.00, 0.00, -8361.30, 0.060, 0.092, -1.028, 14:38:01.556, 1553971081556
218, -29958.71, 0.00, 0.00, 0.00, 0.00, 0.00, 0.00, -8260.33, 0.000, 0.000, 0.000, 14:38:01.556, 1553971081556
219, -29933.34, 0.00, 0.00, 0.00, 0.00, 0.00, 0.00, -8220.79, 0.000, 0.000, 0.000, 14:38:01.556, 1553971081556
220, -29967.63, 0.00, 0.00, 0.00, 0.00, 0.00, 0.00, -8295.16, 0.000, 0.000, 0.000, 14:38:01.556, 1553971081556
221, -29998.39, 0.00, 0.00, 0.00, 0.00, 0.00, 0.00, -8350.54, 0.000, 0.000, 0.000, 14:38:01.557, 1553971081557
222, -29963.36, 0.00, 0.00, 0.00, 0.00, 0.00, 0.00, -8277.63, 0.000, 0.000, 0.000, 14:38:01.557, 1553971081557
223, -29919.82, 0.00, 0.00, 0.00, 0.00, 0.00, 0.00, -8203.00, 0.000, 0.000, 0.000, 14:38:01.557, 1553971081557
224, -29957.39, 0.00, 0.00, 0.00, 0.00, 0.00, 0.00, -8269.70, 0.000, 0.000, 0.000, 14:38:01.557, 1553971081557
225, -30010.17, 0.00, 0.00, 0.00, 0.00, 0.00, 0.00, -8353.81, 0.000, 0.000, 0.000, 14:38:01.557, 1553971081557
226, -29987.32, 0.00, 0.00, 0.00, 0.00, 0.00, 0.00, -8306.91, 0.000, 0.000, 0.000, 14:38:01.557, 1553971081557
227, -29930.30, 0.00, 0.00, 0.00, 0.00, 0.00, 0.00, -8215.52, 0.064, 0.092, -1.026, 14:38:01.557, 1553971081557
228, -29951.58, 0.00, 0.00, 0.00, 0.00, 0.00, 0.00, -8258.46, 0.000, 0.000, 0.000, 14:38:01.557, 1553971081557
229, -30004.53, 0.00, 0.00, 0.00, 0.00, 0.00, 0.00, -8345.43, 0.000, 0.000, 0.000, 14:38:01.557, 1553971081557
230, -29992.22, 0.00, 0.00, 0.00, 0.00, 0.00, 0.00, -8325.55, 0.000, 0.000, 0.000, 14:38:01.557, 1553971081557
231, -29932.09, 0.00, 0.00, 0.00, 0.00, 0.00, 0.00, -8222.92, 0.000, 0.000, 0.000, 14:38:01.557, 1553971081557
232, -29936.74, 0.00, 0.00, 0.00, 0.00, 0.00, 0.00, -8240.86, 0.000, 0.000, 0.000, 14:38:01.557, 1553971081557
233, -29988.64, 0.00, 0.00, 0.00, 0.00, 0.00, 0.00, -8324.39, 0.000, 0.000, 0.000, 14:38:01.557, 1553971081557
234, -29993.22, 0.00, 0.00, 0.00, 0.00, 0.00, 0.00, -8333.11, 0.000, 0.000, 0.000, 14:38:01.557, 1553971081557
235, -29933.81, 0.00, 0.00, 0.00, 0.00, 0.00, 0.00, -8229.40, 0.000, 0.000, 0.000, 14:38:01.557, 1553971081557
236, -29930.46, 0.00, 0.00, 0.00, 0.00, 0.00, 0.00, -8236.55, 0.000, 0.000, 0.000, 14:38:01.557, 1553971081557
237, -29975.23, 0.00, 0.00, 0.00, 0.00, 0.00, 0.00, -8314.38, 0.074, 0.084, -1.018, 14:38:01.557, 1553971081557
238, -30006.52, 0.00, 0.00, 0.00, 0.00, 0.00, 0.00, -8355.35, 0.000, 0.000, 0.000, 14:38:01.558, 1553971081558
239, -29952.23, 0.00, 0.00, 0.00, 0.00, 0.00, 0.00, -8254.66, 0.000, 0.000, 0.000, 14:38:01.558, 1553971081558
240, -29927.91, 0.00, 0.00, 0.00, 0.00, 0.00, 0.00, -8223.05, 0.000, 0.000, 0.000, 14:38:02.029, 1553971082029
241, -29980.33, 0.00, 0.00, 0.00, 0.00, 0.00, 0.00, -8304.30, 0.000, 0.000, 0.000, 14:38:02.030, 1553971082030
242, -30016.76, 0.00, 0.00, 0.00, 0.00, 0.00, 0.00, -8366.01, 0.000, 0.000, 0.000, 14:38:02.030, 1553971082030
243, -29963.52, 0.00, 0.00, 0.00, 0.00, 0.00, 0.00, -8276.47, 0.000, 0.000, 0.000, 14:38:02.030, 1553971082030
244, -29940.88, 0.00, 0.00, 0.00, 0.00, 0.00, 0.00, -8228.30, 0.000, 0.000, 0.000, 14:38:02.030, 1553971082030
245, -29982.79, 0.00, 0.00, 0.00, 0.00, 0.00, 0.00, -8303.11, 0.000, 0.000, 0.000, 14:38:02.030, 1553971082030
246, -30020.20, 0.00, 0.00, 0.00, 0.00, 0.00, 0.00, -8369.68, 0.000, 0.000, 0.000, 14:38:02.030, 1553971082030
247, -29978.81, 0.00, 0.00, 0.00, 0.00, 0.00, 0.00, -8294.44, 0.072, 0.082, -1.020, 14:38:02.030, 1553971082030
248, -29937.95, 0.00, 0.00, 0.00, 0.00, 0.00, 0.00, -8227.21, 0.000, 0.000, 0.000, 14:38:02.030, 1553971082030
249, -29976.75, 0.00, 0.00, 0.00, 0.00, 0.00, 0.00, -8295.74, 0.000, 0.000, 0.000, 14:38:02.030, 1553971082030
250, -30013.94, 0.00, 0.00, 0.00, 0.00, 0.00, 0.00, -8365.23, 0.000, 0.000, 0.000, 14:38:02.030, 1553971082030
251, -29997.85, 0.00, 0.00, 0.00, 0.00, 0.00, 0.00, -8319.81, 0.000, 0.000, 0.000, 14:38:02.030, 1553971082030
252, -29936.92, 0.00, 0.00, 0.00, 0.00, 0.00, 0.00, -8227.27, 0.000, 0.000, 0.000, 14:38:02.031, 1553971082031
253, -29947.67, 0.00, 0.00, 0.00, 0.00, 0.00, 0.00, -8264.20, 0.000, 0.000, 0.000, 14:38:02.031, 1553971082031
254, -29998.86, 0.00, 0.00, 0.00, 0.00, 0.00, 0.00, -8348.00, 0.000, 0.000, 0.000, 14:38:02.031, 1553971082031
255, -29999.33, 0.00, 0.00, 0.00, 0.00, 0.00, 0.00, -8342.27, 0.000, 0.000, 0.000, 14:38:02.031, 1553971082031
0, -29939.15, 0.00, 0.00, 0.00, 0.00, 0.00, 0.00, -8242.88, 0.000, 0.000, 0.000, 14:38:02.031, 1553971082031
1, -29939.89, 0.00, 0.00, 0.00, 0.00, 0.00, 0.00, -8260.96, 0.072, 0.086, -1.024, 14:38:02.031, 1553971082031
2, -29987.48, 0.00, 0.00, 0.00, 0.00, 0.00, 0.00, -8344.49, 0.000, 0.000, 0.000, 14:38:02.031, 1553971082031
3, -30003.10, 0.00, 0.00, 0.00, 0.00, 0.00, 0.00, -8361.16, 0.000, 0.000, 0.000, 14:38:02.031, 1553971082031
4, -29935.29, 0.00, 0.00, 0.00, 0.00, 0.00, 0.00, -8252.82, 0.000, 0.000, 0.000, 14:38:02.031, 1553971082031
5, -29936.03, 0.00, 0.00, 0.00, 0.00, 0.00, 0.00, -8256.31, 0.000, 0.000, 0.000, 14:38:02.031, 1553971082031
6, -29985.89, 0.00, 0.00, 0.00, 0.00, 0.00, 0.00, -8339.41, 0.000, 0.000, 0.000, 14:38:02.031, 1553971082031
7, -30016.74, 0.00, 0.00, 0.00, 0.00, 0.00, 0.00, -8382.78, 0.000, 0.000, 0.000, 14:38:02.031, 1553971082031
8, -29969.40, 0.00, 0.00, 0.00, 0.00, 0.00, 0.00, -8291.74, 0.000, 0.000, 0.000, 14:38:02.031, 1553971082031
9, -29949.68, 0.00, 0.00, 0.00, 0.00, 0.00, 0.00, -8264.65, 0.000, 0.000, 0.000, 14:38:02.031, 1553971082031
10, -29983.57, 0.00, 0.00, 0.00, 0.00, 0.00, 0.00, -8324.15, 0.000, 0.000, 0.000, 14:38:02.031, 1553971082031
11, -30013.83, 0.00, 0.00, 0.00, 0.00, 0.00, 0.00, -8378.93, 0.074, 0.090, -1.024, 14:38:02.031, 1553971082031
12, -29965.31, 0.00, 0.00, 0.00, 0.00, 0.00, 0.00, -8287.92, 0.000, 0.000, 0.000, 14:38:02.031, 1553971082031
13, -29938.62, 0.00, 0.00, 0.00, 0.00, 0.00, 0.00, -8233.96, 0.000, 0.000, 0.000, 14:38:02.031, 1553971082031
14, -29980.30, 0.00, 0.00, 0.00, 0.00, 0.00, 0.00, -8303.36, 0.000, 0.000, 0.000, 14:38:02.031, 1553971082031
15, -30012.85, 0.00, 0.00, 0.00, 0.00, 0.00, 0.00, -8368.54, 0.000, 0.000, 0.000, 14:38:02.032, 1553971082032
16, -29974.83, 0.00, 0.00, 0.00, 0.00, 0.00, 0.00, -8296.95, 0.000, 0.000, 0.000, 14:38:02.032, 1553971082032
17, -29943.78, 0.00, 0.00, 0.00, 0.00, 0.00, 0.00, -8235.21, 0.000, 0.000, 0.000, 14:38:02.032, 1553971082032
18, -29962.15, 0.00, 0.00, 0.00, 0.00, 0.00, 0.00, -8286.55, 0.000, 0.000, 0.000, 14:38:02.032, 1553971082032
19, -29993.51, 0.00, 0.00, 0.00, 0.00, 0.00, 0.00, -8360.25, 0.000, 0.000, 0.000, 14:38:02.032, 1553971082032
20, -29976.53, 0.00, 0.00, 0.00, 0.00, 0.00, 0.00, -8326.45, 0.078, 0.090, -1.024, 14:38:02.032, 1553971082032
21, -29928.52, 0.00, 0.00, 0.00, 0.00, 0.00, 0.00, -8234.65, 0.000, 0.000, 0.000, 14:38:02.032, 1553971082032
22, -29944.94, 0.00, 0.00, 0.00, 0.00, 0.00, 0.00, -8269.90, 0.000, 0.000, 0.000, 14:38:02.032, 1553971082032
23, -29995.68, 0.00, 0.00, 0.00, 0.00, 0.00, 0.00, -8355.98, 0.000, 0.000, 0.000, 14:38:02.032, 1553971082032
24, -30001.79, 0.00, 0.00, 0.00, 0.00, 0.00, 0.00, -8349.36, 0.000, 0.000, 0.000, 14:38:02.032, 1553971082032
25, -29943.71, 0.00, 0.00, 0.00, 0.00, 0.00, 0.00, -8243.41, 0.000, 0.000, 0.000, 14:38:02.032, 1553971082032
26, -29945.26, 0.00, 0.00, 0.00, 0.00, 0.00, 0.00, -8260.31, 0.000, 0.000, 0.000, 14:38:02.032, 1553971082032
27, -29988.26, 0.00, 0.00, 0.00, 0.00, 0.00, 0.00, -8340.42, 0.000, 0.000, 0.000, 14:38:02.032, 1553971082032
28, -30003.95, 0.00, 0.00, 0.00, 0.00, 0.00, 0.00, -8361.81, 0.000, 0.000, 0.000, 14:38:02.032, 1553971082032
29, -29942.22, 0.00, 0.00, 0.00, 0.00, 0.00, 0.00, -8250.07, 0.000, 0.000, 0.000, 14:38:02.033, 1553971082033
30, -29927.58, 0.00, 0.00, 0.00, 0.00, 0.00, 0.00, -8237.53, 0.076, 0.092, -1.032, 14:38:02.033, 1553971082033
31, -29972.82, 0.00, 0.00, 0.00, 0.00, 0.00, 0.00, -8311.65, 0.000, 0.000, 0.000, 14:38:02.033, 1553971082033
32, -30007.08, 0.00, 0.00, 0.00, 0.00, 0.00, 0.00, -8358.03, 0.000, 0.000, 0.000, 14:38:02.033, 1553971082033
33, -29960.34, 0.00, 0.00, 0.00, 0.00, 0.00, 0.00, -8264.83, 0.000, 0.000, 0.000, 14:38:02.033, 1553971082033
34, -29946.29, 0.00, 0.00, 0.00, 0.00, 0.00, 0.00, -8237.33, 0.000, 0.000, 0.000, 14:38:02.033, 1553971082033
35, -29976.19, 0.00, 0.00, 0.00, 0.00, 0.00, 0.00, -8303.81, 0.000, 0.000, 0.000, 14:38:02.033, 1553971082033
36, -30008.65, 0.00, 0.00, 0.00, 0.00, 0.00, 0.00, -8361.54, 0.000, 0.000, 0.000, 14:38:02.033, 1553971082033
37, -29960.54, 0.00, 0.00, 0.00, 0.00, 0.00, 0.00, -8278.50, 0.000, 0.000, 0.000, 14:38:02.033, 1553971082033
38, -29926.48, 0.00, 0.00, 0.00, 0.00, 0.00, 0.00, -8223.94, 0.000, 0.000, 0.000, 14:38:02.033, 1553971082033
39, -29954.13, 0.00, 0.00, 0.00, 0.00, 0.00, 0.00, -8278.93, 0.000, 0.000, 0.000, 14:38:02.033, 1553971082033
40, -29997.07, 0.00, 0.00, 0.00, 0.00, 0.00, 0.00, -8350.95, 0.066, 0.090, -1.028, 14:38:02.033, 1553971082033
41, -29963.45, 0.00, 0.00, 0.00, 0.00, 0.00, 0.00, -8293.61, 0.000, 0.000, 0.000, 14:38:02.033, 1553971082033
42, -29915.73, 0.00, 0.00, 0.00, 0.00, 0.00, 0.00, -8220.35, 0.000, 0.000, 0.000, 14:38:02.033, 1553971082033
43, -29943.16, 0.00, 0.00, 0.00, 0.00, 0.00, 0.00, -8274.77, 0.000, 0.000, 0.000, 14:38:02.033, 1553971082033
44, -30002.19, 0.00, 0.00, 0.00, 0.00, 0.00, 0.00, -8368.76, 0.000, 0.000, 0.000, 14:38:02.033, 1553971082033
45, -29987.57, 0.00, 0.00, 0.00, 0.00, 0.00, 0.00, -8337.18, 0.000, 0.000, 0.000, 14:38:02.033, 1553971082033
46, -29920.02, 0.00, 0.00, 0.00, 0.00, 0.00, 0.00, -8224.57, 0.000, 0.000, 0.000, 14:38:02.034, 1553971082034
47, -29939.89, 0.00, 0.00, 0.00, 0.00, 0.00, 0.00, -8255.33, 0.000, 0.000, 0.000, 14:38:02.034, 1553971082034
48, -29982.67, 0.00, 0.00, 0.00, 0.00, 0.00, 0.00, -8338.90, 0.000, 0.000, 0.000, 14:38:02.034, 1553971082034
49, -29984.28, 0.00, 0.00, 0.00, 0.00, 0.00, 0.00, -8338.90, 0.000, 0.000, 0.000, 14:38:02.034, 1553971082034
50, -29923.89, 0.00, 0.00, 0.00, 0.00, 0.00, 0.00, -8233.42, 0.066, 0.090, -1.024, 14:38:02.034, 1553971082034
51, -29924.22, 0.00, 0.00, 0.00, 0.00, 0.00, 0.00, -8240.44, 0.000, 0.000, 0.000, 14:38:02.034, 1553971082034
52, -29977.44, 0.00, 0.00, 0.00, 0.00, 0.00, 0.00, -8326.34, 0.000, 0.000, 0.000, 14:38:02.034, 1553971082034
53, -30003.44, 0.00, 0.00, 0.00, 0.00, 0.00, 0.00, -8360.89, 0.000, 0.000, 0.000, 14:38:02.034, 1553971082034
54, -29946.06, 0.00, 0.00, 0.00, 0.00, 0.00, 0.00, -8258.21, 0.000, 0.000, 0.000, 14:38:02.034, 1553971082034
55, -29940.18, 0.00, 0.00, 0.00, 0.00, 0.00, 0.00, -8242.47, 0.000, 0.000, 0.000, 14:38:02.034, 1553971082034
56, -29978.20, 0.00, 0.00, 0.00, 0.00, 0.00, 0.00, -8320.15, 0.000, 0.000, 0.000, 14:38:02.034, 1553971082034
57, -30010.99, 0.00, 0.00, 0.00, 0.00, 0.00, 0.00, -8372.83, 0.000, 0.000, 0.000, 14:38:02.034, 1553971082034
58, -29958.22, 0.00, 0.00, 0.00, 0.00, 0.00, 0.00, -8270.46, 0.000, 0.000, 0.000, 14:38:02.034, 1553971082034
59, -29937.12, 0.00, 0.00, 0.00, 0.00, 0.00, 0.00, -8232.08, 0.000, 0.000, 0.000, 14:38:02.034, 1553971082034
60, -29977.20, 0.00, 0.00, 0.00, 0.00, 0.00, 0.00, -8305.93, 0.078, 0.088, -1.028, 14:38:02.034, 1553971082034
61, -30012.38, 0.00, 0.00, 0.00, 0.00, 0.00, 0.00, -8367.73, 0.000, 0.000, 0.000, 14:38:02.034, 1553971082034
62, -29970.89, 0.00, 0.00, 0.00, 0.00, 0.00, 0.00, -8284.85, 0.000, 0.000, 0.000, 14:38:02.035, 1553971082035
63, -29934.30, 0.00, 0.00, 0.00, 0.00, 0.00, 0.00, -8229.08, 0.000, 0.000, 0.000, 14:38:02.035, 1553971082035
64, -29970.83, 0.00, 0.00, 0.00, 0.00, 0.00, 0.00, -8290.71, 0.000, 0.000, 0.000, 14:38:02.035, 1553971082035
65, -30010.90, 0.00, 0.00, 0.00, 0.00, 0.00, 0.00, -8359.93, 0.000, 0.000, 0.000, 14:38:02.035, 1553971082035
66, -29979.01, 0.00, 0.00, 0.00, 0.00, 0.00, 0.00, -8304.81, 0.000, 0.000, 0.000, 14:38:02.035, 1553971082035
67, -29931.80, 0.00, 0.00, 0.00, 0.00, 0.00, 0.00, -8223.34, 0.000, 0.000, 0.000, 14:38:02.035, 1553971082035
68, -29958.20, 0.00, 0.00, 0.00, 0.00, 0.00, 0.00, -8269.23, 0.000, 0.000, 0.000, 14:38:02.035, 1553971082035
69, -29993.63, 0.00, 0.00, 0.00, 0.00, 0.00, 0.00, -8342.07, 0.000, 0.000, 0.000, 14:38:02.035, 1553971082035
70, -29985.33, 0.00, 0.00, 0.00, 0.00, 0.00, 0.00, -8320.30, 0.078, 0.092, -1.026, 14:38:02.035, 1553971082035
71, -29935.29, 0.00, 0.00, 0.00, 0.00, 0.00, 0.00, -8221.64, 0.000, 0.000, 0.000, 14:38:02.035, 1553971082035
72, -29952.77, 0.00, 0.00, 0.00, 0.00, 0.00, 0.00, -8253.40, 0.000, 0.000, 0.000, 14:38:02.035, 1553971082035
73, -29998.61, 0.00, 0.00, 0.00, 0.00, 0.00, 0.00, -8334.94, 0.000, 0.000, 0.000, 14:38:02.035, 1553971082035
74, -30009.41, 0.00, 0.00, 0.00, 0.00, 0.00, 0.00, -8342.88, 0.000, 0.000, 0.000, 14:38:02.035, 1553971082035
75, -29954.33, 0.00, 0.00, 0.00, 0.00, 0.00, 0.00, -8239.17, 0.000, 0.000, 0.000, 14:38:02.035, 1553971082035
76, -29949.82, 0.00, 0.00, 0.00, 0.00, 0.00, 0.00, -8246.30, 0.000, 0.000, 0.000, 14:38:02.035, 1553971082035
77, -29994.10, 0.00, 0.00, 0.00, 0.00, 0.00, 0.00, -8327.12, 0.000, 0.000, 0.000, 14:38:02.035, 1553971082035
78, -30015.69, 0.00, 0.00, 0.00, 0.00, 0.00, 0.00, -8356.74, 0.000, 0.000, 0.000, 14:38:02.036, 1553971082036
79, -29955.85, 0.00, 0.00, 0.00, 0.00, 0.00, 0.00, -8251.24, 0.076, 0.090, -1.026, 14:38:02.036, 1553971082036
80, -29944.29, 0.00, 0.00, 0.00, 0.00, 0.00, 0.00, -8231.52, 0.000, 0.000, 0.000, 14:38:02.036, 1553971082036
81, -29983.32, 0.00, 0.00, 0.00, 0.00, 0.00, 0.00, -8307.41, 0.000, 0.000, 0.000, 14:38:02.036, 1553971082036
82, -30005.34, 0.00, 0.00, 0.00, 0.00, 0.00, 0.00, -8353.34, 0.000, 0.000, 0.000, 14:38:02.036, 1553971082036
83, -29953.01, 0.00, 0.00, 0.00, 0.00, 0.00, 0.00, -8262.52, 0.000, 0.000, 0.000, 14:38:02.036, 1553971082036
84, -29925.45, 0.00, 0.00, 0.00, 0.00, 0.00, 0.00, -8228.59, 0.000, 0.000, 0.000, 14:38:02.036, 1553971082036
85, -29962.69, 0.00, 0.00, 0.00, 0.00, 0.00, 0.00, -8302.60, 0.000, 0.000, 0.000, 14:38:02.036, 1553971082036
86, -30002.83, 0.00, 0.00, 0.00, 0.00, 0.00, 0.00, -8366.75, 0.000, 0.000, 0.000, 14:38:02.036, 1553971082036
87, -29960.95, 0.00, 0.00, 0.00, 0.00, 0.00, 0.00, -8284.41, 0.000, 0.000, 0.000, 14:38:02.036, 1553971082036
88, -29932.14, 0.00, 0.00, 0.00, 0.00, 0.00, 0.00, -8221.51, 0.000, 0.000, 0.000, 14:38:02.036, 1553971082036
89, -29975.45, 0.00, 0.00, 0.00, 0.00, 0.00, 0.00, -8288.63, 0.072, 0.090, -1.030, 14:38:02.036, 1553971082036
90, -30015.91, 0.00, 0.00, 0.00, 0.00, 0.00, 0.00, -8361.83, 0.000, 0.000, 0.000, 14:38:02.036, 1553971082036
91, -29988.75, 0.00, 0.00, 0.00, 0.00, 0.00, 0.00, -8312.59, 0.000, 0.000, 0.000, 14:38:02.036, 1553971082036
92, -29924.04, 0.00, 0.00, 0.00, 0.00, 0.00, 0.00, -8213.57, 0.000, 0.000, 0.000, 14:38:02.036, 1553971082036
93, -29947.11, 0.00, 0.00, 0.00, 0.00, 0.00, 0.00, -8260.44, 0.000, 0.000, 0.000, 14:38:02.036, 1553971082036
94, -29995.59, 0.00, 0.00, 0.00, 0.00, 0.00, 0.00, -8343.39, 0.000, 0.000, 0.000, 14:38:02.036, 1553971082036
95, -29988.17, 0.00, 0.00, 0.00, 0.00, 0.00, 0.00, -8326.67, 0.000, 0.000, 0.000, 14:38:02.036, 1553971082036
96, -29936.74, 0.00, 0.00, 0.00, 0.00, 0.00, 0.00, -8231.72, 0.000, 0.000, 0.000, 14:38:02.036, 1553971082036
97, -29955.65, 0.00, 0.00, 0.00, 0.00, 0.00, 0.00, -8264.27, 0.000, 0.000, 0.000, 14:38:02.036, 1553971082036
98, -30000.04, 0.00, 0.00, 0.00, 0.00, 0.00, 0.00, -8347.95, 0.000, 0.000, 0.000, 14:38:02.036, 1553971082036
99, -30009.41, 0.00, 0.00, 0.00, 0.00, 0.00, 0.00, -8360.25, 0.066, 0.090, -1.034, 14:38:02.036, 1553971082036
100, -29947.69, 0.00, 0.00, 0.00, 0.00, 0.00, 0.00, -8249.74, 0.000, 0.000, 0.000, 14:38:02.036, 1553971082036
101, -29936.96, 0.00, 0.00, 0.00, 0.00, 0.00, 0.00, -8245.89, 0.000, 0.000, 0.000, 14:38:02.037, 1553971082037
102, -29978.18, 0.00, 0.00, 0.00, 0.00, 0.00, 0.00, -8326.52, 0.000, 0.000, 0.000, 14:38:02.037, 1553971082037
103, -30004.04, 0.00, 0.00, 0.00, 0.00, 0.00, 0.00, -8364.09, 0.000, 0.000, 0.000, 14:38:02.037, 1553971082037
104, -29951.58, 0.00, 0.00, 0.00, 0.00, 0.00, 0.00, -8263.44, 0.000, 0.000, 0.000, 14:38:02.509, 1553971082509
105, -29942.48, 0.00, 0.00, 0.00, 0.00, 0.00, 0.00, -8243.75, 0.000, 0.000, 0.000, 14:38:02.509, 1553971082509
106, -29978.70, 0.00, 0.00, 0.00, 0.00, 0.00, 0.00, -8319.03, 0.000, 0.000, 0.000, 14:38:02.509, 1553971082509
107, -30007.73, 0.00, 0.00, 0.00, 0.00, 0.00, 0.00, -8370.93, 0.000, 0.000, 0.000, 14:38:02.509, 1553971082509
108, -29966.63, 0.00, 0.00, 0.00, 0.00, 0.00, 0.00, -8277.95, 0.000, 0.000, 0.000, 14:38:02.510, 1553971082510
109, -29937.50, 0.00, 0.00, 0.00, 0.00, 0.00, 0.00, -8228.93, 0.066, 0.090, -1.026, 14:38:02.510, 1553971082510
110, -29971.43, 0.00, 0.00, 0.00, 0.00, 0.00, 0.00, -8297.46, 0.000, 0.000, 0.000, 14:38:02.510, 1553971082510
111, -30005.70, 0.00, 0.00, 0.00, 0.00, 0.00, 0.00, -8368.27, 0.000, 0.000, 0.000, 14:38:02.510, 1553971082510
112, -29957.35, 0.00, 0.00, 0.00, 0.00, 0.00, 0.00, -8290.19, 0.000, 0.000, 0.000, 14:38:02.510, 1553971082510
113, -29920.78, 0.00, 0.00, 0.00, 0.00, 0.00, 0.00, -8217.55, 0.000, 0.000, 0.000, 14:38:02.510, 1553971082510
114, -29959.56, 0.00, 0.00, 0.00, 0.00, 0.00, 0.00, -8280.40, 0.000, 0.000, 0.000, 14:38:02.510, 1553971082510
115, -30001.70, 0.00, 0.00, 0.00, 0.00, 0.00, 0.00, -8358.52, 0.000, 0.000, 0.000, 14:38:02.510, 1553971082510
116, -29978.92, 0.00, 0.00, 0.00, 0.00, 0.00, 0.00, -8317.67, 0.000, 0.000, 0.000, 14:38:02.510, 1553971082510
117, -29932.16, 0.00, 0.00, 0.00, 0.00, 0.00, 0.00, -8224.86, 0.000, 0.000, 0.000, 14:38:02.510, 1553971082510
118, -29954.51, 0.00, 0.00, 0.00, 0.00, 0.00, 0.00, -8266.95, 0.000, 0.000, 0.000, 14:38:02.510, 1553971082510
119, -30001.90, 0.00, 0.00, 0.00, 0.00, 0.00, 0.00, -8358.64, 0.068, 0.092, -1.026, 14:38:02.510, 1553971082510
120, -29992.58, 0.00, 0.00, 0.00, 0.00, 0.00, 0.00, -8337.94, 0.000, 0.000, 0.000, 14:38:02.510, 1553971082510
121, -29932.16, 0.00, 0.00, 0.00, 0.00, 0.00, 0.00, -8228.97, 0.000, 0.000, 0.000, 14:38:02.510, 1553971082510
122, -29938.55, 0.00, 0.00, 0.00, 0.00, 0.00, 0.00, -8251.39, 0.000, 0.000, 0.000, 14:38:02.510, 1553971082510
123, -29984.37, 0.00, 0.00, 0.00, 0.00, 0.00, 0.00, -8330.90, 0.000, 0.000, 0.000, 14:38:02.510, 1553971082510
124, -29994.27, 0.00, 0.00, 0.00, 0.00, 0.00, 0.00, -8344.02, 0.000, 0.000, 0.000, 14:38:02.510, 1553971082510
125, -29945.70, 0.00, 0.00, 0.00, 0.00, 0.00, 0.00, -8246.68, 0.000, 0.000, 0.000, 14:38:02.510, 1553971082510
126, -29947.13, 0.00, 0.00, 0.00, 0.00, 0.00, 0.00, -8252.24, 0.000, 0.000, 0.000, 14:38:02.510, 1553971082510
127, -29994.16, 0.00, 0.00, 0.00, 0.00, 0.00, 0.00, -8331.70, 0.000, 0.000, 0.000, 14:38:02.511, 1553971082511
128, -29997.94, 0.00, 0.00, 0.00, 0.00, 0.00, 0.00, -8350.63, 0.000, 0.000, 0.000, 14:38:02.511, 1553971082511
129, -29941.86, 0.00, 0.00, 0.00, 0.00, 0.00, 0.00, -8250.63, 0.072, 0.084, -1.028, 14:38:02.511, 1553971082511
130, -29926.68, 0.00, 0.00, 0.00, 0.00, 0.00, 0.00, -8225.87, 0.000, 0.000, 0.000, 14:38:02.511, 1553971082511
131, -29966.13, 0.00, 0.00, 0.00, 0.00, 0.00, 0.00, -8297.64, 0.000, 0.000, 0.000, 14:38:02.511, 1553971082511
132, -30001.20, 0.00, 0.00, 0.00, 0.00, 0.00, 0.00, -8357.96, 0.000, 0.000, 0.000, 14:38:02.511, 1553971082511
133, -29954.71, 0.00, 0.00, 0.00, 0.00, 0.00, 0.00, -8265.81, 0.000, 0.000, 0.000, 14:38:02.511, 1553971082511
134, -29920.74, 0.00, 0.00, 0.00, 0.00, 0.00, 0.00, -8211.38, 0.000, 0.000, 0.000, 14:38:02.511, 1553971082511
135, -29953.62, 0.00, 0.00, 0.00, 0.00, 0.00, 0.00, -8275.15, 0.000, 0.000, 0.000, 14:38:02.511, 1553971082511
136, -30000.71, 0.00, 0.00, 0.00, 0.00, 0.00, 0.00, -8354.10, 0.000, 0.000, 0.000, 14:38:02.511, 1553971082511
137, -29970.02, 0.00, 0.00, 0.00, 0.00, 0.00, 0.00, -8293.39, 0.000, 0.000, 0.000, 14:38:02.512, 1553971082512
138, -29928.87, 0.00, 0.00, 0.00, 0.00, 0.00, 0.00, -8218.11, 0.000, 0.000, 0.000, 14:38:02.512, 1553971082512
139, -29959.56, 0.00, 0.00, 0.00, 0.00, 0.00, 0.00, -8275.78, 0.068, 0.086, -1.032, 14:38:02.512, 1553971082512
140, -30008.76, 0.00, 0.00, 0.00, 0.00, 0.00, 0.00, -8357.81, 0.000, 0.000, 0.000, 14:38:02.512, 1553971082512
141, -29985.80, 0.00, 0.00, 0.00, 0.00, 0.00, 0.00, -8313.46, 0.000, 0.000, 0.000, 14:38:02.512, 1553971082512
142, -29931.98, 0.00, 0.00, 0.00, 0.00, 0.00, 0.00, -8219.65, 0.000, 0.000, 0.000, 14:38:02.512, 1553971082512
143, -29942.13, 0.00, 0.00, 0.00, 0.00, 0.00, 0.00, -8254.77, 0.000, 0.000, 0.000, 14:38:02.512, 1553971082512
144, -29988.13, 0.00, 0.00, 0.00, 0.00, 0.00, 0.00, -8336.53, 0.000, 0.000, 0.000, 14:38:02.512, 1553971082512
145, -29995.12, 0.00, 0.00, 0.00, 0.00, 0.00, 0.00, -8336.02, 0.000, 0.000, 0.000, 14:38:02.512, 1553971082512
146, -29936.36, 0.00, 0.00, 0.00, 0.00, 0.00, 0.00, -8229.73, 0.000, 0.000, 0.000, 14:38:02.512, 1553971082512
147, -29936.54, 0.00, 0.00, 0.00, 0.00, 0.00, 0.00, -8240.08, 0.000, 0.000, 0.000, 14:38:02.512, 1553971082512
148, -29985.91, 0.00, 0.00, 0.00, 0.00, 0.00, 0.00, -8327.03, 0.072, 0.084, -1.026, 14:38:02.512, 1553971082512
149, -30012.16, 0.00, 0.00, 0.00, 0.00, 0.00, 0.00, -8350.66, 0.000, 0.000, 0.000, 14:38:02.512, 1553971082512
150, -29955.87, 0.00, 0.00, 0.00, 0.00, 0.00, 0.00, -8245.36, 0.000, 0.000, 0.000, 14:38:02.512, 1553971082512
151, -29930.59, 0.00, 0.00, 0.00, 0.00, 0.00, 0.00, -8231.63, 0.000, 0.000, 0.000, 14:38:02.512, 1553971082512
152, -29973.22, 0.00, 0.00, 0.00, 0.00, 0.00, 0.00, -8314.11, 0.000, 0.000, 0.000, 14:38:02.512, 1553971082512
153, -30000.02, 0.00, 0.00, 0.00, 0.00, 0.00, 0.00, -8361.92, 0.000, 0.000, 0.000, 14:38:02.512, 1553971082512
154, -29950.31, 0.00, 0.00, 0.00, 0.00, 0.00, 0.00, -8260.13, 0.000, 0.000, 0.000, 14:38:02.512, 1553971082512
155, -29932.43, 0.00, 0.00, 0.00, 0.00, 0.00, 0.00, -8229.08, 0.000, 0.000, 0.000, 14:38:02.512, 1553971082512
156, -29970.54, 0.00, 0.00, 0.00, 0.00, 0.00, 0.00, -8302.02, 0.000, 0.000, 0.000, 14:38:02.513, 1553971082513
157, -30007.37, 0.00, 0.00, 0.00, 0.00, 0.00, 0.00, -8362.53, 0.000, 0.000, 0.000, 14:38:02.513, 1553971082513
158, -29970.71, 0.00, 0.00, 0.00, 0.00, 0.00, 0.00, -8287.58, 0.078, 0.086, -1.024, 14:38:02.513, 1553971082513
159, -29945.26, 0.00, 0.00, 0.00, 0.00, 0.00, 0.00, -8238.12, 0.000, 0.000, 0.000, 14:38:02.513, 1553971082513
160, -29979.48, 0.00, 0.00, 0.00, 0.00, 0.00, 0.00, -8303.85, 0.000, 0.000, 0.000, 14:38:02.513, 1553971082513
161, -30016.65, 0.00, 0.00, 0.00, 0.00, 0.00, 0.00, -8372.32, 0.000, 0.000, 0.000, 14:38:02.513, 1553971082513
162, -29998.70, 0.00, 0.00, 0.00, 0.00, 0.00, 0.00, -8321.80, 0.000, 0.000, 0.000, 14:38:02.513, 1553971082513
163, -29944.32, 0.00, 0.00, 0.00, 0.00, 0.00, 0.00, -8234.43, 0.000, 0.000, 0.000, 14:38:02.513, 1553971082513
164, -29964.12, 0.00, 0.00, 0.00, 0.00, 0.00, 0.00, -8285.57, 0.000, 0.000, 0.000, 14:38:02.513, 1553971082513
165, -30011.87, 0.00, 0.00, 0.00, 0.00, 0.00, 0.00, -8369.30, 0.000, 0.000, 0.000, 14:38:02.513, 1553971082513
166, -30006.01, 0.00, 0.00, 0.00, 0.00, 0.00, 0.00, -8342.65, 0.000, 0.000, 0.000, 14:38:02.514, 1553971082514
167, -29946.62, 0.00, 0.00, 0.00, 0.00, 0.00, 0.00, -8242.34, 0.000, 0.000, 0.000, 14:38:02.514, 1553971082514
168, -29955.49, 0.00, 0.00, 0.00, 0.00, 0.00, 0.00, -8271.87, 0.072, 0.090, -1.030, 14:38:02.514, 1553971082514
169, -29995.75, 0.00, 0.00, 0.00, 0.00, 0.00, 0.00, -8354.54, 0.000, 0.000, 0.000, 14:38:02.514, 1553971082514
170, -29997.87, 0.00, 0.00, 0.00, 0.00, 0.00, 0.00, -8350.99, 0.000, 0.000, 0.000, 14:38:02.514, 1553971082514
171, -29937.46, 0.00, 0.00, 0.00, 0.00, 0.00, 0.00, -8239.03, 0.000, 0.000, 0.000, 14:38:02.514, 1553971082514
172, -29951.36, 0.00, 0.00, 0.00, 0.00, 0.00, 0.00, -8268.60, 0.000, 0.000, 0.000, 14:38:02.514, 1553971082514
173, -29993.22, 0.00, 0.00, 0.00, 0.00, 0.00, 0.00, -8348.33, 0.000, 0.000, 0.000, 14:38:02.514, 1553971082514
174, -30004.36, 0.00, 0.00, 0.00, 0.00, 0.00, 0.00, -8368.31, 0.000, 0.000, 0.000, 14:38:02.514, 1553971082514
175, -29956.63, 0.00, 0.00, 0.00, 0.00, 0.00, 0.00, -8270.35, 0.000, 0.000, 0.000, 14:38:02.514, 1553971082514
176, -29940.07, 0.00, 0.00, 0.00, 0.00, 0.00, 0.00, -8254.12, 0.000, 0.000, 0.000, 14:38:02.514, 1553971082514
177, -29987.26, 0.00, 0.00, 0.00, 0.00, 0.00, 0.00, -8333.69, 0.000, 0.000, 0.000, 14:38:02.514, 1553971082514
178, -30021.68, 0.00, 0.00, 0.00, 0.00, 0.00, 0.00, -8383.85, 0.072, 0.094, -1.026, 14:38:02.514, 1553971082514
179, -29970.47, 0.00, 0.00, 0.00, 0.00, 0.00, 0.00, -8284.18, 0.000, 0.000, 0.000, 14:38:02.514, 1553971082514
180, -29946.91, 0.00, 0.00, 0.00, 0.00, 0.00, 0.00, -8247.77, 0.000, 0.000, 0.000, 14:38:02.515, 1553971082515
181, -29980.10, 0.00, 0.00, 0.00, 0.00, 0.00, 0.00, -8319.52, 0.000, 0.000, 0.000, 14:38:02.515, 1553971082515
182, -30019.26, 0.00, 0.00, 0.00, 0.00, 0.00, 0.00, -8383.07, 0.000, 0.000, 0.000, 14:38:02.515, 1553971082515
183, -29987.52, 0.00, 0.00, 0.00, 0.00, 0.00, 0.00, -8309.69, 0.000, 0.000, 0.000, 14:38:02.515, 1553971082515
184, -29950.35, 0.00, 0.00, 0.00, 0.00, 0.00, 0.00, -8252.84, 0.000, 0.000, 0.000, 14:38:02.515, 1553971082515
185, -29975.19, 0.00, 0.00, 0.00, 0.00, 0.00, 0.00, -8311.32, 0.000, 0.000, 0.000, 14:38:02.515, 1553971082515
186, -30006.86, 0.00, 0.00, 0.00, 0.00, 0.00, 0.00, -8372.27, 0.000, 0.000, 0.000, 14:38:02.515, 1553971082515
187, -29979.23, 0.00, 0.00, 0.00, 0.00, 0.00, 0.00, -8313.04, 0.000, 0.000, 0.000, 14:38:02.515, 1553971082515
188, -29928.00, 0.00, 0.00, 0.00, 0.00, 0.00, 0.00, -8223.30, 0.072, 0.094, -1.024, 14:38:02.515, 1553971082515
189, -29948.92, 0.00, 0.00, 0.00, 0.00, 0.00, 0.00, -8268.58, 0.000, 0.000, 0.000, 14:38:02.515, 1553971082515
190, -29994.61, 0.00, 0.00, 0.00, 0.00, 0.00, 0.00, -8347.75, 0.000, 0.000, 0.000, 14:38:02.515, 1553971082515
191, -29989.16, 0.00, 0.00, 0.00, 0.00, 0.00, 0.00, -8327.59, 0.000, 0.000, 0.000, 14:38:02.515, 1553971082515
192, -29930.37, 0.00, 0.00, 0.00, 0.00, 0.00, 0.00, -8225.24, 0.000, 0.000, 0.000, 14:38:02.515, 1553971082515
193, -29937.08, 0.00, 0.00, 0.00, 0.00, 0.00, 0.00, -8247.82, 0.000, 0.000, 0.000, 14:38:02.515, 1553971082515
194, -29977.53, 0.00, 0.00, 0.00, 0.00, 0.00, 0.00, -8327.21, 0.000, 0.000, 0.000, 14:38:02.515, 1553971082515
195, -29992.71, 0.00, 0.00, 0.00, 0.00, 0.00, 0.00, -8340.73, 0.000, 0.000, 0.000, 14:38:02.515, 1553971082515
196, -29938.95, 0.00, 0.00, 0.00, 0.00, 0.00, 0.00, -8242.18, 0.000, 0.000, 0.000, 14:38:02.515, 1553971082515
197, -29938.80, 0.00, 0.00, 0.00, 0.00, 0.00, 0.00, -8251.91, 0.000, 0.000, 0.000, 14:38:02.516, 1553971082516
198, -29987.48, 0.00, 0.00, 0.00, 0.00, 0.00, 0.00, -8336.73, 0.070, 0.098, -1.022, 14:38:02.516, 1553971082516
199, -30001.38, 0.00, 0.00, 0.00, 0.00, 0.00, 0.00, -8361.99, 0.000, 0.000, 0.000, 14:38:02.516, 1553971082516
200, -29948.14, 0.00, 0.00, 0.00, 0.00, 0.00, 0.00, -8253.25, 0.000, 0.000, 0.000, 14:38:02.516, 1553971082516
201, -29928.27, 0.00, 0.00, 0.00, 0.00, 0.00, 0.00, -8228.41, 0.000, 0.000, 0.000, 14:38:02.516, 1553971082516
202, -29969.58, 0.00, 0.00, 0.00, 0.00, 0.00, 0.00, -8298.46, 0.000, 0.000, 0.000, 14:38:02.516, 1553971082516
203, -30001.61, 0.00, 0.00, 0.00, 0.00, 0.00, 0.00, -8350.81, 0.000, 0.000, 0.000, 14:38:02.516, 1553971082516
204, -29951.38, 0.00, 0.00, 0.00, 0.00, 0.00, 0.00, -8261.52, 0.000, 0.000, 0.000, 14:38:02.516, 1553971082516
205, -29924.71, 0.00, 0.00, 0.00, 0.00, 0.00, 0.00, -8218.87, 0.000, 0.000, 0.000, 14:38:02.516, 1553971082516
206, -29958.65, 0.00, 0.00, 0.00, 0.00, 0.00, 0.00, -8285.95, 0.000, 0.000, 0.000, 14:38:02.516, 1553971082516
207, -30001.43, 0.00, 0.00, 0.00, 0.00, 0.00, 0.00, -8355.19, 0.076, 0.094, -1.022, 14:38:02.516, 1553971082516
208, -29960.10, 0.00, 0.00, 0.00, 0.00, 0.00, 0.00, -8278.19, 0.000, 0.000, 0.000, 14:38:02.516, 1553971082516
209, -29919.84, 0.00, 0.00, 0.00, 0.00, 0.00, 0.00, -8212.21, 0.000, 0.000, 0.000, 14:38:02.516, 1553971082516
210, -29953.55, 0.00, 0.00, 0.00, 0.00, 0.00, 0.00, -8276.00, 0.000, 0.000, 0.000, 14:38:02.516, 1553971082516
211, -29988.48, 0.00, 0.00, 0.00, 0.00, 0.00, 0.00, -8343.17, 0.000, 0.000, 0.000, 14:38:02.517, 1553971082517
212, -29968.41, 0.00, 0.00, 0.00, 0.00, 0.00, 0.00, -8295.94, 0.000, 0.000, 0.000, 14:38:02.517, 1553971082517
213, -29922.99, 0.00, 0.00, 0.00, 0.00, 0.00, 0.00, -8213.08, 0.000, 0.000, 0.000, 14:38:02.517, 1553971082517
214, -29948.61, 0.00, 0.00, 0.00, 0.00, 0.00, 0.00, -8260.91, 0.000, 0.000, 0.000, 14:38:02.517, 1553971082517
215, -29993.45, 0.00, 0.00, 0.00, 0.00, 0.00, 0.00, -8341.16, 0.000, 0.000, 0.000, 14:38:02.517, 1553971082517
216, -29981.53, 0.00, 0.00, 0.00, 0.00, 0.00, 0.00, -8320.03, 0.000, 0.000, 0.000, 14:38:02.517, 1553971082517
217, -29926.73, 0.00, 0.00, 0.00, 0.00, 0.00, 0.00, -8218.56, 0.074, 0.092, -1.024, 14:38:02.517, 1553971082517
218, -29944.85, 0.00, 0.00, 0.00, 0.00, 0.00, 0.00, -8247.26, 0.000, 0.000, 0.000, 14:38:02.517, 1553971082517
219, -29990.74, 0.00, 0.00, 0.00, 0.00, 0.00, 0.00, -8331.61, 0.000, 0.000, 0.000, 14:38:02.517, 1553971082517
220, -29994.77, 0.00, 0.00, 0.00, 0.00, 0.00, 0.00, -8339.10, 0.000, 0.000, 0.000, 14:38:02.517, 1553971082517
221, -29928.69, 0.00, 0.00, 0.00, 0.00, 0.00, 0.00, -8229.55, 0.000, 0.000, 0.000, 14:38:02.517, 1553971082517
222, -29923.49, 0.00, 0.00, 0.00, 0.00, 0.00, 0.00, -8232.35, 0.000, 0.000, 0.000, 14:38:02.517, 1553971082517
223, -29966.89, 0.00, 0.00, 0.00, 0.00, 0.00, 0.00, -8307.99, 0.000, 0.000, 0.000, 14:38:02.517, 1553971082517
224, -29985.89, 0.00, 0.00, 0.00, 0.00, 0.00, 0.00, -8338.34, 0.000, 0.000, 0.000, 14:38:02.991, 1553971082991
225, -29936.56, 0.00, 0.00, 0.00, 0.00, 0.00, 0.00, -8242.54, 0.000, 0.000, 0.000, 14:38:02.991, 1553971082991
226, -29924.76, 0.00, 0.00, 0.00, 0.00, 0.00, 0.00, -8222.18, 0.000, 0.000, 0.000, 14:38:02.991, 1553971082991
227, -29959.38, 0.00, 0.00, 0.00, 0.00, 0.00, 0.00, -8291.33, 0.072, 0.092, -1.028, 14:38:02.991, 1553971082991
228, -29996.15, 0.00, 0.00, 0.00, 0.00, 0.00, 0.00, -8349.23, 0.000, 0.000, 0.000, 14:38:02.991, 1553971082991
229, -29948.74, 0.00, 0.00, 0.00, 0.00, 0.00, 0.00, -8262.39, 0.000, 0.000, 0.000, 14:38:02.991, 1553971082991
230, -29924.67, 0.00, 0.00, 0.00, 0.00, 0.00, 0.00, -8217.35, 0.000, 0.000, 0.000, 14:38:02.991, 1553971082991
231, -29959.29, 0.00, 0.00, 0.00, 0.00, 0.00, 0.00, -8287.92, 0.000, 0.000, 0.000, 14:38:02.991, 1553971082991
232, -29998.74, 0.00, 0.00, 0.00, 0.00, 0.00, 0.00, -8356.62, 0.000, 0.000, 0.000, 14:38:02.991, 1553971082991
233, -29962.94, 0.00, 0.00, 0.00, 0.00, 0.00, 0.00, -8287.31, 0.000, 0.000, 0.000, 14:38:02.992, 1553971082992
234, -29914.08, 0.00, 0.00, 0.00, 0.00, 0.00, 0.00, -8209.71, 0.000, 0.000, 0.000, 14:38:02.992, 1553971082992
235, -29942.37, 0.00, 0.00, 0.00, 0.00, 0.00, 0.00, -8262.03, 0.000, 0.000, 0.000, 14:38:02.992, 1553971082992
236, -29997.36, 0.00, 0.00, 0.00, 0.00, 0.00, 0.00, -8346.99, 0.000, 0.000, 0.000, 14:38:02.992, 1553971082992
237, -29976.39, 0.00, 0.00, 0.00, 0.00, 0.00, 0.00, -8307.20, 0.072, 0.092, -1.026, 14:38:02.992, 1553971082992
238, -29921.61, 0.00, 0.00, 0.00, 0.00, 0.00, 0.00, -8213.46, 0.000, 0.000, 0.000, 14:38:02.992, 1553971082992
239, -29936.90, 0.00, 0.00, 0.00, 0.00, 0.00, 0.00, -8248.73, 0.000, 0.000, 0.000, 14:38:02.992, 1553971082992
240, -29990.41, 0.00, 0.00, 0.00, 0.00, 0.00, 0.00, -8343.33, 0.000, 0.000, 0.000, 14:38:02.992, 1553971082992
241, -29993.04, 0.00, 0.00, 0.00, 0.00, 0.00, 0.00, -8335.12, 0.000, 0.000, 0.000, 14:38:02.992, 1553971082992
242, -29929.39, 0.00, 0.00, 0.00, 0.00, 0.00, 0.00, -8224.44, 0.000, 0.000, 0.000, 14:38:02.992, 1553971082992
243, -29948.21, 0.00, 0.00, 0.00, 0.00, 0.00, 0.00, -8253.65, 0.000, 0.000, 0.000, 14:38:02.992, 1553971082992
244, -29990.43, 0.00, 0.00, 0.00, 0.00, 0.00, 0.00, -8335.12, 0.000, 0.000, 0.000, 14:38:02.992, 1553971082992
245, -30001.58, 0.00, 0.00, 0.00, 0.00, 0.00, 0.00, -8345.76, 0.000, 0.000, 0.000, 14:38:02.992, 1553971082992
246, -29943.11, 0.00, 0.00, 0.00, 0.00, 0.00, 0.00, -8238.09, 0.000, 0.000, 0.000, 14:38:02.992, 1553971082992
247, -29936.96, 0.00, 0.00, 0.00, 0.00, 0.00, 0.00, -8237.89, 0.072, 0.094, -1.014, 14:38:02.992, 1553971082992
248, -29982.63, 0.00, 0.00, 0.00, 0.00, 0.00, 0.00, -8316.66, 0.000, 0.000, 0.000, 14:38:02.992, 1553971082992
249, -30013.45, 0.00, 0.00, 0.00, 0.00, 0.00, 0.00, -8357.76, 0.000, 0.000, 0.000, 14:38:02.992, 1553971082992
250, -29954.29, 0.00, 0.00, 0.00, 0.00, 0.00, 0.00, -8252.35, 0.000, 0.000, 0.000, 14:38:02.993, 1553971082993
251, -29934.26, 0.00, 0.00, 0.00, 0.00, 0.00, 0.00, -8220.37, 0.000, 0.000, 0.000, 14:38:02.993, 1553971082993
252, -29966.47, 0.00, 0.00, 0.00, 0.00, 0.00, 0.00, -8290.24, 0.000, 0.000, 0.000, 14:38:02.993, 1553971082993
253, -30001.94, 0.00, 0.00, 0.00, 0.00, 0.00, 0.00, -8345.96, 0.000, 0.000, 0.000, 14:38:02.993, 1553971082993
254, -29961.04, 0.00, 0.00, 0.00, 0.00, 0.00, 0.00, -8259.37, 0.000, 0.000, 0.000, 14:38:02.993, 1553971082993
255, -29935.45, 0.00, 0.00, 0.00, 0.00, 0.00, 0.00, -8215.09, 0.000, 0.000, 0.000, 14:38:02.994, 1553971082994
0, -29974.07, 0.00, 0.00, 0.00, 0.00, 0.00, 0.00, -8286.06, 0.000, 0.000, 0.000, 14:38:02.994, 1553971082994
1, -30013.23, 0.00, 0.00, 0.00, 0.00, 0.00, 0.00, -8353.07, 0.076, 0.092, -1.020, 14:38:02.994, 1553971082994
2, -29984.02, 0.00, 0.00, 0.00, 0.00, 0.00, 0.00, -8287.87, 0.000, 0.000, 0.000, 14:38:02.994, 1553971082994
3, -29939.18, 0.00, 0.00, 0.00, 0.00, 0.00, 0.00, -8213.51, 0.000, 0.000, 0.000, 14:38:02.994, 1553971082994
4, -29968.75, 0.00, 0.00, 0.00, 0.00, 0.00, 0.00, -8265.74, 0.000, 0.000, 0.000, 14:38:02.994, 1553971082994
5, -30015.04, 0.00, 0.00, 0.00, 0.00, 0.00, 0.00, -8342.70, 0.000, 0.000, 0.000, 14:38:02.994, 1553971082994
6, -29999.08, 0.00, 0.00, 0.00, 0.00, 0.00, 0.00, -8303.20, 0.000, 0.000, 0.000, 14:38:02.994, 1553971082994
7, -29943.25, 0.00, 0.00, 0.00, 0.00, 0.00, 0.00, -8209.10, 0.000, 0.000, 0.000, 14:38:02.994, 1553971082994
8, -29961.37, 0.00, 0.00, 0.00, 0.00, 0.00, 0.00, -8245.13, 0.000, 0.000, 0.000, 14:38:02.994, 1553971082994
9, -30013.23, 0.00, 0.00, 0.00, 0.00, 0.00, 0.00, -8335.79, 0.000, 0.000, 0.000, 14:38:02.994, 1553971082994
10, -30014.17, 0.00, 0.00, 0.00, 0.00, 0.00, 0.00, -8335.84, 0.000, 0.000, 0.000, 14:38:02.994, 1553971082994
11, -29957.39, 0.00, 0.00, 0.00, 0.00, 0.00, 0.00, -8233.80, 0.070, 0.088, -1.024, 14:38:02.995, 1553971082995
12, -29957.42, 0.00, 0.00, 0.00, 0.00, 0.00, 0.00, -8240.62, 0.000, 0.000, 0.000, 14:38:02.995, 1553971082995
13, -30003.66, 0.00, 0.00, 0.00, 0.00, 0.00, 0.00, -8322.47, 0.000, 0.000, 0.000, 14:38:02.995, 1553971082995
14, -30026.01, 0.00, 0.00, 0.00, 0.00, 0.00, 0.00, -8348.82, 0.000, 0.000, 0.000, 14:38:02.995, 1553971082995
15, -29958.36, 0.00, 0.00, 0.00, 0.00, 0.00, 0.00, -8237.49, 0.000, 0.000, 0.000, 14:38:02.995, 1553971082995
16, -29955.18, 0.00, 0.00, 0.00, 0.00, 0.00, 0.00, -8230.00, 0.000, 0.000, 0.000, 14:38:02.995, 1553971082995
17, -29998.99, 0.00, 0.00, 0.00, 0.00, 0.00, 0.00, -8312.95, 0.000, 0.000, 0.000, 14:38:02.995, 1553971082995
18, -30020.45, 0.00, 0.00, 0.00, 0.00, 0.00, 0.00, -8355.86, 0.000, 0.000, 0.000, 14:38:02.995, 1553971082995
19, -29962.33, 0.00, 0.00, 0.00, 0.00, 0.00, 0.00, -8250.74, 0.000, 0.000, 0.000, 14:38:02.995, 1553971082995
20, -29941.75, 0.00, 0.00, 0.00, 0.00, 0.00, 0.00, -8218.67, 0.070, 0.086, -1.024, 14:38:02.995, 1553971082995
21, -29979.05, 0.00, 0.00, 0.00, 0.00, 0.00, 0.00, -8293.97, 0.000, 0.000, 0.000, 14:38:02.995, 1553971082995
22, -30011.46, 0.00, 0.00, 0.00, 0.00, 0.00, 0.00, -8352.29, 0.000, 0.000, 0.000, 14:38:02.995, 1553971082995
23, -29973.51, 0.00, 0.00, 0.00, 0.00, 0.00, 0.00, -8272.09, 0.000, 0.000, 0.000, 14:38:02.995, 1553971082995
24, -29936.52, 0.00, 0.00, 0.00, 0.00, 0.00, 0.00, -8215.50, 0.000, 0.000, 0.000, 14:38:02.995, 1553971082995
25, -29964.95, 0.00, 0.00, 0.00, 0.00, 0.00, 0.00, -8274.41, 0.000, 0.000, 0.000, 14:38:02.995, 1553971082995
26, -30006.61, 0.00, 0.00, 0.00, 0.00, 0.00, 0.00, -8345.60, 0.000, 0.000, 0.000, 14:38:02.995, 1553971082995
27, -29979.63, 0.00, 0.00, 0.00, 0.00, 0.00, 0.00, -8291.74, 0.000, 0.000, 0.000, 14:38:02.995, 1553971082995
28, -29937.97, 0.00, 0.00, 0.00, 0.00, 0.00, 0.00, -8222.85, 0.000, 0.000, 0.000, 14:38:02.995, 1553971082995
29, -29955.29, 0.00, 0.00, 0.00, 0.00, 0.00, 0.00, -8272.16, 0.000, 0.000, 0.000, 14:38:02.995, 1553971082995
30, -29992.71, 0.00, 0.00, 0.00, 0.00, 0.00, 0.00, -8337.69, 0.074, 0.088, -1.026, 14:38:02.996, 1553971082996
31, -29984.78, 0.00, 0.00, 0.00, 0.00, 0.00, 0.00, -8311.21, 0.000, 0.000, 0.000, 14:38:02.996, 1553971082996
32, -29938.08, 0.00, 0.00, 0.00, 0.00, 0.00, 0.00, -8226.69, 0.000, 0.000, 0.000, 14:38:02.996, 1553971082996
33, -29943.83, 0.00, 0.00, 0.00, 0.00, 0.00, 0.00, -8253.69, 0.000, 0.000, 0.000, 14:38:02.996, 1553971082996
34, -29984.57, 0.00, 0.00, 0.00, 0.00, 0.00, 0.00, -8328.80, 0.000, 0.000, 0.000, 14:38:02.996, 1553971082996
35, -29991.46, 0.00, 0.00, 0.00, 0.00, 0.00, 0.00, -8328.97, 0.000, 0.000, 0.000, 14:38:02.996, 1553971082996
36, -29932.05, 0.00, 0.00, 0.00, 0.00, 0.00, 0.00, -8225.98, 0.000, 0.000, 0.000, 14:38:02.996, 1553971082996
37, -29929.37, 0.00, 0.00, 0.00, 0.00, 0.00, 0.00, -8230.00, 0.000, 0.000, 0.000, 14:38:02.996, 1553971082996
38, -29959.76, 0.00, 0.00, 0.00, 0.00, 0.00, 0.00, -8299.92, 0.000, 0.000, 0.000, 14:38:02.996, 1553971082996
39, -29974.96, 0.00, 0.00, 0.00, 0.00, 0.00, 0.00, -8324.15, 0.000, 0.000, 0.000, 14:38:02.996, 1553971082996
40, -29922.70, 0.00, 0.00, 0.00, 0.00, 0.00, 0.00, -8225.53, 0.072, 0.090, -1.022, 14:38:02.996, 1553971082996
41, -29909.81, 0.00, 0.00, 0.00, 0.00, 0.00, 0.00, -8214.94, 0.000, 0.000, 0.000, 14:38:02.996, 1553971082996
42, -29940.36, 0.00, 0.00, 0.00, 0.00, 0.00, 0.00, -8283.20, 0.000, 0.000, 0.000, 14:38:02.996, 1553971082996
43, -29969.89, 0.00, 0.00, 0.00, 0.00, 0.00, 0.00, -8331.03, 0.000, 0.000, 0.000, 14:38:02.996, 1553971082996
44, -29915.93, 0.00, 0.00, 0.00, 0.00, 0.00, 0.00, -8235.88, 0.000, 0.000, 0.000, 14:38:02.996, 1553971082996
45, -29885.69, 0.00, 0.00, 0.00, 0.00, 0.00, 0.00, -8195.40, 0.000, 0.000, 0.000, 14:38:02.996, 1553971082996
46, -29929.95, 0.00, 0.00, 0.00, 0.00, 0.00, 0.00, -8273.10, 0.000, 0.000, 0.000, 14:38:02.997, 1553971082997
47, -29967.21, 0.00, 0.00, 0.00, 0.00, 0.00, 0.00, -8338.36, 0.000, 0.000, 0.000, 14:38:02.997, 1553971082997
48, -29915.15, 0.00, 0.00, 0.00, 0.00, 0.00, 0.00, -8254.14, 0.000, 0.000, 0.000, 14:38:02.997, 1553971082997
49, -29876.44, 0.00, 0.00, 0.00, 0.00, 0.00, 0.00, -8190.95, 0.000, 0.000, 0.000, 14:38:02.997, 1553971082997
50, -29909.72, 0.00, 0.00, 0.00, 0.00, 0.00, 0.00, -8255.15, 0.066, 0.088, -1.016, 14:38:02.997, 1553971082997
51, -29958.76, 0.00, 0.00, 0.00, 0.00, 0.00, 0.00, -8337.02, 0.000, 0.000, 0.000, 14:38:02.997, 1553971082997
52, -29931.51, 0.00, 0.00, 0.00, 0.00, 0.00, 0.00, -8284.61, 0.000, 0.000, 0.000, 14:38:02.997, 1553971082997
53, -29886.76, 0.00, 0.00, 0.00, 0.00, 0.00, 0.00, -8204.63, 0.000, 0.000, 0.000, 14:38:02.997, 1553971082997
54, -29908.29, 0.00, 0.00, 0.00, 0.00, 0.00, 0.00, -8249.85, 0.000, 0.000, 0.000, 14:38:02.997, 1553971082997
55, -29939.76, 0.00, 0.00, 0.00, 0.00, 0.00, 0.00, -8318.42, 0.000, 0.000, 0.000, 14:38:02.997, 1553971082997
56, -29926.62, 0.00, 0.00, 0.00, 0.00, 0.00, 0.00, -8290.64, 0.000, 0.000, 0.000, 14:38:02.997, 1553971082997
57, -29870.18, 0.00, 0.00, 0.00, 0.00, 0.00, 0.00, -8187.69, 0.000, 0.000, 0.000, 14:38:02.997, 1553971082997
58, -29879.54, 0.00, 0.00, 0.00, 0.00, 0.00, 0.00, -8218.78, 0.000, 0.000, 0.000, 14:38:02.997, 1553971082997
59, -29923.44, 0.00, 0.00, 0.00, 0.00, 0.00, 0.00, -8301.13, 0.000, 0.000, 0.000, 14:38:02.997, 1553971082997
60, -29938.15, 0.00, 0.00, 0.00, 0.00, 0.00, 0.00, -8310.83, 0.070, 0.088, -1.018, 14:38:02.997, 1553971082997
61, -29879.45, 0.00, 0.00, 0.00, 0.00, 0.00, 0.00, -8206.82, 0.000, 0.000, 0.000, 14:38:02.998, 1553971082998
62, -29873.02, 0.00, 0.00, 0.00, 0.00, 0.00, 0.00, -8210.78, 0.000, 0.000, 0.000, 14:38:02.998, 1553971082998
63, -29916.07, 0.00, 0.00, 0.00, 0.00, 0.00, 0.00, -8294.49, 0.000, 0.000, 0.000, 14:38:02.998, 1553971082998
64, -29937.01, 0.00, 0.00, 0.00, 0.00, 0.00, 0.00, -8326.34, 0.000, 0.000, 0.000, 14:38:02.998, 1553971082998
65, -29878.60, 0.00, 0.00, 0.00, 0.00, 0.00, 0.00, -8214.65, 0.000, 0.000, 0.000, 14:38:02.998, 1553971082998
66, -29870.85, 0.00, 0.00, 0.00, 0.00, 0.00, 0.00, -8197.75, 0.000, 0.000, 0.000, 14:38:02.998, 1553971082998
67, -29914.34, 0.00, 0.00, 0.00, 0.00, 0.00, 0.00, -8281.01, 0.000, 0.000, 0.000, 14:38:02.998, 1553971082998
68, -29947.71, 0.00, 0.00, 0.00, 0.00, 0.00, 0.00, -8334.27, 0.000, 0.000, 0.000, 14:38:02.998, 1553971082998
69, -29898.23, 0.00, 0.00, 0.00, 0.00, 0.00, 0.00, -8242.67, 0.000, 0.000, 0.000, 14:38:02.998, 1553971082998
70, -29874.22, 0.00, 0.00, 0.00, 0.00, 0.00, 0.00, -8202.35, 0.080, 0.088, -1.016, 14:38:02.998, 1553971082998
71, -29906.79, 0.00, 0.00, 0.00, 0.00, 0.00, 0.00, -8262.52, 0.000, 0.000, 0.000, 14:38:02.998, 1553971082998
72, -29942.96, 0.00, 0.00, 0.00, 0.00, 0.00, 0.00, -8322.09, 0.000, 0.000, 0.000, 14:38:02.998, 1553971082998
73, -29909.79, 0.00, 0.00, 0.00, 0.00, 0.00, 0.00, -8251.41, 0.000, 0.000, 0.000, 14:38:02.998, 1553971082998
74, -29869.37, 0.00, 0.00, 0.00, 0.00, 0.00, 0.00, -8183.13, 0.000, 0.000, 0.000, 14:38:02.999, 1553971082999
75, -29897.69, 0.00, 0.00, 0.00, 0.00, 0.00, 0.00, -8244.22, 0.000, 0.000, 0.000, 14:38:02.999, 1553971082999
76, -29945.21, 0.00, 0.00, 0.00, 0.00, 0.00, 0.00, -8322.78, 0.000, 0.000, 0.000, 14:38:02.999, 1553971082999
77, -29937.46, 0.00, 0.00, 0.00, 0.00, 0.00, 0.00, -8285.03, 0.000, 0.000, 0.000, 14:38:02.999, 1553971082999
78, -29896.17, 0.00, 0.00, 0.00, 0.00, 0.00, 0.00, -8204.41, 0.000, 0.000, 0.000, 14:38:02.999, 1553971082999
79, -29913.34, 0.00, 0.00, 0.00, 0.00, 0.00, 0.00, -8246.09, 0.000, 0.000, 0.000, 14:38:02.999, 1553971082999
80, -29962.54, 0.00, 0.00, 0.00, 0.00, 0.00, 0.00, -8331.03, 0.072, 0.090, -1.026, 14:38:02.999, 1553971082999
81, -29955.54, 0.00, 0.00, 0.00, 0.00, 0.00, 0.00, -8310.20, 0.000, 0.000, 0.000, 14:38:02.999, 1553971082999
82, -29906.66, 0.00, 0.00, 0.00, 0.00, 0.00, 0.00, -8214.31, 0.000, 0.000, 0.000, 14:38:02.999, 1553971082999
83, -29914.81, 0.00, 0.00, 0.00, 0.00, 0.00, 0.00, -8232.91, 0.000, 0.000, 0.000, 14:38:02.999, 1553971082999
84, -29961.82, 0.00, 0.00, 0.00, 0.00, 0.00, 0.00, -8314.27, 0.000, 0.000, 0.000, 14:38:02.999, 1553971082999
85, -29975.90, 0.00, 0.00, 0.00, 0.00, 0.00, 0.00, -8329.22, 0.000, 0.000, 0.000, 14:38:02.999, 1553971082999
86, -29915.82, 0.00, 0.00, 0.00, 0.00, 0.00, 0.00, -8221.22, 0.000, 0.000, 0.000, 14:38:02.999, 1553971082999
87, -29916.71, 0.00, 0.00, 0.00, 0.00, 0.00, 0.00, -8222.63, 0.000, 0.000, 0.000, 14:38:02.999, 1553971082999
88, -29958.13, 0.00, 0.00, 0.00, 0.00, 0.00, 0.00, -8300.48, 0.000, 0.000, 0.000, 14:38:02.999, 1553971082999
89, -29984.06, 0.00, 0.00, 0.00, 0.00, 0.00, 0.00, -8337.85, 0.092, 0.092, -1.002, 14:38:03.470, 1553971083470
90, -29951.47, 0.00, 0.00, 0.00, 0.00, 0.00, 0.00, -8258.61, 0.000, 0.000, 0.000, 14:38:03.470, 1553971083470
91, -29922.32, 0.00, 0.00, 0.00, 0.00, 0.00, 0.00, -8218.00, 0.000, 0.000, 0.000, 14:38:03.470, 1553971083470
92, -29943.85, 0.00, 0.00, 0.00, 0.00, 0.00, 0.00, -8272.85, 0.000, 0.000, 0.000, 14:38:03.470, 1553971083470
93, -29974.61, 0.00, 0.00, 0.00, 0.00, 0.00, 0.00, -8328.35, 0.000, 0.000, 0.000, 14:38:03.470, 1553971083470
94, -29954.38, 0.00, 0.00, 0.00, 0.00, 0.00, 0.00, -8274.95, 0.000, 0.000, 0.000, 14:38:03.470, 1553971083470
95, -29932.03, 0.00, 0.00, 0.00, 0.00, 0.00, 0.00, -8232.39, 0.000, 0.000, 0.000, 14:38:03.471, 1553971083471
96, -29935.15, 0.00, 0.00, 0.00, 0.00, 0.00, 0.00, -8258.39, 0.000, 0.000, 0.000, 14:38:03.471, 1553971083471
97, -29942.15, 0.00, 0.00, 0.00, 0.00, 0.00, 0.00, -8286.62, 0.000, 0.000, 0.000, 14:38:03.471, 1553971083471
98, -29947.45, 0.00, 0.00, 0.00, 0.00, 0.00, 0.00, -8274.77, 0.000, 0.000, 0.000, 14:38:03.471, 1553971083471
99, -29947.89, 0.00, 0.00, 0.00, 0.00, 0.00, 0.00, -8263.95, 0.084, 0.092, -1.012, 14:38:03.471, 1553971083471
100, -29942.91, 0.00, 0.00, 0.00, 0.00, 0.00, 0.00, -8272.13, 0.000, 0.000, 0.000, 14:38:03.471, 1553971083471
101, -29941.35, 0.00, 0.00, 0.00, 0.00, 0.00, 0.00, -8289.32, 0.000, 0.000, 0.000, 14:38:03.471, 1553971083471
102, -29939.71, 0.00, 0.00, 0.00, 0.00, 0.00, 0.00, -8278.19, 0.000, 0.000, 0.000, 14:38:03.471, 1553971083471
103, -29938.24, 0.00, 0.00, 0.00, 0.00, 0.00, 0.00, -8255.42, 0.000, 0.000, 0.000, 14:38:03.471, 1553971083471
104, -29934.71, 0.00, 0.00, 0.00, 0.00, 0.00, 0.00, -8260.09, 0.000, 0.000, 0.000, 14:38:03.471, 1553971083471
105, -29941.41, 0.00, 0.00, 0.00, 0.00, 0.00, 0.00, -8283.98, 0.000, 0.000, 0.000, 14:38:03.471, 1553971083471
106, -29947.65, 0.00, 0.00, 0.00, 0.00, 0.00, 0.00, -8286.51, 0.000, 0.000, 0.000, 14:38:03.471, 1553971083471
107, -29940.16, 0.00, 0.00, 0.00, 0.00, 0.00, 0.00, -8256.00, 0.000, 0.000, 0.000, 14:38:03.471, 1553971083471
108, -29941.64, 0.00, 0.00, 0.00, 0.00, 0.00, 0.00, -8263.91, 0.000, 0.000, 0.000, 14:38:03.471, 1553971083471
109, -29947.34, 0.00, 0.00, 0.00, 0.00, 0.00, 0.00, -8291.11, 0.072, 0.092, -1.022, 14:38:03.471, 1553971083471
110, -29942.04, 0.00, 0.00, 0.00, 0.00, 0.00, 0.00, -8289.68, 0.000, 0.000, 0.000, 14:38:03.471, 1553971083471
111, -29935.09, 0.00, 0.00, 0.00, 0.00, 0.00, 0.00, -8259.57, 0.000, 0.000, 0.000, 14:38:03.471, 1553971083471
112, -29925.05, 0.00, 0.00, 0.00, 0.00, 0.00, 0.00, -8245.76, 0.000, 0.000, 0.000, 14:38:03.471, 1553971083471
113, -29934.37, 0.00, 0.00, 0.00, 0.00, 0.00, 0.00, -8273.86, 0.000, 0.000, 0.000, 14:38:03.471, 1553971083471
114, -29948.25, 0.00, 0.00, 0.00, 0.00, 0.00, 0.00, -8294.33, 0.000, 0.000, 0.000, 14:38:03.471, 1553971083471
115, -29945.55, 0.00, 0.00, 0.00, 0.00, 0.00, 0.00, -8270.44, 0.000, 0.000, 0.000, 14:38:03.471, 1553971083471
116, -29942.80, 0.00, 0.00, 0.00, 0.00, 0.00, 0.00, -8263.91, 0.000, 0.000, 0.000, 14:38:03.471, 1553971083471
117, -29940.74, 0.00, 0.00, 0.00, 0.00, 0.00, 0.00, -8277.23, 0.000, 0.000, 0.000, 14:38:03.471, 1553971083471
118, -29941.79, 0.00, 0.00, 0.00, 0.00, 0.00, 0.00, -8295.20, 0.000, 0.000, 0.000, 14:38:03.471, 1553971083471
119, -29941.03, 0.00, 0.00, 0.00, 0.00, 0.00, 0.00, -8276.31, 0.076, 0.090, -1.020, 14:38:03.472, 1553971083472
120, -29939.89, 0.00, 0.00, 0.00, 0.00, 0.00, 0.00, -8259.84, 0.000, 0.000, 0.000, 14:38:03.472, 1553971083472
121, -29944.63, 0.00, 0.00, 0.00, 0.00, 0.00, 0.00, -8276.67, 0.000, 0.000, 0.000, 14:38:03.472, 1553971083472
122, -29944.27, 0.00, 0.00, 0.00, 0.00, 0.00, 0.00, -8296.61, 0.000, 0.000, 0.000, 14:38:03.472, 1553971083472
123, -29947.25, 0.00, 0.00, 0.00, 0.00, 0.00, 0.00, -8283.31, 0.000, 0.000, 0.000, 14:38:03.472, 1553971083472
124, -29945.84, 0.00, 0.00, 0.00, 0.00, 0.00, 0.00, -8266.59, 0.000, 0.000, 0.000, 14:38:03.472, 1553971083472
125, -29943.89, 0.00, 0.00, 0.00, 0.00, 0.00, 0.00, -8275.08, 0.000, 0.000, 0.000, 14:38:03.472, 1553971083472
126, -29945.73, 0.00, 0.00, 0.00, 0.00, 0.00, 0.00, -8289.70, 0.000, 0.000, 0.000, 14:38:03.472, 1553971083472
127, -29949.68, 0.00, 0.00, 0.00, 0.00, 0.00, 0.00, -8285.21, 0.000, 0.000, 0.000, 14:38:03.472, 1553971083472
128, -29938.30, 0.00, 0.00, 0.00, 0.00, 0.00, 0.00, -8256.31, 0.000, 0.000, 0.000, 14:38:03.472, 1553971083472
129, -29940.25, 0.00, 0.00, 0.00, 0.00, 0.00, 0.00, -8263.10, 0.068, 0.094, -1.024, 14:38:03.472, 1553971083472
130, -29938.57, 0.00, 0.00, 0.00, 0.00, 0.00, 0.00, -8280.02, 0.000, 0.000, 0.000, 14:38:03.472, 1553971083472
131, -29948.95, 0.00, 0.00, 0.00, 0.00, 0.00, 0.00, -8283.91, 0.000, 0.000, 0.000, 14:38:03.473, 1553971083473
132, -29952.70, 0.00, 0.00, 0.00, 0.00, 0.00, 0.00, -8264.92, 0.000, 0.000, 0.000, 14:38:03.473, 1553971083473
133, -29954.00, 0.00, 0.00, 0.00, 0.00, 0.00, 0.00, -8270.79, 0.000, 0.000, 0.000, 14:38:03.473, 1553971083473
134, -29948.92, 0.00, 0.00, 0.00, 0.00, 0.00, 0.00, -8282.97, 0.000, 0.000, 0.000, 14:38:03.473, 1553971083473
135, -29948.03, 0.00, 0.00, 0.00, 0.00, 0.00, 0.00, -8288.27, 0.000, 0.000, 0.000, 14:38:03.473, 1553971083473
136, -29939.51, 0.00, 0.00, 0.00, 0.00, 0.00, 0.00, -8260.22, 0.000, 0.000, 0.000, 14:38:03.473, 1553971083473
137, -29938.73, 0.00, 0.00, 0.00, 0.00, 0.00, 0.00, -8259.73, 0.000, 0.000, 0.000, 14:38:03.473, 1553971083473
138, -29942.75, 0.00, 0.00, 0.00, 0.00, 0.00, 0.00, -8280.63, 0.000, 0.000, 0.000, 14:38:03.473, 1553971083473
139, -29930.28, 0.00, 0.00, 0.00, 0.00, 0.00, 0.00, -8278.55, 0.062, 0.094, -1.026, 14:38:03.473, 1553971083473
140, -29926.55, 0.00, 0.00, 0.00, 0.00, 0.00, 0.00, -8254.41, 0.000, 0.000, 0.000, 14:38:03.473, 1553971083473
141, -29945.84, 0.00, 0.00, 0.00, 0.00, 0.00, 0.00, -8268.51, 0.000, 0.000, 0.000, 14:38:03.473, 1553971083473
142, -29945.48, 0.00, 0.00, 0.00, 0.00, 0.00, 0.00, -8287.00, 0.000, 0.000, 0.000, 14:38:03.473, 1553971083473
143, -29938.62, 0.00, 0.00, 0.00, 0.00, 0.00, 0.00, -8288.58, 0.000, 0.000, 0.000, 14:38:03.473, 1553971083473
144, -29955.36, 0.00, 0.00, 0.00, 0.00, 0.00, 0.00, -8284.34, 0.000, 0.000, 0.000, 14:38:03.473, 1553971083473
145, -29949.91, 0.00, 0.00, 0.00, 0.00, 0.00, 0.00, -8264.54, 0.000, 0.000, 0.000, 14:38:03.473, 1553971083473
146, -29952.37, 0.00, 0.00, 0.00, 0.00, 0.00, 0.00, -8277.90, 0.000, 0.000, 0.000, 14:38:03.473, 1553971083473
147, -29953.75, 0.00, 0.00, 0.00, 0.00, 0.00, 0.00, -8301.42, 0.000, 0.000, 0.000, 14:38:03.473, 1553971083473
148, -29946.15, 0.00, 0.00, 0.00, 0.00, 0.00, 0.00, -8281.19, 0.064, 0.084, -1.024, 14:38:03.473, 1553971083473
149, -29946.04, 0.00, 0.00, 0.00, 0.00, 0.00, 0.00, -8263.15, 0.000, 0.000, 0.000, 14:38:03.473, 1553971083473
150, -29952.45, 0.00, 0.00, 0.00, 0.00, 0.00, 0.00, -8274.97, 0.000, 0.000, 0.000, 14:38:03.473, 1553971083473
151, -29943.60, 0.00, 0.00, 0.00, 0.00, 0.00, 0.00, -8287.04, 0.000, 0.000, 0.000, 14:38:03.474, 1553971083474
152, -29939.54, 0.00, 0.00, 0.00, 0.00, 0.00, 0.00, -8277.54, 0.000, 0.000, 0.000, 14:38:03.474, 1553971083474
153, -29931.49, 0.00, 0.00, 0.00, 0.00, 0.00, 0.00, -8245.51, 0.000, 0.000, 0.000, 14:38:03.474, 1553971083474
154, -29936.00, 0.00, 0.00, 0.00, 0.00, 0.00, 0.00, -8257.65, 0.000, 0.000, 0.000, 14:38:03.474, 1553971083474
155, -29949.68, 0.00, 0.00, 0.00, 0.00, 0.00, 0.00, -8294.96, 0.000, 0.000, 0.000, 14:38:03.474, 1553971083474
156, -29949.91, 0.00, 0.00, 0.00, 0.00, 0.00, 0.00, -8293.55, 0.000, 0.000, 0.000, 14:38:03.474, 1553971083474
157, -29959.81, 0.00, 0.00, 0.00, 0.00, 0.00, 0.00, -8276.67, 0.000, 0.000, 0.000, 14:38:03.474, 1553971083474
158, -29956.34, 0.00, 0.00, 0.00, 0.00, 0.00, 0.00, -8274.44, 0.068, 0.086, -1.026, 14:38:03.474, 1553971083474
159, -29952.59, 0.00, 0.00, 0.00, 0.00, 0.00, 0.00, -8292.32, 0.000, 0.000, 0.000, 14:38:03.474, 1553971083474
160, -29939.51, 0.00, 0.00, 0.00, 0.00, 0.00, 0.00, -8287.96, 0.000, 0.000, 0.000, 14:38:03.474, 1553971083474
161, -29924.65, 0.00, 0.00, 0.00, 0.00, 0.00, 0.00, -8251.24, 0.000, 0.000, 0.000, 14:38:03.474, 1553971083474
162, -29944.23, 0.00, 0.00, 0.00, 0.00, 0.00, 0.00, -8268.13, 0.000, 0.000, 0.000, 14:38:03.474, 1553971083474
163, -29945.95, 0.00, 0.00, 0.00, 0.00, 0.00, 0.00, -8288.63, 0.000, 0.000, 0.000, 14:38:03.474, 1553971083474
164, -29945.44, 0.00, 0.00, 0.00, 0.00, 0.00, 0.00, -8305.35, 0.000, 0.000, 0.000, 14:38:03.474, 1553971083474
165, -29947.71, 0.00, 0.00, 0.00, 0.00, 0.00, 0.00, -8284.54, 0.000, 0.000, 0.000, 14:38:03.474, 1553971083474
166, -29950.91, 0.00, 0.00, 0.00, 0.00, 0.00, 0.00, -8277.10, 0.000, 0.000, 0.000, 14:38:03.474, 1553971083474
167, -29951.63, 0.00, 0.00, 0.00, 0.00, 0.00, 0.00, -8293.48, 0.000, 0.000, 0.000, 14:38:03.474, 1553971083474
168, -29947.94, 0.00, 0.00, 0.00, 0.00, 0.00, 0.00, -8301.57, 0.070, 0.090, -1.024, 14:38:03.474, 1553971083474
169, -29950.31, 0.00, 0.00, 0.00, 0.00, 0.00, 0.00, -8289.19, 0.000, 0.000, 0.000, 14:38:03.475, 1553971083475
170, -29936.65, 0.00, 0.00, 0.00, 0.00, 0.00, 0.00, -8265.21, 0.000, 0.000, 0.000, 14:38:03.475, 1553971083475
171, -29948.56, 0.00, 0.00, 0.00, 0.00, 0.00, 0.00, -8288.96, 0.000, 0.000, 0.000, 14:38:03.475, 1553971083475
172, -29960.43, 0.00, 0.00, 0.00, 0.00, 0.00, 0.00, -8314.56, 0.000, 0.000, 0.000, 14:38:03.475, 1553971083475
173, -29958.09, 0.00, 0.00, 0.00, 0.00, 0.00, 0.00, -8300.36, 0.000, 0.000, 0.000, 14:38:03.475, 1553971083475
174, -29956.79, 0.00, 0.00, 0.00, 0.00, 0.00, 0.00, -8286.04, 0.000, 0.000, 0.000, 14:38:03.475, 1553971083475
175, -29950.49, 0.00, 0.00, 0.00, 0.00, 0.00, 0.00, -8290.87, 0.000, 0.000, 0.000, 14:38:03.475, 1553971083475
176, -29950.31, 0.00, 0.00, 0.00, 0.00, 0.00, 0.00, -8310.18, 0.000, 0.000, 0.000, 14:38:03.475, 1553971083475
177, -29964.37, 0.00, 0.00, 0.00, 0.00, 0.00, 0.00, -8315.68, 0.000, 0.000, 0.000, 14:38:03.475, 1553971083475
178, -29964.10, 0.00, 0.00, 0.00, 0.00, 0.00, 0.00, -8294.33, 0.072, 0.094, -1.028, 14:38:03.475, 1553971083475
179, -29957.75, 0.00, 0.00, 0.00, 0.00, 0.00, 0.00, -8297.48, 0.000, 0.000, 0.000, 14:38:03.475, 1553971083475
180, -29953.42, 0.00, 0.00, 0.00, 0.00, 0.00, 0.00, -8316.82, 0.000, 0.000, 0.000, 14:38:03.475, 1553971083475
181, -29957.82, 0.00, 0.00, 0.00, 0.00, 0.00, 0.00, -8318.00, 0.000, 0.000, 0.000, 14:38:03.476, 1553971083476
182, -29958.58, 0.00, 0.00, 0.00, 0.00, 0.00, 0.00, -8290.49, 0.000, 0.000, 0.000, 14:38:03.476, 1553971083476
183, -29959.00, 0.00, 0.00, 0.00, 0.00, 0.00, 0.00, -8292.52, 0.000, 0.000, 0.000, 14:38:03.476, 1553971083476
184, -29954.29, 0.00, 0.00, 0.00, 0.00, 0.00, 0.00, -8315.65, 0.000, 0.000, 0.000, 14:38:03.476, 1553971083476
185, -29963.12, 0.00, 0.00, 0.00, 0.00, 0.00, 0.00, -8324.88, 0.000, 0.000, 0.000, 14:38:03.476, 1553971083476
186, -29963.45, 0.00, 0.00, 0.00, 0.00, 0.00, 0.00, -8294.93, 0.000, 0.000, 0.000, 14:38:03.476, 1553971083476
187, -29961.28, 0.00, 0.00, 0.00, 0.00, 0.00, 0.00, -8289.97, 0.000, 0.000, 0.000, 14:38:03.476, 1553971083476
188, -29953.28, 0.00, 0.00, 0.00, 0.00, 0.00, 0.00, -8307.96, 0.072, 0.092, -1.024, 14:38:03.476, 1553971083476
189, -29941.28, 0.00, 0.00, 0.00, 0.00, 0.00, 0.00, -8315.79, 0.000, 0.000, 0.000, 14:38:03.477, 1553971083477
190, -29950.38, 0.00, 0.00, 0.00, 0.00, 0.00, 0.00, -8301.97, 0.000, 0.000, 0.000, 14:38:03.477, 1553971083477
191, -29966.74, 0.00, 0.00, 0.00, 0.00, 0.00, 0.00, -8309.44, 0.000, 0.000, 0.000, 14:38:03.477, 1553971083477
192, -29943.83, 0.00, 0.00, 0.00, 0.00, 0.00, 0.00, -8306.78, 0.000, 0.000, 0.000, 14:38:03.477, 1553971083477
193, -29931.13, 0.00, 0.00, 0.00, 0.00, 0.00, 0.00, -8305.53, 0.000, 0.000, 0.000, 14:38:03.477, 1553971083477
194, -29946.06, 0.00, 0.00, 0.00, 0.00, 0.00, 0.00, -8298.49, 0.000, 0.000, 0.000, 14:38:03.477, 1553971083477
195, -29955.94, 0.00, 0.00, 0.00, 0.00, 0.00, 0.00, -8289.30, 0.000, 0.000, 0.000, 14:38:03.477, 1553971083477
196, -29951.81, 0.00, 0.00, 0.00, 0.00, 0.00, 0.00, -8295.67, 0.000, 0.000, 0.000, 14:38:03.477, 1553971083477
197, -29964.44, 0.00, 0.00, 0.00, 0.00, 0.00, 0.00, -8322.09, 0.000, 0.000, 0.000, 14:38:03.477, 1553971083477
198, -29975.19, 0.00, 0.00, 0.00, 0.00, 0.00, 0.00, -8315.25, 0.074, 0.090, -1.022, 14:38:03.477, 1553971083477
199, -29968.17, 0.00, 0.00, 0.00, 0.00, 0.00, 0.00, -8289.05, 0.000, 0.000, 0.000, 14:38:03.477, 1553971083477
200, -29969.71, 0.00, 0.00, 0.00, 0.00, 0.00, 0.00, -8302.94, 0.000, 0.000, 0.000, 14:38:03.477, 1553971083477
201, -29965.42, 0.00, 0.00, 0.00, 0.00, 0.00, 0.00, -8320.37, 0.000, 0.000, 0.000, 14:38:03.477, 1553971083477
202, -29966.40, 0.00, 0.00, 0.00, 0.00, 0.00, 0.00, -8314.54, 0.000, 0.000, 0.000, 14:38:03.477, 1553971083477
203, -29976.28, 0.00, 0.00, 0.00, 0.00, 0.00, 0.00, -8303.65, 0.000, 0.000, 0.000, 14:38:03.477, 1553971083477
204, -29970.96, 0.00, 0.00, 0.00, 0.00, 0.00, 0.00, -8305.15, 0.000, 0.000, 0.000, 14:38:03.478, 1553971083478
205, -29963.72, 0.00, 0.00, 0.00, 0.00, 0.00, 0.00, -8319.59, 0.000, 0.000, 0.000, 14:38:03.478, 1553971083478
206, -29943.16, 0.00, 0.00, 0.00, 0.00, 0.00, 0.00, -8297.95, 0.000, 0.000, 0.000, 14:38:03.478, 1553971083478
207, -29944.03, 0.00, 0.00, 0.00, 0.00, 0.00, 0.00, -8272.80, 0.000, 0.000, 0.000, 14:38:03.478, 1553971083478
208, -29952.12, 0.00, 0.00, 0.00, 0.00, 0.00, 0.00, -8289.19, 0.074, 0.092, -1.028, 14:38:03.478, 1553971083478
209, -29939.96, 0.00, 0.00, 0.00, 0.00, 0.00, 0.00, -8300.12, 0.000, 0.000, 0.000, 14:38:03.950, 1553971083950
210, -29961.33, 0.00, 0.00, 0.00, 0.00, 0.00, 0.00, -8331.14, 0.000, 0.000, 0.000, 14:38:03.950, 1553971083950
211, -29971.03, 0.00, 0.00, 0.00, 0.00, 0.00, 0.00, -8313.82, 0.000, 0.000, 0.000, 14:38:03.950, 1553971083950
212, -29974.69, 0.00, 0.00, 0.00, 0.00, 0.00, 0.00, -8309.86, 0.000, 0.000, 0.000, 14:38:03.950, 1553971083950
213, -29970.20, 0.00, 0.00, 0.00, 0.00, 0.00, 0.00, -8320.95, 0.000, 0.000, 0.000, 14:38:03.951, 1553971083951
214, -29967.23, 0.00, 0.00, 0.00, 0.00, 0.00, 0.00, -8327.72, 0.000, 0.000, 0.000, 14:38:03.951, 1553971083951
215, -29971.70, 0.00, 0.00, 0.00, 0.00, 0.00, 0.00, -8305.30, 0.000, 0.000, 0.000, 14:38:03.951, 1553971083951
216, -29983.01, 0.00, 0.00, 0.00, 0.00, 0.00, 0.00, -8307.34, 0.000, 0.000, 0.000, 14:38:03.951, 1553971083951
217, -29983.43, 0.00, 0.00, 0.00, 0.00, 0.00, 0.00, -8327.23, 0.080, 0.088, -1.022, 14:38:03.951, 1553971083951
218, -29983.86, 0.00, 0.00, 0.00, 0.00, 0.00, 0.00, -8339.93, 0.000, 0.000, 0.000, 14:38:03.951, 1553971083951
219, -29990.16, 0.00, 0.00, 0.00, 0.00, 0.00, 0.00, -8327.10, 0.000, 0.000, 0.000, 14:38:03.951, 1553971083951
220, -29988.48, 0.00, 0.00, 0.00, 0.00, 0.00, 0.00, -8309.19, 0.000, 0.000, 0.000, 14:38:03.951, 1553971083951
221, -29982.00, 0.00, 0.00, 0.00, 0.00, 0.00, 0.00, -8320.95, 0.000, 0.000, 0.000, 14:38:03.951, 1553971083951
222, -29985.29, 0.00, 0.00, 0.00, 0.00, 0.00, 0.00, -8348.47, 0.000, 0.000, 0.000, 14:38:03.951, 1553971083951
223, -29992.22, 0.00, 0.00, 0.00, 0.00, 0.00, 0.00, -8340.53, 0.000, 0.000, 0.000, 14:38:03.951, 1553971083951
224, -29969.64, 0.00, 0.00, 0.00, 0.00, 0.00, 0.00, -8296.99, 0.000, 0.000, 0.000, 14:38:03.951, 1553971083951
225, -29973.62, 0.00, 0.00, 0.00, 0.00, 0.00, 0.00, -8313.28, 0.000, 0.000, 0.000, 14:38:03.951, 1553971083951
226, -29975.63, 0.00, 0.00, 0.00, 0.00, 0.00, 0.00, -8338.21, 0.000, 0.000, 0.000, 14:38:03.951, 1553971083951
227, -29968.73, 0.00, 0.00, 0.00, 0.00, 0.00, 0.00, -8323.61, 0.072, 0.084, -1.024, 14:38:03.951, 1553971083951
228, -29966.18, 0.00, 0.00, 0.00, 0.00, 0.00, 0.00, -8295.04, 0.000, 0.000, 0.000, 14:38:03.951, 1553971083951
229, -29969.17, 0.00, 0.00, 0.00, 0.00, 0.00, 0.00, -8300.01, 0.000, 0.000, 0.000, 14:38:03.951, 1553971083951
230, -29972.86, 0.00, 0.00, 0.00, 0.00, 0.00, 0.00, -8325.58, 0.000, 0.000, 0.000, 14:38:03.952, 1553971083952
231, -29978.63, 0.00, 0.00, 0.00, 0.00, 0.00, 0.00, -8333.31, 0.000, 0.000, 0.000, 14:38:03.952, 1553971083952
232, -29960.95, 0.00, 0.00, 0.00, 0.00, 0.00, 0.00, -8289.86, 0.000, 0.000, 0.000, 14:38:03.952, 1553971083952
233, -29950.73, 0.00, 0.00, 0.00, 0.00, 0.00, 0.00, -8279.17, 0.000, 0.000, 0.000, 14:38:03.952, 1553971083952
234, -29954.96, 0.00, 0.00, 0.00, 0.00, 0.00, 0.00, -8304.12, 0.000, 0.000, 0.000, 14:38:03.952, 1553971083952
235, -29959.12, 0.00, 0.00, 0.00, 0.00, 0.00, 0.00, -8312.97, 0.000, 0.000, 0.000, 14:38:03.952, 1553971083952
236, -29955.56, 0.00, 0.00, 0.00, 0.00, 0.00, 0.00, -8283.74, 0.000, 0.000, 0.000, 14:38:03.952, 1553971083952
237, -29942.53, 0.00, 0.00, 0.00, 0.00, 0.00, 0.00, -8261.74, 0.066, 0.092, -1.032, 14:38:03.952, 1553971083952
238, -29942.37, 0.00, 0.00, 0.00, 0.00, 0.00, 0.00, -8282.62, 0.000, 0.000, 0.000, 14:38:03.952, 1553971083952
239, -29951.94, 0.00, 0.00, 0.00, 0.00, 0.00, 0.00, -8303.90, 0.000, 0.000, 0.000, 14:38:03.952, 1553971083952
240, -29950.78, 0.00, 0.00, 0.00, 0.00, 0.00, 0.00, -8279.06, 0.000, 0.000, 0.000, 14:38:03.953, 1553971083953
241, -29956.59, 0.00, 0.00, 0.00, 0.00, 0.00, 0.00, -8274.30, 0.000, 0.000, 0.000, 14:38:03.953, 1553971083953
242, -29950.91, 0.00, 0.00, 0.00, 0.00, 0.00, 0.00, -8283.76, 0.000, 0.000, 0.000, 14:38:03.953, 1553971083953
243, -29938.93, 0.00, 0.00, 0.00, 0.00, 0.00, 0.00, -8287.04, 0.000, 0.000, 0.000, 14:38:03.953, 1553971083953
244, -29937.12, 0.00, 0.00, 0.00, 0.00, 0.00, 0.00, -8267.62, 0.000, 0.000, 0.000, 14:38:03.953, 1553971083953
245, -29946.33, 0.00, 0.00, 0.00, 0.00, 0.00, 0.00, -8264.58, 0.000, 0.000, 0.000, 14:38:03.953, 1553971083953
246, -29952.01, 0.00, 0.00, 0.00, 0.00, 0.00, 0.00, -8286.89, 0.000, 0.000, 0.000, 14:38:03.953, 1553971083953
247, -29960.50, 0.00, 0.00, 0.00, 0.00, 0.00, 0.00, -8315.30, 0.066, 0.092, -1.036, 14:38:03.953, 1553971083953
248, -29955.65, 0.00, 0.00, 0.00, 0.00, 0.00, 0.00, -8301.97, 0.000, 0.000, 0.000, 14:38:03.953, 1553971083953
249, -29948.86, 0.00, 0.00, 0.00, 0.00, 0.00, 0.00, -8273.07, 0.000, 0.000, 0.000, 14:38:03.953, 1553971083953
250, -29952.59, 0.00, 0.00, 0.00, 0.00, 0.00, 0.00, -8284.92, 0.000, 0.000, 0.000, 14:38:03.953, 1553971083953
251, -29969.80, 0.00, 0.00, 0.00, 0.00, 0.00, 0.00, -8323.48, 0.000, 0.000, 0.000, 14:38:03.953, 1553971083953
252, -29968.23, 0.00, 0.00, 0.00, 0.00, 0.00, 0.00, -8312.64, 0.000, 0.000, 0.000, 14:38:03.953, 1553971083953
253, -29968.90, 0.00, 0.00, 0.00, 0.00, 0.00, 0.00, -8290.37, 0.000, 0.000, 0.000, 14:38:03.953, 1553971083953
254, -29967.29, 0.00, 0.00, 0.00, 0.00, 0.00, 0.00, -8290.46, 0.000, 0.000, 0.000, 14:38:03.953, 1553971083953
255, -29976.79, 0.00, 0.00, 0.00, 0.00, 0.00, 0.00, -8322.98, 0.000, 0.000, 0.000, 14:38:03.953, 1553971083953
0, -29986.96, 0.00, 0.00, 0.00, 0.00, 0.00, 0.00, -8333.56, 0.000, 0.000, 0.000, 14:38:03.953, 1553971083953
1, -29986.41, 0.00, 0.00, 0.00, 0.00, 0.00, 0.00, -8307.12, 0.068, 0.096, -1.036, 14:38:03.953, 1553971083953
2, -29995.86, 0.00, 0.00, 0.00, 0.00, 0.00, 0.00, -8319.41, 0.000, 0.000, 0.000, 14:38:03.953, 1553971083953
3, -29970.83, 0.00, 0.00, 0.00, 0.00, 0.00, 0.00, -8317.51, 0.000, 0.000, 0.000, 14:38:03.954, 1553971083954
4, -29968.12, 0.00, 0.00, 0.00, 0.00, 0.00, 0.00, -8322.31, 0.000, 0.000, 0.000, 14:38:03.954, 1553971083954
5, -29984.64, 0.00, 0.00, 0.00, 0.00, 0.00, 0.00, -8316.35, 0.000, 0.000, 0.000, 14:38:03.954, 1553971083954
6, -29954.26, 0.00, 0.00, 0.00, 0.00, 0.00, 0.00, -8281.03, 0.000, 0.000, 0.000, 14:38:03.954, 1553971083954
7, -29945.88, 0.00, 0.00, 0.00, 0.00, 0.00, 0.00, -8289.52, 0.000, 0.000, 0.000, 14:38:03.954, 1553971083954
8, -29967.90, 0.00, 0.00, 0.00, 0.00, 0.00, 0.00, -8328.97, 0.000, 0.000, 0.000, 14:38:03.954, 1553971083954
9, -29996.91, 0.00, 0.00, 0.00, 0.00, 0.00, 0.00, -8336.84, 0.000, 0.000, 0.000, 14:38:03.954, 1553971083954
10, -29988.37, 0.00, 0.00, 0.00, 0.00, 0.00, 0.00, -8312.75, 0.000, 0.000, 0.000, 14:38:03.954, 1553971083954
11, -29988.87, 0.00, 0.00, 0.00, 0.00, 0.00, 0.00, -8335.34, 0.076, 0.092, -1.024, 14:38:03.954, 1553971083954
12, -29977.76, 0.00, 0.00, 0.00, 0.00, 0.00, 0.00, -8348.29, 0.000, 0.000, 0.000, 14:38:03.954, 1553971083954
13, -29979.81, 0.00, 0.00, 0.00, 0.00, 0.00, 0.00, -8334.43, 0.000, 0.000, 0.000, 14:38:03.954, 1553971083954
14, -29976.39, 0.00, 0.00, 0.00, 0.00, 0.00, 0.00, -8315.27, 0.000, 0.000, 0.000, 14:38:03.954, 1553971083954
15, -29980.75, 0.00, 0.00, 0.00, 0.00, 0.00, 0.00, -8333.11, 0.000, 0.000, 0.000, 14:38:03.955, 1553971083955
16, -29972.71, 0.00, 0.00, 0.00, 0.00, 0.00, 0.00, -8343.37, 0.000, 0.000, 0.000, 14:38:03.955, 1553971083955
17, -29972.10, 0.00, 0.00, 0.00, 0.00, 0.00, 0.00, -8328.91, 0.000, 0.000, 0.000, 14:38:03.955, 1553971083955
18, -29992.22, 0.00, 0.00, 0.00, 0.00, 0.00, 0.00, -8327.52, 0.000, 0.000, 0.000, 14:38:03.955, 1553971083955
19, -29978.09, 0.00, 0.00, 0.00, 0.00, 0.00, 0.00, -8320.01, 0.000, 0.000, 0.000, 14:38:03.955, 1553971083955
20, -29959.25, 0.00, 0.00, 0.00, 0.00, 0.00, 0.00, -8319.23, 0.000, 0.000, 0.000, 14:38:03.955, 1553971083955
21, -29976.28, 0.00, 0.00, 0.00, 0.00, 0.00, 0.00, -8333.29, 0.072, 0.090, -1.020, 14:38:03.955, 1553971083955
22, -29971.25, 0.00, 0.00, 0.00, 0.00, 0.00, 0.00, -8302.73, 0.000, 0.000, 0.000, 14:38:03.956, 1553971083956
23, -29975.74, 0.00, 0.00, 0.00, 0.00, 0.00, 0.00, -8308.30, 0.000, 0.000, 0.000, 14:38:03.956, 1553971083956
24, -29955.45, 0.00, 0.00, 0.00, 0.00, 0.00, 0.00, -8305.55, 0.000, 0.000, 0.000, 14:38:03.956, 1553971083956
25, -29959.74, 0.00, 0.00, 0.00, 0.00, 0.00, 0.00, -8314.02, 0.000, 0.000, 0.000, 14:38:03.956, 1553971083956
26, -29951.74, 0.00, 0.00, 0.00, 0.00, 0.00, 0.00, -8285.17, 0.000, 0.000, 0.000, 14:38:03.956, 1553971083956
27, -29951.13, 0.00, 0.00, 0.00, 0.00, 0.00, 0.00, -8288.18, 0.000, 0.000, 0.000, 14:38:03.956, 1553971083956
28, -29950.62, 0.00, 0.00, 0.00, 0.00, 0.00, 0.00, -8309.53, 0.000, 0.000, 0.000, 14:38:03.956, 1553971083956
29, -29948.19, 0.00, 0.00, 0.00, 0.00, 0.00, 0.00, -8311.52, 0.000, 0.000, 0.000, 14:38:03.956, 1553971083956
30, -29946.55, 0.00, 0.00, 0.00, 0.00, 0.00, 0.00, -8287.04, 0.068, 0.090, -1.024, 14:38:03.956, 1553971083956
31, -29956.12, 0.00, 0.00, 0.00, 0.00, 0.00, 0.00, -8288.81, 0.000, 0.000, 0.000, 14:38:03.956, 1553971083956
32, -29950.55, 0.00, 0.00, 0.00, 0.00, 0.00, 0.00, -8297.79, 0.000, 0.000, 0.000, 14:38:03.956, 1553971083956
33, -29957.82, 0.00, 0.00, 0.00, 0.00, 0.00, 0.00, -8314.42, 0.000, 0.000, 0.000, 14:38:03.956, 1553971083956
34, -29955.96, 0.00, 0.00, 0.00, 0.00, 0.00, 0.00, -8292.59, 0.000, 0.000, 0.000, 14:38:03.956, 1553971083956
35, -29955.79, 0.00, 0.00, 0.00, 0.00, 0.00, 0.00, -8276.67, 0.000, 0.000, 0.000, 14:38:03.956, 1553971083956
36, -29944.61, 0.00, 0.00, 0.00, 0.00, 0.00, 0.00, -8281.41, 0.000, 0.000, 0.000, 14:38:03.956, 1553971083956
37, -29950.35, 0.00, 0.00, 0.00, 0.00, 0.00, 0.00, -8306.91, 0.000, 0.000, 0.000, 14:38:03.956, 1553971083956
38, -29950.80, 0.00, 0.00, 0.00, 0.00, 0.00, 0.00, -8296.34, 0.000, 0.000, 0.000, 14:38:03.957, 1553971083957
39, -29953.59, 0.00, 0.00, 0.00, 0.00, 0.00, 0.00, -8280.25, 0.000, 0.000, 0.000, 14:38:03.957, 1553971083957
40, -29939.02, 0.00, 0.00, 0.00, 0.00, 0.00, 0.00, -8274.55, 0.072, 0.090, -1.026, 14:38:03.957, 1553971083957
41, -29947.00, 0.00, 0.00, 0.00, 0.00, 0.00, 0.00, -8301.82, 0.000, 0.000, 0.000, 14:38:03.957, 1553971083957
42, -29957.42, 0.00, 0.00, 0.00, 0.00, 0.00, 0.00, -8299.92, 0.000, 0.000, 0.000, 14:38:03.957, 1553971083957
43, -29956.86, 0.00, 0.00, 0.00, 0.00, 0.00, 0.00, -8278.28, 0.000, 0.000, 0.000, 14:38:03.957, 1553971083957
44, -29958.91, 0.00, 0.00, 0.00, 0.00, 0.00, 0.00, -8292.21, 0.000, 0.000, 0.000, 14:38:03.957, 1553971083957
45, -29956.28, 0.00, 0.00, 0.00, 0.00, 0.00, 0.00, -8312.43, 0.000, 0.000, 0.000, 14:38:03.957, 1553971083957
46, -29954.22, 0.00, 0.00, 0.00, 0.00, 0.00, 0.00, -8310.36, 0.000, 0.000, 0.000, 14:38:03.958, 1553971083958
47, -29954.20, 0.00, 0.00, 0.00, 0.00, 0.00, 0.00, -8286.06, 0.000, 0.000, 0.000, 14:38:03.958, 1553971083958
48, -29955.31, 0.00, 0.00, 0.00, 0.00, 0.00, 0.00, -8291.69, 0.000, 0.000, 0.000, 14:38:03.958, 1553971083958
49, -29961.15, 0.00, 0.00, 0.00, 0.00, 0.00, 0.00, -8322.52, 0.000, 0.000, 0.000, 14:38:03.958, 1553971083958
50, -29961.78, 0.00, 0.00, 0.00, 0.00, 0.00, 0.00, -8329.74, 0.074, 0.088, -1.026, 14:38:03.958, 1553971083958
51, -29962.02, 0.00, 0.00, 0.00, 0.00, 0.00, 0.00, -8298.96, 0.000, 0.000, 0.000, 14:38:03.958, 1553971083958
52, -29960.48, 0.00, 0.00, 0.00, 0.00, 0.00, 0.00, -8302.47, 0.000, 0.000, 0.000, 14:38:03.958, 1553971083958
53, -29958.22, 0.00, 0.00, 0.00, 0.00, 0.00, 0.00, -8321.29, 0.000, 0.000, 0.000, 14:38:03.959, 1553971083959
54, -29968.14, 0.00, 0.00, 0.00, 0.00, 0.00, 0.00, -8333.33, 0.000, 0.000, 0.000, 14:38:03.959, 1553971083959
55, -29964.46, 0.00, 0.00, 0.00, 0.00, 0.00, 0.00, -8305.73, 0.000, 0.000, 0.000, 14:38:03.959, 1553971083959
56, -29970.47, 0.00, 0.00, 0.00, 0.00, 0.00, 0.00, -8305.26, 0.000, 0.000, 0.000, 14:38:03.959, 1553971083959
57, -29973.87, 0.00, 0.00, 0.00, 0.00, 0.00, 0.00, -8325.85, 0.000, 0.000, 0.000, 14:38:03.959, 1553971083959
58, -29975.07, 0.00, 0.00, 0.00, 0.00, 0.00, 0.00, -8338.54, 0.000, 0.000, 0.000, 14:38:03.959, 1553971083959
59, -29975.21, 0.00, 0.00, 0.00, 0.00, 0.00, 0.00, -8317.82, 0.000, 0.000, 0.000, 14:38:03.959, 1553971083959
60, -29960.48, 0.00, 0.00, 0.00, 0.00, 0.00, 0.00, -8284.32, 0.070, 0.092, -1.030, 14:38:03.959, 1553971083959
61, -29962.49, 0.00, 0.00, 0.00, 0.00, 0.00, 0.00, -8305.06, 0.000, 0.000, 0.000, 14:38:03.959, 1553971083959
62, -29978.58, 0.00, 0.00, 0.00, 0.00, 0.00, 0.00, -8342.48, 0.000, 0.000, 0.000, 14:38:03.959, 1553971083959
63, -30014.35, 0.00, 0.00, 0.00, 0.00, 0.00, 0.00, -8364.18, 0.000, 0.000, 0.000, 14:38:03.959, 1553971083959
64, -30014.23, 0.00, 0.00, 0.00, 0.00, 0.00, 0.00, -8340.87, 0.000, 0.000, 0.000, 14:38:03.959, 1553971083959
65, -30009.47, 0.00, 0.00, 0.00, 0.00, 0.00, 0.00, -8352.98, 0.000, 0.000, 0.000, 14:38:03.959, 1553971083959
66, -30006.93, 0.00, 0.00, 0.00, 0.00, 0.00, 0.00, -8376.32, 0.000, 0.000, 0.000, 14:38:03.959, 1553971083959
67, -30010.03, 0.00, 0.00, 0.00, 0.00, 0.00, 0.00, -8373.70, 0.000, 0.000, 0.000, 14:38:03.960, 1553971083960
68, -30010.48, 0.00, 0.00, 0.00, 0.00, 0.00, 0.00, -8351.26, 0.000, 0.000, 0.000, 14:38:03.960, 1553971083960
69, -30019.46, 0.00, 0.00, 0.00, 0.00, 0.00, 0.00, -8371.00, 0.000, 0.000, 0.000, 14:38:03.960, 1553971083960
70, -30027.24, 0.00, 0.00, 0.00, 0.00, 0.00, 0.00, -8398.15, 0.068, 0.086, -1.034, 14:38:03.960, 1553971083960
71, -30033.48, 0.00, 0.00, 0.00, 0.00, 0.00, 0.00, -8407.18, 0.000, 0.000, 0.000, 14:38:03.960, 1553971083960
72, -30043.02, 0.00, 0.00, 0.00, 0.00, 0.00, 0.00, -8397.66, 0.000, 0.000, 0.000, 14:38:03.960, 1553971083960
73, -30042.53, 0.00, 0.00, 0.00, 0.00, 0.00, 0.00, -8392.12, 0.000, 0.000, 0.000, 14:38:04.431, 1553971084431
74, -30037.53, 0.00, 0.00, 0.00, 0.00, 0.00, 0.00, -8399.47, 0.000, 0.000, 0.000, 14:38:04.431, 1553971084431
75, -30041.21, 0.00, 0.00, 0.00, 0.00, 0.00, 0.00, -8404.37, 0.000, 0.000, 0.000, 14:38:04.431, 1553971084431
76, -30029.99, 0.00, 0.00, 0.00, 0.00, 0.00, 0.00, -8370.44, 0.000, 0.000, 0.000, 14:38:04.431, 1553971084431
77, -30032.18, 0.00, 0.00, 0.00, 0.00, 0.00, 0.00, -8369.03, 0.000, 0.000, 0.000, 14:38:04.431, 1553971084431
78, -30032.38, 0.00, 0.00, 0.00, 0.00, 0.00, 0.00, -8393.06, 0.000, 0.000, 0.000, 14:38:04.431, 1553971084431
79, -30036.36, 0.00, 0.00, 0.00, 0.00, 0.00, 0.00, -8416.95, 0.000, 0.000, 0.000, 14:38:04.431, 1553971084431
80, -30034.87, 0.00, 0.00, 0.00, 0.00, 0.00, 0.00, -8384.56, 0.064, 0.086, -1.032, 14:38:04.431, 1553971084431
81, -30035.65, 0.00, 0.00, 0.00, 0.00, 0.00, 0.00, -8375.51, 0.000, 0.000, 0.000, 14:38:04.431, 1553971084431
82, -30041.46, 0.00, 0.00, 0.00, 0.00, 0.00, 0.00, -8401.60, 0.000, 0.000, 0.000, 14:38:04.431, 1553971084431
83, -30026.80, 0.00, 0.00, 0.00, 0.00, 0.00, 0.00, -8401.93, 0.000, 0.000, 0.000, 14:38:04.431, 1553971084431
84, -30032.88, 0.00, 0.00, 0.00, 0.00, 0.00, 0.00, -8385.41, 0.000, 0.000, 0.000, 14:38:04.431, 1553971084431
85, -30042.08, 0.00, 0.00, 0.00, 0.00, 0.00, 0.00, -8382.37, 0.000, 0.000, 0.000, 14:38:04.431, 1553971084431
86, -30033.23, 0.00, 0.00, 0.00, 0.00, 0.00, 0.00, -8391.00, 0.000, 0.000, 0.000, 14:38:04.431, 1553971084431
87, -30026.86, 0.00, 0.00, 0.00, 0.00, 0.00, 0.00, -8406.80, 0.000, 0.000, 0.000, 14:38:04.431, 1553971084431
88, -30013.52, 0.00, 0.00, 0.00, 0.00, 0.00, 0.00, -8383.74, 0.000, 0.000, 0.000, 14:38:04.431, 1553971084431
89, -30001.63, 0.00, 0.00, 0.00, 0.00, 0.00, 0.00, -8345.90, 0.056, 0.084, -1.038, 14:38:04.431, 1553971084431
90, -29989.65, 0.00, 0.00, 0.00, 0.00, 0.00, 0.00, -8341.18, 0.000, 0.000, 0.000, 14:38:04.432, 1553971084432
91, -29990.54, 0.00, 0.00, 0.00, 0.00, 0.00, 0.00, -8366.19, 0.000, 0.000, 0.000, 14:38:04.432, 1553971084432
92, -30008.51, 0.00, 0.00, 0.00, 0.00, 0.00, 0.00, -8378.37, 0.000, 0.000, 0.000, 14:38:04.432, 1553971084432
93, -29995.23, 0.00, 0.00, 0.00, 0.00, 0.00, 0.00, -8338.68, 0.000, 0.000, 0.000, 14:38:04.432, 1553971084432
94, -29991.26, 0.00, 0.00, 0.00, 0.00, 0.00, 0.00, -8335.26, 0.000, 0.000, 0.000, 14:38:04.432, 1553971084432
95, -29982.32, 0.00, 0.00, 0.00, 0.00, 0.00, 0.00, -8345.94, 0.000, 0.000, 0.000, 14:38:04.432, 1553971084432
96, -29983.63, 0.00, 0.00, 0.00, 0.00, 0.00, 0.00, -8347.39, 0.000, 0.000, 0.000, 14:38:04.432, 1553971084432
97, -29984.80, 0.00, 0.00, 0.00, 0.00, 0.00, 0.00, -8321.00, 0.000, 0.000, 0.000, 14:38:04.432, 1553971084432
98, -29986.14, 0.00, 0.00, 0.00, 0.00, 0.00, 0.00, -8320.79, 0.000, 0.000, 0.000, 14:38:04.432, 1553971084432
99, -29981.15, 0.00, 0.00, 0.00, 0.00, 0.00, 0.00, -8335.08, 0.064, 0.086, -1.034, 14:38:04.432, 1553971084432
100, -29985.83, 0.00, 0.00, 0.00, 0.00, 0.00, 0.00, -8348.33, 0.000, 0.000, 0.000, 14:38:04.432, 1553971084432
101, -29969.93, 0.00, 0.00, 0.00, 0.00, 0.00, 0.00, -8309.71, 0.000, 0.000, 0.000, 14:38:04.432, 1553971084432
102, -29956.66, 0.00, 0.00, 0.00, 0.00, 0.00, 0.00, -8291.71, 0.000, 0.000, 0.000, 14:38:04.432, 1553971084432
103, -29957.97, 0.00, 0.00, 0.00, 0.00, 0.00, 0.00, -8309.82, 0.000, 0.000, 0.000, 14:38:04.432, 1553971084432
104, -29962.69, 0.00, 0.00, 0.00, 0.00, 0.00, 0.00, -8326.11, 0.000, 0.000, 0.000, 14:38:04.433, 1553971084433
105, -29960.32, 0.00, 0.00, 0.00, 0.00, 0.00, 0.00, -8296.50, 0.000, 0.000, 0.000, 14:38:04.433, 1553971084433
106, -29956.03, 0.00, 0.00, 0.00, 0.00, 0.00, 0.00, -8287.38, 0.000, 0.000, 0.000, 14:38:04.433, 1553971084433
107, -29955.90, 0.00, 0.00, 0.00, 0.00, 0.00, 0.00, -8307.14, 0.000, 0.000, 0.000, 14:38:04.433, 1553971084433
108, -29962.83, 0.00, 0.00, 0.00, 0.00, 0.00, 0.00, -8329.53, 0.000, 0.000, 0.000, 14:38:04.433, 1553971084433
109, -29963.00, 0.00, 0.00, 0.00, 0.00, 0.00, 0.00, -8309.24, 0.070, 0.082, -1.032, 14:38:04.433, 1553971084433
110, -29953.57, 0.00, 0.00, 0.00, 0.00, 0.00, 0.00, -8282.48, 0.000, 0.000, 0.000, 14:38:04.433, 1553971084433
111, -29949.64, 0.00, 0.00, 0.00, 0.00, 0.00, 0.00, -8294.37, 0.000, 0.000, 0.000, 14:38:04.433, 1553971084433
112, -29966.92, 0.00, 0.00, 0.00, 0.00, 0.00, 0.00, -8330.45, 0.000, 0.000, 0.000, 14:38:04.433, 1553971084433
113, -29963.38, 0.00, 0.00, 0.00, 0.00, 0.00, 0.00, -8320.24, 0.000, 0.000, 0.000, 14:38:04.433, 1553971084433
114, -29971.10, 0.00, 0.00, 0.00, 0.00, 0.00, 0.00, -8305.48, 0.000, 0.000, 0.000, 14:38:04.433, 1553971084433
115, -29960.03, 0.00, 0.00, 0.00, 0.00, 0.00, 0.00, -8303.72, 0.000, 0.000, 0.000, 14:38:04.433, 1553971084433
116, -29961.64, 0.00, 0.00, 0.00, 0.00, 0.00, 0.00, -8319.01, 0.000, 0.000, 0.000, 14:38:04.434, 1553971084434
117, -29975.97, 0.00, 0.00, 0.00, 0.00, 0.00, 0.00, -8330.34, 0.000, 0.000, 0.000, 14:38:04.434, 1553971084434
118, -29960.37, 0.00, 0.00, 0.00, 0.00, 0.00, 0.00, -8295.31, 0.000, 0.000, 0.000, 14:38:04.434, 1553971084434
119, -29953.30, 0.00, 0.00, 0.00, 0.00, 0.00, 0.00, -8296.61, 0.072, 0.084, -1.026, 14:38:04.434, 1553971084434
120, -29965.02, 0.00, 0.00, 0.00, 0.00, 0.00, 0.00, -8331.59, 0.000, 0.000, 0.000, 14:38:04.434, 1553971084434
121, -29967.83, 0.00, 0.00, 0.00, 0.00, 0.00, 0.00, -8337.45, 0.000, 0.000, 0.000, 14:38:04.434, 1553971084434
122, -29973.93, 0.00, 0.00, 0.00, 0.00, 0.00, 0.00, -8317.62, 0.000, 0.000, 0.000, 14:38:04.434, 1553971084434
123, -29971.34, 0.00, 0.00, 0.00, 0.00, 0.00, 0.00, -8303.34, 0.000, 0.000, 0.000, 14:38:04.435, 1553971084435
124, -29964.17, 0.00, 0.00, 0.00, 0.00, 0.00, 0.00, -8322.58, 0.000, 0.000, 0.000, 14:38:04.435, 1553971084435
125, -29960.48, 0.00, 0.00, 0.00, 0.00, 0.00, 0.00, -8332.73, 0.000, 0.000, 0.000, 14:38:04.435, 1553971084435
126, -29964.32, 0.00, 0.00, 0.00, 0.00, 0.00, 0.00, -8310.29, 0.000, 0.000, 0.000, 14:38:04.435, 1553971084435
127, -29962.33, 0.00, 0.00, 0.00, 0.00, 0.00, 0.00, -8303.43, 0.000, 0.000, 0.000, 14:38:04.435, 1553971084435
128, -29951.02, 0.00, 0.00, 0.00, 0.00, 0.00, 0.00, -8313.71, 0.000, 0.000, 0.000, 14:38:04.435, 1553971084435
129, -29952.50, 0.00, 0.00, 0.00, 0.00, 0.00, 0.00, -8326.29, 0.070, 0.090, -1.026, 14:38:04.435, 1553971084435
130, -29951.43, 0.00, 0.00, 0.00, 0.00, 0.00, 0.00, -8300.59, 0.000, 0.000, 0.000, 14:38:04.435, 1553971084435
131, -29941.12, 0.00, 0.00, 0.00, 0.00, 0.00, 0.00, -8280.63, 0.000, 0.000, 0.000, 14:38:04.435, 1553971084435
132, -29937.37, 0.00, 0.00, 0.00, 0.00, 0.00, 0.00, -8291.11, 0.000, 0.000, 0.000, 14:38:04.435, 1553971084435
133, -29942.26, 0.00, 0.00, 0.00, 0.00, 0.00, 0.00, -8311.63, 0.000, 0.000, 0.000, 14:38:04.435, 1553971084435
134, -29959.07, 0.00, 0.00, 0.00, 0.00, 0.00, 0.00, -8314.78, 0.000, 0.000, 0.000, 14:38:04.435, 1553971084435
135, -29959.85, 0.00, 0.00, 0.00, 0.00, 0.00, 0.00, -8302.15, 0.000, 0.000, 0.000, 14:38:04.436, 1553971084436
136, -29949.84, 0.00, 0.00, 0.00, 0.00, 0.00, 0.00, -8300.50, 0.000, 0.000, 0.000, 14:38:04.436, 1553971084436
137, -29950.85, 0.00, 0.00, 0.00, 0.00, 0.00, 0.00, -8319.52, 0.000, 0.000, 0.000, 14:38:04.436, 1553971084436
138, -29949.86, 0.00, 0.00, 0.00, 0.00, 0.00, 0.00, -8310.36, 0.000, 0.000, 0.000, 14:38:04.436, 1553971084436
139, -29945.17, 0.00, 0.00, 0.00, 0.00, 0.00, 0.00, -8279.44, 0.066, 0.082, -1.018, 14:38:04.436, 1553971084436
140, -29947.29, 0.00, 0.00, 0.00, 0.00, 0.00, 0.00, -8288.74, 0.000, 0.000, 0.000, 14:38:04.436, 1553971084436
141, -29957.73, 0.00, 0.00, 0.00, 0.00, 0.00, 0.00, -8321.31, 0.000, 0.000, 0.000, 14:38:04.436, 1553971084436
142, -29960.97, 0.00, 0.00, 0.00, 0.00, 0.00, 0.00, -8319.45, 0.000, 0.000, 0.000, 14:38:04.436, 1553971084436
143, -29965.60, 0.00, 0.00, 0.00, 0.00, 0.00, 0.00, -8295.13, 0.000, 0.000, 0.000, 14:38:04.436, 1553971084436
144, -29969.46, 0.00, 0.00, 0.00, 0.00, 0.00, 0.00, -8309.86, 0.000, 0.000, 0.000, 14:38:04.436, 1553971084436
145, -29958.06, 0.00, 0.00, 0.00, 0.00, 0.00, 0.00, -8321.69, 0.000, 0.000, 0.000, 14:38:04.436, 1553971084436
146, -29959.03, 0.00, 0.00, 0.00, 0.00, 0.00, 0.00, -8328.30, 0.000, 0.000, 0.000, 14:38:04.436, 1553971084436
147, -29965.75, 0.00, 0.00, 0.00, 0.00, 0.00, 0.00, -8309.62, 0.000, 0.000, 0.000, 14:38:04.436, 1553971084436
148, -29963.81, 0.00, 0.00, 0.00, 0.00, 0.00, 0.00, -8304.95, 0.000, 0.000, 0.000, 14:38:04.436, 1553971084436
149, -29953.08, 0.00, 0.00, 0.00, 0.00, 0.00, 0.00, -8311.76, 0.068, 0.084, -1.026, 14:38:04.436, 1553971084436
150, -29961.15, 0.00, 0.00, 0.00, 0.00, 0.00, 0.00, -8328.30, 0.000, 0.000, 0.000, 14:38:04.436, 1553971084436
151, -29968.35, 0.00, 0.00, 0.00, 0.00, 0.00, 0.00, -8314.00, 0.000, 0.000, 0.000, 14:38:04.436, 1553971084436
152, -29967.07, 0.00, 0.00, 0.00, 0.00, 0.00, 0.00, -8304.75, 0.000, 0.000, 0.000, 14:38:04.437, 1553971084437
153, -29962.11, 0.00, 0.00, 0.00, 0.00, 0.00, 0.00, -8316.86, 0.000, 0.000, 0.000, 14:38:04.437, 1553971084437
154, -29971.39, 0.00, 0.00, 0.00, 0.00, 0.00, 0.00, -8339.55, 0.000, 0.000, 0.000, 14:38:04.437, 1553971084437
155, -29966.18, 0.00, 0.00, 0.00, 0.00, 0.00, 0.00, -8317.33, 0.000, 0.000, 0.000, 14:38:04.437, 1553971084437
156, -29957.17, 0.00, 0.00, 0.00, 0.00, 0.00, 0.00, -8296.68, 0.000, 0.000, 0.000, 14:38:04.437, 1553971084437
157, -29953.01, 0.00, 0.00, 0.00, 0.00, 0.00, 0.00, -8302.47, 0.000, 0.000, 0.000, 14:38:04.437, 1553971084437
158, -29963.36, 0.00, 0.00, 0.00, 0.00, 0.00, 0.00, -8325.78, 0.080, 0.086, -1.022, 14:38:04.437, 1553971084437
159, -29964.84, 0.00, 0.00, 0.00, 0.00, 0.00, 0.00, -8314.94, 0.000, 0.000, 0.000, 14:38:04.437, 1553971084437
160, -29969.98, 0.00, 0.00, 0.00, 0.00, 0.00, 0.00, -8299.02, 0.000, 0.000, 0.000, 14:38:04.437, 1553971084437
161, -29969.31, 0.00, 0.00, 0.00, 0.00, 0.00, 0.00, -8309.84, 0.000, 0.000, 0.000, 14:38:04.437, 1553971084437
162, -29962.29, 0.00, 0.00, 0.00, 0.00, 0.00, 0.00, -8322.11, 0.000, 0.000, 0.000, 14:38:04.437, 1553971084437
163, -29948.81, 0.00, 0.00, 0.00, 0.00, 0.00, 0.00, -8300.23, 0.000, 0.000, 0.000, 14:38:04.437, 1553971084437
164, -29940.63, 0.00, 0.00, 0.00, 0.00, 0.00, 0.00, -8267.73, 0.000, 0.000, 0.000, 14:38:04.437, 1553971084437
165, -29928.65, 0.00, 0.00, 0.00, 0.00, 0.00, 0.00, -8264.38, 0.000, 0.000, 0.000, 14:38:04.437, 1553971084437
166, -29928.31, 0.00, 0.00, 0.00, 0.00, 0.00, 0.00, -8285.66, 0.000, 0.000, 0.000, 14:38:04.438, 1553971084438
167, -29935.51, 0.00, 0.00, 0.00, 0.00, 0.00, 0.00, -8293.88, 0.000, 0.000, 0.000, 14:38:04.438, 1553971084438
168, -29927.49, 0.00, 0.00, 0.00, 0.00, 0.00, 0.00, -8260.82, 0.080, 0.088, -1.020, 14:38:04.438, 1553971084438
169, -29923.51, 0.00, 0.00, 0.00, 0.00, 0.00, 0.00, -8257.18, 0.000, 0.000, 0.000, 14:38:04.438, 1553971084438
170, -29912.62, 0.00, 0.00, 0.00, 0.00, 0.00, 0.00, -8269.85, 0.000, 0.000, 0.000, 14:38:04.438, 1553971084438
171, -29919.42, 0.00, 0.00, 0.00, 0.00, 0.00, 0.00, -8280.23, 0.000, 0.000, 0.000, 14:38:04.438, 1553971084438
172, -29927.46, 0.00, 0.00, 0.00, 0.00, 0.00, 0.00, -8258.83, 0.000, 0.000, 0.000, 14:38:04.438, 1553971084438
173, -29923.73, 0.00, 0.00, 0.00, 0.00, 0.00, 0.00, -8245.76, 0.000, 0.000, 0.000, 14:38:04.438, 1553971084438
174, -29925.54, 0.00, 0.00, 0.00, 0.00, 0.00, 0.00, -8268.78, 0.000, 0.000, 0.000, 14:38:04.438, 1553971084438
175, -29927.78, 0.00, 0.00, 0.00, 0.00, 0.00, 0.00, -8286.22, 0.000, 0.000, 0.000, 14:38:04.438, 1553971084438
176, -29927.53, 0.00, 0.00, 0.00, 0.00, 0.00, 0.00, -8260.22, 0.000, 0.000, 0.000, 14:38:04.438, 1553971084438
177, -29933.59, 0.00, 0.00, 0.00, 0.00, 0.00, 0.00, -8252.42, 0.000, 0.000, 0.000, 14:38:04.438, 1553971084438
178, -29936.41, 0.00, 0.00, 0.00, 0.00, 0.00, 0.00, -8274.57, 0.070, 0.092, -1.034, 14:38:04.439, 1553971084439
179, -29939.00, 0.00, 0.00, 0.00, 0.00, 0.00, 0.00, -8292.47, 0.000, 0.000, 0.000, 14:38:04.439, 1553971084439
180, -29939.36, 0.00, 0.00, 0.00, 0.00, 0.00, 0.00, -8273.81, 0.000, 0.000, 0.000, 14:38:04.439, 1553971084439
181, -29939.63, 0.00, 0.00, 0.00, 0.00, 0.00, 0.00, -8263.80, 0.000, 0.000, 0.000, 14:38:04.439, 1553971084439
182, -29939.02, 0.00, 0.00, 0.00, 0.00, 0.00, 0.00, -8278.57, 0.000, 0.000, 0.000, 14:38:04.439, 1553971084439
183, -29949.66, 0.00, 0.00, 0.00, 0.00, 0.00, 0.00, -8310.29, 0.000, 0.000, 0.000, 14:38:04.439, 1553971084439
184, -29942.11, 0.00, 0.00, 0.00, 0.00, 0.00, 0.00, -8288.92, 0.000, 0.000, 0.000, 14:38:04.439, 1553971084439
185, -29946.40, 0.00, 0.00, 0.00, 0.00, 0.00, 0.00, -8269.88, 0.000, 0.000, 0.000, 14:38:04.439, 1553971084439
186, -29964.05, 0.00, 0.00, 0.00, 0.00, 0.00, 0.00, -8292.83, 0.000, 0.000, 0.000, 14:38:04.439, 1553971084439
187, -29957.42, 0.00, 0.00, 0.00, 0.00, 0.00, 0.00, -8309.77, 0.000, 0.000, 0.000, 14:38:04.439, 1553971084439
188, -29951.52, 0.00, 0.00, 0.00, 0.00, 0.00, 0.00, -8300.36, 0.076, 0.090, -1.028, 14:38:04.439, 1553971084439
189, -29948.81, 0.00, 0.00, 0.00, 0.00, 0.00, 0.00, -8276.29, 0.000, 0.000, 0.000, 14:38:04.439, 1553971084439
190, -29949.55, 0.00, 0.00, 0.00, 0.00, 0.00, 0.00, -8283.02, 0.000, 0.000, 0.000, 14:38:04.439, 1553971084439
191, -29950.76, 0.00, 0.00, 0.00, 0.00, 0.00, 0.00, -8300.86, 0.000, 0.000, 0.000, 14:38:04.439, 1553971084439
192, -29956.97, 0.00, 0.00, 0.00, 0.00, 0.00, 0.00, -8305.28, 0.000, 0.000, 0.000, 14:38:04.439, 1553971084439
193, -29950.06, 0.00, 0.00, 0.00, 0.00, 0.00, 0.00, -8275.93, 0.000, 0.000, 0.000, 14:38:04.911, 1553971084911
194, -29943.04, 0.00, 0.00, 0.00, 0.00, 0.00, 0.00, -8268.69, 0.000, 0.000, 0.000, 14:38:04.911, 1553971084911
195, -29961.08, 0.00, 0.00, 0.00, 0.00, 0.00, 0.00, -8308.97, 0.000, 0.000, 0.000, 14:38:04.911, 1553971084911
196, -29972.77, 0.00, 0.00, 0.00, 0.00, 0.00, 0.00, -8330.58, 0.000, 0.000, 0.000, 14:38:04.911, 1553971084911
197, -29971.23, 0.00, 0.00, 0.00, 0.00, 0.00, 0.00, -8302.17, 0.000, 0.000, 0.000, 14:38:04.911, 1553971084911
198, -29965.73, 0.00, 0.00, 0.00, 0.00, 0.00, 0.00, -8292.54, 0.078, 0.092, -1.028, 14:38:04.911, 1553971084911
199, -29960.86, 0.00, 0.00, 0.00, 0.00, 0.00, 0.00, -8306.82, 0.000, 0.000, 0.000, 14:38:04.911, 1553971084911
200, -29965.11, 0.00, 0.00, 0.00, 0.00, 0.00, 0.00, -8317.64, 0.000, 0.000, 0.000, 14:38:04.911, 1553971084911
201, -29967.70, 0.00, 0.00, 0.00, 0.00, 0.00, 0.00, -8300.59, 0.000, 0.000, 0.000, 14:38:04.911, 1553971084911
202, -29969.24, 0.00, 0.00, 0.00, 0.00, 0.00, 0.00, -8290.53, 0.000, 0.000, 0.000, 14:38:04.911, 1553971084911
203, -29978.81, 0.00, 0.00, 0.00, 0.00, 0.00, 0.00, -8315.45, 0.000, 0.000, 0.000, 14:38:04.911, 1553971084911
204, -29975.61, 0.00, 0.00, 0.00, 0.00, 0.00, 0.00, -8326.49, 0.000, 0.000, 0.000, 14:38:04.911, 1553971084911
205, -29964.17, 0.00, 0.00, 0.00, 0.00, 0.00, 0.00, -8296.10, 0.000, 0.000, 0.000, 14:38:04.912, 1553971084912
206, -29955.87, 0.00, 0.00, 0.00, 0.00, 0.00, 0.00, -8276.00, 0.000, 0.000, 0.000, 14:38:04.912, 1553971084912
207, -29950.69, 0.00, 0.00, 0.00, 0.00, 0.00, 0.00, -8286.08, 0.000, 0.000, 0.000, 14:38:04.912, 1553971084912
208, -29950.82, 0.00, 0.00, 0.00, 0.00, 0.00, 0.00, -8302.62, 0.064, 0.092, -1.034, 14:38:04.912, 1553971084912
209, -29956.97, 0.00, 0.00, 0.00, 0.00, 0.00, 0.00, -8296.50, 0.000, 0.000, 0.000, 14:38:04.912, 1553971084912
210, -29964.84, 0.00, 0.00, 0.00, 0.00, 0.00, 0.00, -8278.73, 0.000, 0.000, 0.000, 14:38:04.912, 1553971084912
211, -29960.37, 0.00, 0.00, 0.00, 0.00, 0.00, 0.00, -8284.12, 0.000, 0.000, 0.000, 14:38:04.912, 1553971084912
212, -29953.88, 0.00, 0.00, 0.00, 0.00, 0.00, 0.00, -8299.98, 0.000, 0.000, 0.000, 14:38:04.912, 1553971084912
213, -29948.63, 0.00, 0.00, 0.00, 0.00, 0.00, 0.00, -8286.37, 0.000, 0.000, 0.000, 14:38:04.912, 1553971084912
214, -29958.40, 0.00, 0.00, 0.00, 0.00, 0.00, 0.00, -8266.70, 0.000, 0.000, 0.000, 14:38:04.912, 1553971084912
215, -29959.09, 0.00, 0.00, 0.00, 0.00, 0.00, 0.00, -8274.33, 0.000, 0.000, 0.000, 14:38:04.912, 1553971084912
216, -29959.45, 0.00, 0.00, 0.00, 0.00, 0.00, 0.00, -8294.15, 0.000, 0.000, 0.000, 14:38:04.912, 1553971084912
217, -29964.01, 0.00, 0.00, 0.00, 0.00, 0.00, 0.00, -8301.42, 0.000, 0.000, 0.000, 14:38:04.912, 1553971084912
218, -29955.92, 0.00, 0.00, 0.00, 0.00, 0.00, 0.00, -8268.87, 0.072, 0.088, -1.022, 14:38:04.912, 1553971084912
219, -29965.60, 0.00, 0.00, 0.00, 0.00, 0.00, 0.00, -8271.51, 0.000, 0.000, 0.000, 14:38:04.912, 1553971084912
220, -29957.95, 0.00, 0.00, 0.00, 0.00, 0.00, 0.00, -8288.50, 0.000, 0.000, 0.000, 14:38:04.912, 1553971084912
221, -29959.74, 0.00, 0.00, 0.00, 0.00, 0.00, 0.00, -8307.96, 0.000, 0.000, 0.000, 14:38:04.912, 1553971084912
222, -29958.47, 0.00, 0.00, 0.00, 0.00, 0.00, 0.00, -8275.08, 0.000, 0.000, 0.000, 14:38:04.912, 1553971084912
223, -29961.08, 0.00, 0.00, 0.00, 0.00, 0.00, 0.00, -8270.61, 0.000, 0.000, 0.000, 14:38:04.912, 1553971084912
224, -29967.92, 0.00, 0.00, 0.00, 0.00, 0.00, 0.00, -8291.96, 0.000, 0.000, 0.000, 14:38:04.913, 1553971084913
225, -29966.78, 0.00, 0.00, 0.00, 0.00, 0.00, 0.00, -8306.56, 0.000, 0.000, 0.000, 14:38:04.913, 1553971084913
226, -29974.78, 0.00, 0.00, 0.00, 0.00, 0.00, 0.00, -8290.91, 0.000, 0.000, 0.000, 14:38:04.913, 1553971084913
227, -29975.19, 0.00, 0.00, 0.00, 0.00, 0.00, 0.00, -8276.16, 0.068, 0.086, -1.024, 14:38:04.913, 1553971084913
228, -29983.50, 0.00, 0.00, 0.00, 0.00, 0.00, 0.00, -8297.01, 0.000, 0.000, 0.000, 14:38:04.913, 1553971084913
229, -29989.71, 0.00, 0.00, 0.00, 0.00, 0.00, 0.00, -8318.22, 0.000, 0.000, 0.000, 14:38:04.913, 1553971084913
230, -29981.09, 0.00, 0.00, 0.00, 0.00, 0.00, 0.00, -8290.64, 0.000, 0.000, 0.000, 14:38:04.913, 1553971084913
231, -29977.91, 0.00, 0.00, 0.00, 0.00, 0.00, 0.00, -8265.25, 0.000, 0.000, 0.000, 14:38:04.913, 1553971084913
232, -29969.33, 0.00, 0.00, 0.00, 0.00, 0.00, 0.00, -8272.42, 0.000, 0.000, 0.000, 14:38:04.913, 1553971084913
233, -29985.15, 0.00, 0.00, 0.00, 0.00, 0.00, 0.00, -8310.60, 0.000, 0.000, 0.000, 14:38:04.913, 1553971084913
234, -29981.29, 0.00, 0.00, 0.00, 0.00, 0.00, 0.00, -8294.60, 0.000, 0.000, 0.000, 14:38:04.913, 1553971084913
235, -29975.05, 0.00, 0.00, 0.00, 0.00, 0.00, 0.00, -8273.83, 0.000, 0.000, 0.000, 14:38:04.913, 1553971084913
236, -29968.46, 0.00, 0.00, 0.00, 0.00, 0.00, 0.00, -8274.95, 0.000, 0.000, 0.000, 14:38:04.914, 1553971084914
237, -29980.26, 0.00, 0.00, 0.00, 0.00, 0.00, 0.00, -8296.50, 0.064, 0.088, -1.026, 14:38:04.914, 1553971084914
238, -29985.80, 0.00, 0.00, 0.00, 0.00, 0.00, 0.00, -8300.79, 0.000, 0.000, 0.000, 14:38:04.914, 1553971084914
239, -29980.93, 0.00, 0.00, 0.00, 0.00, 0.00, 0.00, -8270.57, 0.000, 0.000, 0.000, 14:38:04.914, 1553971084914
240, -29981.71, 0.00, 0.00, 0.00, 0.00, 0.00, 0.00, -8273.25, 0.000, 0.000, 0.000, 14:38:04.914, 1553971084914
241, -29985.02, 0.00, 0.00, 0.00, 0.00, 0.00, 0.00, -8298.22, 0.000, 0.000, 0.000, 14:38:04.914, 1553971084914
242, -29995.41, 0.00, 0.00, 0.00, 0.00, 0.00, 0.00, -8306.82, 0.000, 0.000, 0.000, 14:38:04.914, 1553971084914
243, -29988.13, 0.00, 0.00, 0.00, 0.00, 0.00, 0.00, -8274.15, 0.000, 0.000, 0.000, 14:38:04.914, 1553971084914
244, -29978.85, 0.00, 0.00, 0.00, 0.00, 0.00, 0.00, -8269.05, 0.000, 0.000, 0.000, 14:38:04.914, 1553971084914
245, -29977.06, 0.00, 0.00, 0.00, 0.00, 0.00, 0.00, -8283.27, 0.000, 0.000, 0.000, 14:38:04.914, 1553971084914
246, -29975.52, 0.00, 0.00, 0.00, 0.00, 0.00, 0.00, -8291.51, 0.000, 0.000, 0.000, 14:38:04.914, 1553971084914
247, -29984.48, 0.00, 0.00, 0.00, 0.00, 0.00, 0.00, -8278.48, 0.064, 0.086, -1.026, 14:38:04.914, 1553971084914
248, -29989.09, 0.00, 0.00, 0.00, 0.00, 0.00, 0.00, -8278.84, 0.000, 0.000, 0.000, 14:38:04.914, 1553971084914
249, -29989.11, 0.00, 0.00, 0.00, 0.00, 0.00, 0.00, -8291.98, 0.000, 0.000, 0.000, 14:38:04.914, 1553971084914
250, -29991.77, 0.00, 0.00, 0.00, 0.00, 0.00, 0.00, -8313.17, 0.000, 0.000, 0.000, 14:38:04.915, 1553971084915
251, -30000.11, 0.00, 0.00, 0.00, 0.00, 0.00, 0.00, -8302.58, 0.000, 0.000, 0.000, 14:38:04.915, 1553971084915
252, -29996.73, 0.00, 0.00, 0.00, 0.00, 0.00, 0.00, -8286.22, 0.000, 0.000, 0.000, 14:38:04.915, 1553971084915
253, -29988.98, 0.00, 0.00, 0.00, 0.00, 0.00, 0.00, -8292.30, 0.000, 0.000, 0.000, 14:38:04.915, 1553971084915
254, -29996.73, 0.00, 0.00, 0.00, 0.00, 0.00, 0.00, -8315.12, 0.000, 0.000, 0.000, 14:38:04.915, 1553971084915
255, -30000.09, 0.00, 0.00, 0.00, 0.00, 0.00, 0.00, -8306.33, 0.000, 0.000, 0.000, 14:38:04.915, 1553971084915
0, -29997.22, 0.00, 0.00, 0.00, 0.00, 0.00, 0.00, -8283.20, 0.000, 0.000, 0.000, 14:38:04.915, 1553971084915
1, -30004.62, 0.00, 0.00, 0.00, 0.00, 0.00, 0.00, -8296.68, 0.072, 0.086, -1.022, 14:38:04.916, 1553971084916
2, -30003.93, 0.00, 0.00, 0.00, 0.00, 0.00, 0.00, -8319.45, 0.000, 0.000, 0.000, 14:38:04.916, 1553971084916
3, -30006.28, 0.00, 0.00, 0.00, 0.00, 0.00, 0.00, -8311.25, 0.000, 0.000, 0.000, 14:38:04.916, 1553971084916
4, -30011.11, 0.00, 0.00, 0.00, 0.00, 0.00, 0.00, -8291.85, 0.000, 0.000, 0.000, 14:38:04.916, 1553971084916
5, -30002.01, 0.00, 0.00, 0.00, 0.00, 0.00, 0.00, -8294.82, 0.000, 0.000, 0.000, 14:38:04.916, 1553971084916
6, -29992.49, 0.00, 0.00, 0.00, 0.00, 0.00, 0.00, -8313.49, 0.000, 0.000, 0.000, 14:38:04.916, 1553971084916
7, -29994.95, 0.00, 0.00, 0.00, 0.00, 0.00, 0.00, -8316.12, 0.000, 0.000, 0.000, 14:38:04.916, 1553971084916
8, -29999.10, 0.00, 0.00, 0.00, 0.00, 0.00, 0.00, -8296.61, 0.000, 0.000, 0.000, 14:38:04.916, 1553971084916
9, -29996.98, 0.00, 0.00, 0.00, 0.00, 0.00, 0.00, -8298.58, 0.000, 0.000, 0.000, 14:38:04.916, 1553971084916
10, -29992.96, 0.00, 0.00, 0.00, 0.00, 0.00, 0.00, -8307.41, 0.000, 0.000, 0.000, 14:38:04.916, 1553971084916
11, -30005.52, 0.00, 0.00, 0.00, 0.00, 0.00, 0.00, -8324.84, 0.070, 0.098, -1.030, 14:38:04.916, 1553971084916
12, -30010.37, 0.00, 0.00, 0.00, 0.00, 0.00, 0.00, -8311.50, 0.000, 0.000, 0.000, 14:38:04.916, 1553971084916
13, -30004.13, 0.00, 0.00, 0.00, 0.00, 0.00, 0.00, -8303.83, 0.000, 0.000, 0.000, 14:38:04.916, 1553971084916
14, -30001.43, 0.00, 0.00, 0.00, 0.00, 0.00, 0.00, -8319.86, 0.000, 0.000, 0.000, 14:38:04.916, 1553971084916
15, -30006.14, 0.00, 0.00, 0.00, 0.00, 0.00, 0.00, -8329.47, 0.000, 0.000, 0.000, 14:38:04.916, 1553971084916
16, -30004.29, 0.00, 0.00, 0.00, 0.00, 0.00, 0.00, -8300.34, 0.000, 0.000, 0.000, 14:38:04.916, 1553971084916
17, -29995.21, 0.00, 0.00, 0.00, 0.00, 0.00, 0.00, -8284.23, 0.000, 0.000, 0.000, 14:38:04.916, 1553971084916
18, -29994.59, 0.00, 0.00, 0.00, 0.00, 0.00, 0.00, -8302.38, 0.000, 0.000, 0.000, 14:38:04.916, 1553971084916
19, -30000.40, 0.00, 0.00, 0.00, 0.00, 0.00, 0.00, -8320.26, 0.000, 0.000, 0.000, 14:38:04.916, 1553971084916
20, -29993.09, 0.00, 0.00, 0.00, 0.00, 0.00, 0.00, -8297.21, 0.000, 0.000, 0.000, 14:38:04.916, 1553971084916
21, -29981.49, 0.00, 0.00, 0.00, 0.00, 0.00, 0.00, -8274.08, 0.068, 0.096, -1.026, 14:38:04.916, 1553971084916
22, -29974.04, 0.00, 0.00, 0.00, 0.00, 0.00, 0.00, -8280.47, 0.000, 0.000, 0.000, 14:38:04.916, 1553971084916
23, -29977.09, 0.00, 0.00, 0.00, 0.00, 0.00, 0.00, -8302.42, 0.000, 0.000, 0.000, 14:38:04.917, 1553971084917
24, -29987.41, 0.00, 0.00, 0.00, 0.00, 0.00, 0.00, -8296.30, 0.000, 0.000, 0.000, 14:38:04.917, 1553971084917
25, -29994.81, 0.00, 0.00, 0.00, 0.00, 0.00, 0.00, -8280.96, 0.000, 0.000, 0.000, 14:38:04.917, 1553971084917
26, -29990.65, 0.00, 0.00, 0.00, 0.00, 0.00, 0.00, -8287.89, 0.000, 0.000, 0.000, 14:38:04.917, 1553971084917
27, -29985.36, 0.00, 0.00, 0.00, 0.00, 0.00, 0.00, -8306.60, 0.000, 0.000, 0.000, 14:38:04.917, 1553971084917
28, -29989.31, 0.00, 0.00, 0.00, 0.00, 0.00, 0.00, -8306.15, 0.000, 0.000, 0.000, 14:38:04.917, 1553971084917
29, -29993.80, 0.00, 0.00, 0.00, 0.00, 0.00, 0.00, -8289.39, 0.000, 0.000, 0.000, 14:38:04.917, 1553971084917
30, -29984.33, 0.00, 0.00, 0.00, 0.00, 0.00, 0.00, -8287.78, 0.000, 0.000, 0.000, 14:38:04.918, 1553971084918
31, -29976.97, 0.00, 0.00, 0.00, 0.00, 0.00, 0.00, -8298.46, 0.064, 0.092, -1.024, 14:38:04.918, 1553971084918
32, -29986.00, 0.00, 0.00, 0.00, 0.00, 0.00, 0.00, -8308.10, 0.000, 0.000, 0.000, 14:38:04.918, 1553971084918
33, -29979.19, 0.00, 0.00, 0.00, 0.00, 0.00, 0.00, -8279.13, 0.000, 0.000, 0.000, 14:38:04.918, 1553971084918
34, -29979.75, 0.00, 0.00, 0.00, 0.00, 0.00, 0.00, -8280.20, 0.000, 0.000, 0.000, 14:38:04.918, 1553971084918
35, -29976.97, 0.00, 0.00, 0.00, 0.00, 0.00, 0.00, -8302.94, 0.000, 0.000, 0.000, 14:38:04.918, 1553971084918
36, -29970.87, 0.00, 0.00, 0.00, 0.00, 0.00, 0.00, -8308.25, 0.000, 0.000, 0.000, 14:38:04.918, 1553971084918
37, -29973.84, 0.00, 0.00, 0.00, 0.00, 0.00, 0.00, -8291.92, 0.000, 0.000, 0.000, 14:38:04.918, 1553971084918
38, -29980.82, 0.00, 0.00, 0.00, 0.00, 0.00, 0.00, -8299.85, 0.000, 0.000, 0.000, 14:38:04.919, 1553971084919
39, -29975.03, 0.00, 0.00, 0.00, 0.00, 0.00, 0.00, -8313.33, 0.000, 0.000, 0.000, 14:38:04.919, 1553971084919
40, -29967.45, 0.00, 0.00, 0.00, 0.00, 0.00, 0.00, -8319.68, 0.068, 0.086, -1.030, 14:38:04.919, 1553971084919
41, -29963.16, 0.00, 0.00, 0.00, 0.00, 0.00, 0.00, -8297.24, 0.000, 0.000, 0.000, 14:38:04.919, 1553971084919
42, -29973.55, 0.00, 0.00, 0.00, 0.00, 0.00, 0.00, -8296.50, 0.000, 0.000, 0.000, 14:38:04.919, 1553971084919
43, -29974.31, 0.00, 0.00, 0.00, 0.00, 0.00, 0.00, -8316.73, 0.000, 0.000, 0.000, 14:38:04.919, 1553971084919
44, -29972.01, 0.00, 0.00, 0.00, 0.00, 0.00, 0.00, -8329.62, 0.000, 0.000, 0.000, 14:38:04.919, 1553971084919
45, -29966.40, 0.00, 0.00, 0.00, 0.00, 0.00, 0.00, -8310.54, 0.000, 0.000, 0.000, 14:38:04.919, 1553971084919
46, -29963.38, 0.00, 0.00, 0.00, 0.00, 0.00, 0.00, -8291.27, 0.000, 0.000, 0.000, 14:38:04.919, 1553971084919
47, -29970.16, 0.00, 0.00, 0.00, 0.00, 0.00, 0.00, -8307.79, 0.000, 0.000, 0.000, 14:38:04.919, 1553971084919
48, -29963.38, 0.00, 0.00, 0.00, 0.00, 0.00, 0.00, -8323.32, 0.000, 0.000, 0.000, 14:38:04.919, 1553971084919
49, -29961.30, 0.00, 0.00, 0.00, 0.00, 0.00, 0.00, -8315.16, 0.000, 0.000, 0.000, 14:38:04.919, 1553971084919
50, -29956.30, 0.00, 0.00, 0.00, 0.00, 0.00, 0.00, -8289.10, 0.072, 0.088, -1.032, 14:38:04.919, 1553971084919
51, -29958.62, 0.00, 0.00, 0.00, 0.00, 0.00, 0.00, -8294.37, 0.000, 0.000, 0.000, 14:38:04.919, 1553971084919
52, -29959.14, 0.00, 0.00, 0.00, 0.00, 0.00, 0.00, -8321.58, 0.000, 0.000, 0.000, 14:38:04.919, 1553971084919
53, -29960.41, 0.00, 0.00, 0.00, 0.00, 0.00, 0.00, -8323.14, 0.000, 0.000, 0.000, 14:38:04.919, 1553971084919
54, -29958.87, 0.00, 0.00, 0.00, 0.00, 0.00, 0.00, -8296.83, 0.000, 0.000, 0.000, 14:38:04.919, 1553971084919
55, -29959.94, 0.00, 0.00, 0.00, 0.00, 0.00, 0.00, -8301.91, 0.000, 0.000, 0.000, 14:38:04.920, 1553971084920
56, -29964.01, 0.00, 0.00, 0.00, 0.00, 0.00, 0.00, -8328.80, 0.000, 0.000, 0.000, 14:38:04.920, 1553971084920
57, -29960.63, 0.00, 0.00, 0.00, 0.00, 0.00, 0.00, -8331.25, 0.000, 0.000, 0.000, 14:38:04.920, 1553971084920
