%OpenBCI Raw EEG Data
%Number of channels = 8
%Sample Rate = 250.0 Hz
%First Column = SampleIndex
%Last Column = Timestamp 
%Other Columns = EEG data in microvolts followed by Accel Data (in G) interleaved with Aux Data
2, -29664.45, 0.00, 0.00, 0.00, 0.00, 0.00, 0.00, -7738.13, 0.000, 0.000, 0.000, 14:35:08.161, 1553970908161
3, -29698.85, 0.00, 0.00, 0.00, 0.00, 0.00, 0.00, -7729.52, 0.000, 0.000, 0.000, 14:35:08.161, 1553970908161
4, -29725.74, 0.00, 0.00, 0.00, 0.00, 0.00, 0.00, -7741.17, 0.000, 0.000, 0.000, 14:35:08.161, 1553970908161
5, -29681.35, 0.00, 0.00, 0.00, 0.00, 0.00, 0.00, -7735.85, 0.000, 0.000, 0.000, 14:35:08.161, 1553970908161
6, -29662.84, 0.00, 0.00, 0.00, 0.00, 0.00, 0.00, -7735.65, 0.000, 0.000, 0.000, 14:35:08.161, 1553970908161
7, -29693.40, 0.00, 0.00, 0.00, 0.00, 0.00, 0.00, -7725.59, 0.000, 0.000, 0.000, 14:35:08.162, 1553970908162
8, -29735.73, 0.00, 0.00, 0.00, 0.00, 0.00, 0.00, -7738.08, 0.000, 0.000, 0.000, 14:35:08.162, 1553970908162
9, -29697.22, 0.00, 0.00, 0.00, 0.00, 0.00, 0.00, -7740.19, 0.000, 0.000, 0.000, 14:35:08.162, 1553970908162
10, -29677.55, 0.00, 0.00, 0.00, 0.00, 0.00, 0.00, -7752.19, 0.000, 0.000, 0.000, 14:35:08.162, 1553970908162
11, -29704.77, 0.00, 0.00, 0.00, 0.00, 0.00, 0.00, -7743.52, 0.080, 0.096, -1.018, 14:35:08.162, 1553970908162
12, -29740.85, 0.00, 0.00, 0.00, 0.00, 0.00, 0.00, -7746.85, 0.000, 0.000, 0.000, 14:35:08.162, 1553970908162
13, -29717.69, 0.00, 0.00, 0.00, 0.00, 0.00, 0.00, -7749.71, 0.000, 0.000, 0.000, 14:35:08.162, 1553970908162
14, -29680.97, 0.00, 0.00, 0.00, 0.00, 0.00, 0.00, -7747.81, 0.000, 0.000, 0.000, 14:35:08.162, 1553970908162
15, -29692.08, 0.00, 0.00, 0.00, 0.00, 0.00, 0.00, -7738.20, 0.000, 0.000, 0.000, 14:35:08.162, 1553970908162
16, -29735.66, 0.00, 0.00, 0.00, 0.00, 0.00, 0.00, -7744.10, 0.000, 0.000, 0.000, 14:35:08.162, 1553970908162
17, -29719.71, 0.00, 0.00, 0.00, 0.00, 0.00, 0.00, -7749.10, 0.000, 0.000, 0.000, 14:35:08.162, 1553970908162
18, -29672.34, 0.00, 0.00, 0.00, 0.00, 0.00, 0.00, -7745.42, 0.000, 0.000, 0.000, 14:35:08.162, 1553970908162
19, -29686.69, 0.00, 0.00, 0.00, 0.00, 0.00, 0.00, -7746.13, 0.000, 0.000, 0.000, 14:35:08.162, 1553970908162
20, -29728.40, 0.00, 0.00, 0.00, 0.00, 0.00, 0.00, -7740.43, 0.000, 0.000, 0.000, 14:35:08.162, 1553970908162
21, -29732.31, 0.00, 0.00, 0.00, 0.00, 0.00, 0.00, -7756.88, 0.076, 0.094, -1.016, 14:35:08.162, 1553970908162
22, -29679.36, 0.00, 0.00, 0.00, 0.00, 0.00, 0.00, -7753.80, 0.000, 0.000, 0.000, 14:35:08.162, 1553970908162
23, -29678.91, 0.00, 0.00, 0.00, 0.00, 0.00, 0.00, -7748.41, 0.000, 0.000, 0.000, 14:35:08.162, 1553970908162
24, -29731.87, 0.00, 0.00, 0.00, 0.00, 0.00, 0.00, -7753.04, 0.000, 0.000, 0.000, 14:35:08.162, 1553970908162
25, -29734.68, 0.00, 0.00, 0.00, 0.00, 0.00, 0.00, -7754.80, 0.000, 0.000, 0.000, 14:35:08.163, 1553970908163
26, -29664.59, 0.00, 0.00, 0.00, 0.00, 0.00, 0.00, -7729.32, 0.000, 0.000, 0.000, 14:35:08.163, 1553970908163
27, -29663.02, 0.00, 0.00, 0.00, 0.00, 0.00, 0.00, -7745.15, 0.000, 0.000, 0.000, 14:35:08.163, 1553970908163
28, -29732.74, 0.00, 0.00, 0.00, 0.00, 0.00, 0.00, -7763.07, 0.000, 0.000, 0.000, 14:35:08.163, 1553970908163
29, -29744.00, 0.00, 0.00, 0.00, 0.00, 0.00, 0.00, -7755.07, 0.000, 0.000, 0.000, 14:35:08.163, 1553970908163
30, -29662.31, 0.00, 0.00, 0.00, 0.00, 0.00, 0.00, -7718.37, 0.000, 0.000, 0.000, 14:35:08.163, 1553970908163
31, -29647.02, 0.00, 0.00, 0.00, 0.00, 0.00, 0.00, -7716.40, 0.078, 0.096, -1.014, 14:35:08.163, 1553970908163
32, -29719.44, 0.00, 0.00, 0.00, 0.00, 0.00, 0.00, -7748.61, 0.000, 0.000, 0.000, 14:35:08.164, 1553970908164
33, -29740.43, 0.00, 0.00, 0.00, 0.00, 0.00, 0.00, -7748.59, 0.000, 0.000, 0.000, 14:35:08.164, 1553970908164
34, -29678.04, 0.00, 0.00, 0.00, 0.00, 0.00, 0.00, -7715.67, 0.000, 0.000, 0.000, 14:35:08.164, 1553970908164
35, -29648.54, 0.00, 0.00, 0.00, 0.00, 0.00, 0.00, -7719.71, 0.000, 0.000, 0.000, 14:35:08.164, 1553970908164
36, -29712.64, 0.00, 0.00, 0.00, 0.00, 0.00, 0.00, -7749.22, 0.000, 0.000, 0.000, 14:35:08.164, 1553970908164
37, -29755.04, 0.00, 0.00, 0.00, 0.00, 0.00, 0.00, -7759.54, 0.000, 0.000, 0.000, 14:35:08.164, 1553970908164
38, -29701.76, 0.00, 0.00, 0.00, 0.00, 0.00, 0.00, -7734.17, 0.000, 0.000, 0.000, 14:35:08.164, 1553970908164
39, -29654.55, 0.00, 0.00, 0.00, 0.00, 0.00, 0.00, -7733.06, 0.000, 0.000, 0.000, 14:35:08.164, 1553970908164
40, -29712.75, 0.00, 0.00, 0.00, 0.00, 0.00, 0.00, -7759.39, 0.000, 0.000, 0.000, 14:35:08.164, 1553970908164
41, -29751.11, 0.00, 0.00, 0.00, 0.00, 0.00, 0.00, -7756.12, 0.074, 0.098, -1.024, 14:35:08.164, 1553970908164
42, -29696.62, 0.00, 0.00, 0.00, 0.00, 0.00, 0.00, -7733.28, 0.000, 0.000, 0.000, 14:35:08.164, 1553970908164
43, -29638.23, 0.00, 0.00, 0.00, 0.00, 0.00, 0.00, -7722.13, 0.000, 0.000, 0.000, 14:35:08.164, 1553970908164
44, -29670.42, 0.00, 0.00, 0.00, 0.00, 0.00, 0.00, -7735.02, 0.000, 0.000, 0.000, 14:35:08.164, 1553970908164
45, -29737.81, 0.00, 0.00, 0.00, 0.00, 0.00, 0.00, -7756.52, 0.000, 0.000, 0.000, 14:35:08.164, 1553970908164
46, -29718.12, 0.00, 0.00, 0.00, 0.00, 0.00, 0.00, -7739.27, 0.000, 0.000, 0.000, 14:35:08.164, 1553970908164
47, -29655.27, 0.00, 0.00, 0.00, 0.00, 0.00, 0.00, -7723.67, 0.000, 0.000, 0.000, 14:35:08.164, 1553970908164
48, -29672.25, 0.00, 0.00, 0.00, 0.00, 0.00, 0.00, -7738.11, 0.000, 0.000, 0.000, 14:35:08.164, 1553970908164
49, -29736.22, 0.00, 0.00, 0.00, 0.00, 0.00, 0.00, -7756.21, 0.000, 0.000, 0.000, 14:35:08.164, 1553970908164
50, -29739.44, 0.00, 0.00, 0.00, 0.00, 0.00, 0.00, -7755.92, 0.082, 0.098, -1.024, 14:35:08.164, 1553970908164
51, -29664.27, 0.00, 0.00, 0.00, 0.00, 0.00, 0.00, -7719.76, 0.000, 0.000, 0.000, 14:35:08.164, 1553970908164
52, -29652.20, 0.00, 0.00, 0.00, 0.00, 0.00, 0.00, -7714.57, 0.000, 0.000, 0.000, 14:35:08.165, 1553970908165
53, -29738.26, 0.00, 0.00, 0.00, 0.00, 0.00, 0.00, -7751.63, 0.000, 0.000, 0.000, 14:35:08.165, 1553970908165
54, -29764.39, 0.00, 0.00, 0.00, 0.00, 0.00, 0.00, -7756.23, 0.000, 0.000, 0.000, 14:35:08.165, 1553970908165
55, -29692.41, 0.00, 0.00, 0.00, 0.00, 0.00, 0.00, -7726.15, 0.000, 0.000, 0.000, 14:35:08.165, 1553970908165
56, -29669.23, 0.00, 0.00, 0.00, 0.00, 0.00, 0.00, -7729.95, 0.000, 0.000, 0.000, 14:35:08.165, 1553970908165
57, -29730.75, 0.00, 0.00, 0.00, 0.00, 0.00, 0.00, -7754.87, 0.000, 0.000, 0.000, 14:35:08.165, 1553970908165
58, -29766.24, 0.00, 0.00, 0.00, 0.00, 0.00, 0.00, -7768.10, 0.000, 0.000, 0.000, 14:35:08.165, 1553970908165
59, -29691.18, 0.00, 0.00, 0.00, 0.00, 0.00, 0.00, -7735.92, 0.000, 0.000, 0.000, 14:35:08.165, 1553970908165
60, -29644.87, 0.00, 0.00, 0.00, 0.00, 0.00, 0.00, -7722.82, 0.084, 0.104, -1.030, 14:35:08.165, 1553970908165
61, -29713.65, 0.00, 0.00, 0.00, 0.00, 0.00, 0.00, -7753.51, 0.000, 0.000, 0.000, 14:35:08.165, 1553970908165
62, -29764.74, 0.00, 0.00, 0.00, 0.00, 0.00, 0.00, -7763.14, 0.000, 0.000, 0.000, 14:35:08.165, 1553970908165
63, -29706.61, 0.00, 0.00, 0.00, 0.00, 0.00, 0.00, -7736.48, 0.000, 0.000, 0.000, 14:35:08.167, 1553970908167
64, -29646.97, 0.00, 0.00, 0.00, 0.00, 0.00, 0.00, -7722.93, 0.000, 0.000, 0.000, 14:35:08.167, 1553970908167
65, -29687.85, 0.00, 0.00, 0.00, 0.00, 0.00, 0.00, -7736.90, 0.000, 0.000, 0.000, 14:35:08.167, 1553970908167
66, -29744.20, 0.00, 0.00, 0.00, 0.00, 0.00, 0.00, -7750.47, 0.000, 0.000, 0.000, 14:35:08.167, 1553970908167
67, -29718.79, 0.00, 0.00, 0.00, 0.00, 0.00, 0.00, -7738.91, 0.000, 0.000, 0.000, 14:35:08.167, 1553970908167
68, -29662.08, 0.00, 0.00, 0.00, 0.00, 0.00, 0.00, -7727.38, 0.000, 0.000, 0.000, 14:35:08.167, 1553970908167
69, -29690.42, 0.00, 0.00, 0.00, 0.00, 0.00, 0.00, -7742.42, 0.000, 0.000, 0.000, 14:35:08.167, 1553970908167
70, -29754.31, 0.00, 0.00, 0.00, 0.00, 0.00, 0.00, -7755.88, 0.082, 0.104, -1.024, 14:35:08.167, 1553970908167
71, -29744.14, 0.00, 0.00, 0.00, 0.00, 0.00, 0.00, -7747.94, 0.000, 0.000, 0.000, 14:35:08.167, 1553970908167
72, -29660.00, 0.00, 0.00, 0.00, 0.00, 0.00, 0.00, -7712.76, 0.000, 0.000, 0.000, 14:35:08.167, 1553970908167
73, -29658.35, 0.00, 0.00, 0.00, 0.00, 0.00, 0.00, -7716.60, 0.000, 0.000, 0.000, 14:35:08.167, 1553970908167
74, -29738.08, 0.00, 0.00, 0.00, 0.00, 0.00, 0.00, -7750.27, 0.000, 0.000, 0.000, 14:35:08.167, 1553970908167
75, -29747.09, 0.00, 0.00, 0.00, 0.00, 0.00, 0.00, -7758.38, 0.000, 0.000, 0.000, 14:35:08.167, 1553970908167
76, -29675.52, 0.00, 0.00, 0.00, 0.00, 0.00, 0.00, -7736.30, 0.000, 0.000, 0.000, 14:35:08.167, 1553970908167
77, -29662.71, 0.00, 0.00, 0.00, 0.00, 0.00, 0.00, -7734.06, 0.000, 0.000, 0.000, 14:35:08.168, 1553970908168
78, -29734.30, 0.00, 0.00, 0.00, 0.00, 0.00, 0.00, -7758.07, 0.000, 0.000, 0.000, 14:35:08.168, 1553970908168
79, -29755.51, 0.00, 0.00, 0.00, 0.00, 0.00, 0.00, -7759.79, 0.000, 0.000, 0.000, 14:35:08.168, 1553970908168
80, -29687.56, 0.00, 0.00, 0.00, 0.00, 0.00, 0.00, -7733.97, 0.080, 0.102, -1.020, 14:35:08.168, 1553970908168
81, -29656.83, 0.00, 0.00, 0.00, 0.00, 0.00, 0.00, -7724.07, 0.000, 0.000, 0.000, 14:35:08.168, 1553970908168
82, -29721.78, 0.00, 0.00, 0.00, 0.00, 0.00, 0.00, -7751.61, 0.000, 0.000, 0.000, 14:35:08.168, 1553970908168
83, -29755.60, 0.00, 0.00, 0.00, 0.00, 0.00, 0.00, -7757.17, 0.000, 0.000, 0.000, 14:35:08.168, 1553970908168
84, -29697.91, 0.00, 0.00, 0.00, 0.00, 0.00, 0.00, -7741.24, 0.000, 0.000, 0.000, 14:35:08.168, 1553970908168
85, -29651.13, 0.00, 0.00, 0.00, 0.00, 0.00, 0.00, -7739.83, 0.000, 0.000, 0.000, 14:35:08.168, 1553970908168
86, -29701.87, 0.00, 0.00, 0.00, 0.00, 0.00, 0.00, -7747.87, 0.000, 0.000, 0.000, 14:35:08.168, 1553970908168
87, -29772.48, 0.00, 0.00, 0.00, 0.00, 0.00, 0.00, -7767.50, 0.000, 0.000, 0.000, 14:35:08.168, 1553970908168
88, -29717.80, 0.00, 0.00, 0.00, 0.00, 0.00, 0.00, -7744.59, 0.000, 0.000, 0.000, 14:35:08.168, 1553970908168
89, -29657.34, 0.00, 0.00, 0.00, 0.00, 0.00, 0.00, -7730.86, 0.000, 0.000, 0.000, 14:35:08.168, 1553970908168
90, -29687.41, 0.00, 0.00, 0.00, 0.00, 0.00, 0.00, -7734.98, 0.076, 0.100, -1.024, 14:35:08.168, 1553970908168
91, -29763.94, 0.00, 0.00, 0.00, 0.00, 0.00, 0.00, -7761.17, 0.000, 0.000, 0.000, 14:35:08.168, 1553970908168
92, -29731.35, 0.00, 0.00, 0.00, 0.00, 0.00, 0.00, -7749.33, 0.000, 0.000, 0.000, 14:35:08.168, 1553970908168
93, -29658.62, 0.00, 0.00, 0.00, 0.00, 0.00, 0.00, -7721.45, 0.000, 0.000, 0.000, 14:35:08.168, 1553970908168
94, -29668.41, 0.00, 0.00, 0.00, 0.00, 0.00, 0.00, -7727.69, 0.000, 0.000, 0.000, 14:35:08.170, 1553970908170
95, -29744.38, 0.00, 0.00, 0.00, 0.00, 0.00, 0.00, -7756.19, 0.000, 0.000, 0.000, 14:35:08.170, 1553970908170
96, -29739.02, 0.00, 0.00, 0.00, 0.00, 0.00, 0.00, -7742.17, 0.000, 0.000, 0.000, 14:35:08.170, 1553970908170
97, -29670.71, 0.00, 0.00, 0.00, 0.00, 0.00, 0.00, -7718.48, 0.000, 0.000, 0.000, 14:35:08.170, 1553970908170
98, -29669.84, 0.00, 0.00, 0.00, 0.00, 0.00, 0.00, -7733.01, 0.000, 0.000, 0.000, 14:35:08.171, 1553970908171
99, -29751.67, 0.00, 0.00, 0.00, 0.00, 0.00, 0.00, -7764.06, 0.000, 0.000, 0.000, 14:35:08.171, 1553970908171
100, -29759.00, 0.00, 0.00, 0.00, 0.00, 0.00, 0.00, -7746.42, 0.078, 0.094, -1.024, 14:35:08.171, 1553970908171
101, -29666.96, 0.00, 0.00, 0.00, 0.00, 0.00, 0.00, -7715.58, 0.000, 0.000, 0.000, 14:35:08.171, 1553970908171
102, -29656.54, 0.00, 0.00, 0.00, 0.00, 0.00, 0.00, -7727.76, 0.000, 0.000, 0.000, 14:35:08.171, 1553970908171
103, -29734.77, 0.00, 0.00, 0.00, 0.00, 0.00, 0.00, -7754.42, 0.000, 0.000, 0.000, 14:35:08.171, 1553970908171
104, -29759.09, 0.00, 0.00, 0.00, 0.00, 0.00, 0.00, -7749.42, 0.000, 0.000, 0.000, 14:35:08.171, 1553970908171
105, -29691.41, 0.00, 0.00, 0.00, 0.00, 0.00, 0.00, -7722.93, 0.000, 0.000, 0.000, 14:35:08.171, 1553970908171
106, -29651.20, 0.00, 0.00, 0.00, 0.00, 0.00, 0.00, -7718.46, 0.000, 0.000, 0.000, 14:35:08.171, 1553970908171
107, -29725.76, 0.00, 0.00, 0.00, 0.00, 0.00, 0.00, -7748.25, 0.000, 0.000, 0.000, 14:35:08.171, 1553970908171
108, -29779.36, 0.00, 0.00, 0.00, 0.00, 0.00, 0.00, -7768.66, 0.000, 0.000, 0.000, 14:35:08.171, 1553970908171
109, -29700.64, 0.00, 0.00, 0.00, 0.00, 0.00, 0.00, -7734.69, 0.076, 0.098, -1.020, 14:35:08.171, 1553970908171
110, -29657.25, 0.00, 0.00, 0.00, 0.00, 0.00, 0.00, -7723.73, 0.000, 0.000, 0.000, 14:35:08.171, 1553970908171
111, -29715.12, 0.00, 0.00, 0.00, 0.00, 0.00, 0.00, -7742.22, 0.000, 0.000, 0.000, 14:35:08.171, 1553970908171
112, -29776.75, 0.00, 0.00, 0.00, 0.00, 0.00, 0.00, -7758.83, 0.000, 0.000, 0.000, 14:35:08.171, 1553970908171
113, -29722.39, 0.00, 0.00, 0.00, 0.00, 0.00, 0.00, -7739.05, 0.000, 0.000, 0.000, 14:35:08.171, 1553970908171
114, -29662.26, 0.00, 0.00, 0.00, 0.00, 0.00, 0.00, -7722.24, 0.000, 0.000, 0.000, 14:35:08.171, 1553970908171
115, -29697.73, 0.00, 0.00, 0.00, 0.00, 0.00, 0.00, -7739.49, 0.000, 0.000, 0.000, 14:35:08.171, 1553970908171
116, -29760.74, 0.00, 0.00, 0.00, 0.00, 0.00, 0.00, -7747.09, 0.000, 0.000, 0.000, 14:35:08.171, 1553970908171
117, -29744.45, 0.00, 0.00, 0.00, 0.00, 0.00, 0.00, -7746.20, 0.000, 0.000, 0.000, 14:35:08.172, 1553970908172
118, -29668.05, 0.00, 0.00, 0.00, 0.00, 0.00, 0.00, -7720.56, 0.000, 0.000, 0.000, 14:35:08.172, 1553970908172
119, -29698.02, 0.00, 0.00, 0.00, 0.00, 0.00, 0.00, -7739.16, 0.078, 0.096, -1.020, 14:35:08.172, 1553970908172
120, -29770.42, 0.00, 0.00, 0.00, 0.00, 0.00, 0.00, -7767.23, 0.000, 0.000, 0.000, 14:35:08.172, 1553970908172
121, -29746.06, 0.00, 0.00, 0.00, 0.00, 0.00, 0.00, -7746.35, 0.000, 0.000, 0.000, 14:35:08.172, 1553970908172
122, -29668.41, 0.00, 0.00, 0.00, 0.00, 0.00, 0.00, -7710.17, 0.000, 0.000, 0.000, 14:35:08.640, 1553970908640
123, -29678.91, 0.00, 0.00, 0.00, 0.00, 0.00, 0.00, -7724.49, 0.000, 0.000, 0.000, 14:35:08.640, 1553970908640
124, -29759.31, 0.00, 0.00, 0.00, 0.00, 0.00, 0.00, -7757.87, 0.000, 0.000, 0.000, 14:35:08.640, 1553970908640
125, -29764.74, 0.00, 0.00, 0.00, 0.00, 0.00, 0.00, -7755.47, 0.000, 0.000, 0.000, 14:35:08.640, 1553970908640
126, -29697.98, 0.00, 0.00, 0.00, 0.00, 0.00, 0.00, -7734.96, 0.000, 0.000, 0.000, 14:35:08.640, 1553970908640
127, -29677.95, 0.00, 0.00, 0.00, 0.00, 0.00, 0.00, -7737.44, 0.000, 0.000, 0.000, 14:35:08.640, 1553970908640
128, -29745.95, 0.00, 0.00, 0.00, 0.00, 0.00, 0.00, -7769.62, 0.000, 0.000, 0.000, 14:35:08.641, 1553970908641
129, -29779.79, 0.00, 0.00, 0.00, 0.00, 0.00, 0.00, -7763.90, 0.082, 0.096, -1.020, 14:35:08.641, 1553970908641
130, -29708.44, 0.00, 0.00, 0.00, 0.00, 0.00, 0.00, -7726.19, 0.000, 0.000, 0.000, 14:35:08.641, 1553970908641
131, -29677.51, 0.00, 0.00, 0.00, 0.00, 0.00, 0.00, -7734.35, 0.000, 0.000, 0.000, 14:35:08.641, 1553970908641
132, -29735.93, 0.00, 0.00, 0.00, 0.00, 0.00, 0.00, -7765.33, 0.000, 0.000, 0.000, 14:35:08.641, 1553970908641
133, -29783.90, 0.00, 0.00, 0.00, 0.00, 0.00, 0.00, -7780.46, 0.000, 0.000, 0.000, 14:35:08.641, 1553970908641
134, -29726.01, 0.00, 0.00, 0.00, 0.00, 0.00, 0.00, -7736.21, 0.000, 0.000, 0.000, 14:35:08.641, 1553970908641
135, -29667.22, 0.00, 0.00, 0.00, 0.00, 0.00, 0.00, -7722.97, 0.000, 0.000, 0.000, 14:35:08.641, 1553970908641
136, -29714.86, 0.00, 0.00, 0.00, 0.00, 0.00, 0.00, -7752.75, 0.000, 0.000, 0.000, 14:35:08.641, 1553970908641
137, -29766.20, 0.00, 0.00, 0.00, 0.00, 0.00, 0.00, -7760.12, 0.000, 0.000, 0.000, 14:35:08.641, 1553970908641
138, -29726.95, 0.00, 0.00, 0.00, 0.00, 0.00, 0.00, -7736.77, 0.000, 0.000, 0.000, 14:35:08.641, 1553970908641
139, -29665.35, 0.00, 0.00, 0.00, 0.00, 0.00, 0.00, -7729.14, 0.080, 0.094, -1.030, 14:35:08.641, 1553970908641
140, -29703.39, 0.00, 0.00, 0.00, 0.00, 0.00, 0.00, -7746.69, 0.000, 0.000, 0.000, 14:35:08.641, 1553970908641
141, -29770.71, 0.00, 0.00, 0.00, 0.00, 0.00, 0.00, -7755.83, 0.000, 0.000, 0.000, 14:35:08.641, 1553970908641
142, -29741.16, 0.00, 0.00, 0.00, 0.00, 0.00, 0.00, -7737.08, 0.000, 0.000, 0.000, 14:35:08.641, 1553970908641
143, -29676.68, 0.00, 0.00, 0.00, 0.00, 0.00, 0.00, -7715.71, 0.000, 0.000, 0.000, 14:35:08.641, 1553970908641
144, -29699.54, 0.00, 0.00, 0.00, 0.00, 0.00, 0.00, -7730.02, 0.000, 0.000, 0.000, 14:35:08.641, 1553970908641
145, -29767.02, 0.00, 0.00, 0.00, 0.00, 0.00, 0.00, -7756.08, 0.000, 0.000, 0.000, 14:35:08.641, 1553970908641
146, -29760.47, 0.00, 0.00, 0.00, 0.00, 0.00, 0.00, -7756.12, 0.000, 0.000, 0.000, 14:35:08.641, 1553970908641
147, -29683.74, 0.00, 0.00, 0.00, 0.00, 0.00, 0.00, -7726.86, 0.000, 0.000, 0.000, 14:35:08.641, 1553970908641
148, -29675.45, 0.00, 0.00, 0.00, 0.00, 0.00, 0.00, -7734.60, 0.000, 0.000, 0.000, 14:35:08.641, 1553970908641
149, -29751.85, 0.00, 0.00, 0.00, 0.00, 0.00, 0.00, -7761.62, 0.080, 0.100, -1.022, 14:35:08.641, 1553970908641
150, -29769.37, 0.00, 0.00, 0.00, 0.00, 0.00, 0.00, -7762.07, 0.000, 0.000, 0.000, 14:35:08.642, 1553970908642
151, -29690.94, 0.00, 0.00, 0.00, 0.00, 0.00, 0.00, -7726.66, 0.000, 0.000, 0.000, 14:35:08.642, 1553970908642
152, -29673.95, 0.00, 0.00, 0.00, 0.00, 0.00, 0.00, -7731.78, 0.000, 0.000, 0.000, 14:35:08.642, 1553970908642
153, -29749.32, 0.00, 0.00, 0.00, 0.00, 0.00, 0.00, -7756.37, 0.000, 0.000, 0.000, 14:35:08.645, 1553970908645
154, -29794.05, 0.00, 0.00, 0.00, 0.00, 0.00, 0.00, -7775.12, 0.000, 0.000, 0.000, 14:35:08.645, 1553970908645
155, -29721.58, 0.00, 0.00, 0.00, 0.00, 0.00, 0.00, -7742.47, 0.000, 0.000, 0.000, 14:35:08.645, 1553970908645
156, -29669.44, 0.00, 0.00, 0.00, 0.00, 0.00, 0.00, -7720.02, 0.000, 0.000, 0.000, 14:35:08.645, 1553970908645
157, -29731.84, 0.00, 0.00, 0.00, 0.00, 0.00, 0.00, -7746.76, 0.000, 0.000, 0.000, 14:35:08.645, 1553970908645
158, -29782.42, 0.00, 0.00, 0.00, 0.00, 0.00, 0.00, -7758.49, 0.000, 0.000, 0.000, 14:35:08.645, 1553970908645
159, -29719.64, 0.00, 0.00, 0.00, 0.00, 0.00, 0.00, -7738.71, 0.078, 0.100, -1.022, 14:35:08.645, 1553970908645
160, -29668.43, 0.00, 0.00, 0.00, 0.00, 0.00, 0.00, -7719.76, 0.000, 0.000, 0.000, 14:35:08.645, 1553970908645
161, -29717.02, 0.00, 0.00, 0.00, 0.00, 0.00, 0.00, -7745.15, 0.000, 0.000, 0.000, 14:35:08.645, 1553970908645
162, -29784.62, 0.00, 0.00, 0.00, 0.00, 0.00, 0.00, -7759.41, 0.000, 0.000, 0.000, 14:35:08.645, 1553970908645
163, -29741.39, 0.00, 0.00, 0.00, 0.00, 0.00, 0.00, -7732.43, 0.000, 0.000, 0.000, 14:35:08.645, 1553970908645
164, -29661.35, 0.00, 0.00, 0.00, 0.00, 0.00, 0.00, -7706.86, 0.000, 0.000, 0.000, 14:35:08.645, 1553970908645
165, -29692.71, 0.00, 0.00, 0.00, 0.00, 0.00, 0.00, -7729.37, 0.000, 0.000, 0.000, 14:35:08.645, 1553970908645
166, -29775.94, 0.00, 0.00, 0.00, 0.00, 0.00, 0.00, -7755.21, 0.000, 0.000, 0.000, 14:35:08.645, 1553970908645
167, -29747.13, 0.00, 0.00, 0.00, 0.00, 0.00, 0.00, -7732.12, 0.000, 0.000, 0.000, 14:35:08.645, 1553970908645
168, -29673.66, 0.00, 0.00, 0.00, 0.00, 0.00, 0.00, -7711.96, 0.000, 0.000, 0.000, 14:35:08.645, 1553970908645
169, -29691.86, 0.00, 0.00, 0.00, 0.00, 0.00, 0.00, -7726.57, 0.080, 0.100, -1.026, 14:35:08.645, 1553970908645
170, -29767.40, 0.00, 0.00, 0.00, 0.00, 0.00, 0.00, -7755.83, 0.000, 0.000, 0.000, 14:35:08.645, 1553970908645
171, -29764.23, 0.00, 0.00, 0.00, 0.00, 0.00, 0.00, -7747.87, 0.000, 0.000, 0.000, 14:35:08.645, 1553970908645
172, -29691.92, 0.00, 0.00, 0.00, 0.00, 0.00, 0.00, -7720.09, 0.000, 0.000, 0.000, 14:35:08.646, 1553970908646
173, -29673.59, 0.00, 0.00, 0.00, 0.00, 0.00, 0.00, -7722.33, 0.000, 0.000, 0.000, 14:35:08.646, 1553970908646
174, -29747.13, 0.00, 0.00, 0.00, 0.00, 0.00, 0.00, -7746.71, 0.000, 0.000, 0.000, 14:35:08.646, 1553970908646
175, -29761.23, 0.00, 0.00, 0.00, 0.00, 0.00, 0.00, -7740.61, 0.000, 0.000, 0.000, 14:35:08.646, 1553970908646
176, -29697.06, 0.00, 0.00, 0.00, 0.00, 0.00, 0.00, -7724.54, 0.000, 0.000, 0.000, 14:35:08.646, 1553970908646
177, -29670.93, 0.00, 0.00, 0.00, 0.00, 0.00, 0.00, -7711.33, 0.000, 0.000, 0.000, 14:35:08.646, 1553970908646
178, -29737.79, 0.00, 0.00, 0.00, 0.00, 0.00, 0.00, -7737.28, 0.076, 0.102, -1.022, 14:35:08.646, 1553970908646
179, -29770.15, 0.00, 0.00, 0.00, 0.00, 0.00, 0.00, -7749.35, 0.000, 0.000, 0.000, 14:35:08.646, 1553970908646
180, -29705.74, 0.00, 0.00, 0.00, 0.00, 0.00, 0.00, -7721.12, 0.000, 0.000, 0.000, 14:35:08.646, 1553970908646
181, -29664.54, 0.00, 0.00, 0.00, 0.00, 0.00, 0.00, -7715.96, 0.000, 0.000, 0.000, 14:35:08.646, 1553970908646
182, -29723.44, 0.00, 0.00, 0.00, 0.00, 0.00, 0.00, -7733.95, 0.000, 0.000, 0.000, 14:35:08.646, 1553970908646
183, -29769.79, 0.00, 0.00, 0.00, 0.00, 0.00, 0.00, -7742.51, 0.000, 0.000, 0.000, 14:35:08.646, 1553970908646
184, -29706.54, 0.00, 0.00, 0.00, 0.00, 0.00, 0.00, -7706.61, 0.000, 0.000, 0.000, 14:35:08.646, 1553970908646
185, -29651.73, 0.00, 0.00, 0.00, 0.00, 0.00, 0.00, -7690.54, 0.000, 0.000, 0.000, 14:35:08.647, 1553970908647
186, -29693.82, 0.00, 0.00, 0.00, 0.00, 0.00, 0.00, -7712.22, 0.000, 0.000, 0.000, 14:35:08.647, 1553970908647
187, -29767.29, 0.00, 0.00, 0.00, 0.00, 0.00, 0.00, -7747.27, 0.000, 0.000, 0.000, 14:35:08.647, 1553970908647
188, -29734.70, 0.00, 0.00, 0.00, 0.00, 0.00, 0.00, -7726.60, 0.078, 0.096, -1.026, 14:35:08.647, 1553970908647
189, -29670.33, 0.00, 0.00, 0.00, 0.00, 0.00, 0.00, -7706.34, 0.000, 0.000, 0.000, 14:35:08.647, 1553970908647
190, -29692.59, 0.00, 0.00, 0.00, 0.00, 0.00, 0.00, -7727.53, 0.000, 0.000, 0.000, 14:35:08.647, 1553970908647
191, -29764.07, 0.00, 0.00, 0.00, 0.00, 0.00, 0.00, -7747.99, 0.000, 0.000, 0.000, 14:35:08.647, 1553970908647
192, -29742.66, 0.00, 0.00, 0.00, 0.00, 0.00, 0.00, -7725.92, 0.000, 0.000, 0.000, 14:35:08.647, 1553970908647
193, -29677.68, 0.00, 0.00, 0.00, 0.00, 0.00, 0.00, -7704.62, 0.000, 0.000, 0.000, 14:35:08.647, 1553970908647
194, -29691.88, 0.00, 0.00, 0.00, 0.00, 0.00, 0.00, -7720.16, 0.000, 0.000, 0.000, 14:35:08.647, 1553970908647
195, -29750.55, 0.00, 0.00, 0.00, 0.00, 0.00, 0.00, -7742.40, 0.000, 0.000, 0.000, 14:35:08.647, 1553970908647
196, -29752.21, 0.00, 0.00, 0.00, 0.00, 0.00, 0.00, -7733.64, 0.000, 0.000, 0.000, 14:35:08.647, 1553970908647
197, -29671.04, 0.00, 0.00, 0.00, 0.00, 0.00, 0.00, -7699.82, 0.000, 0.000, 0.000, 14:35:08.647, 1553970908647
198, -29660.34, 0.00, 0.00, 0.00, 0.00, 0.00, 0.00, -7702.01, 0.076, 0.096, -1.028, 14:35:08.647, 1553970908647
199, -29740.04, 0.00, 0.00, 0.00, 0.00, 0.00, 0.00, -7733.41, 0.000, 0.000, 0.000, 14:35:08.647, 1553970908647
200, -29755.13, 0.00, 0.00, 0.00, 0.00, 0.00, 0.00, -7729.59, 0.000, 0.000, 0.000, 14:35:08.647, 1553970908647
201, -29680.50, 0.00, 0.00, 0.00, 0.00, 0.00, 0.00, -7697.54, 0.000, 0.000, 0.000, 14:35:08.647, 1553970908647
202, -29662.82, 0.00, 0.00, 0.00, 0.00, 0.00, 0.00, -7707.19, 0.000, 0.000, 0.000, 14:35:08.647, 1553970908647
203, -29728.98, 0.00, 0.00, 0.00, 0.00, 0.00, 0.00, -7732.83, 0.000, 0.000, 0.000, 14:35:08.647, 1553970908647
204, -29771.70, 0.00, 0.00, 0.00, 0.00, 0.00, 0.00, -7744.70, 0.000, 0.000, 0.000, 14:35:08.647, 1553970908647
205, -29711.46, 0.00, 0.00, 0.00, 0.00, 0.00, 0.00, -7721.12, 0.000, 0.000, 0.000, 14:35:08.647, 1553970908647
206, -29664.32, 0.00, 0.00, 0.00, 0.00, 0.00, 0.00, -7705.56, 0.000, 0.000, 0.000, 14:35:08.647, 1553970908647
207, -29709.87, 0.00, 0.00, 0.00, 0.00, 0.00, 0.00, -7723.22, 0.000, 0.000, 0.000, 14:35:08.647, 1553970908647
208, -29769.64, 0.00, 0.00, 0.00, 0.00, 0.00, 0.00, -7737.93, 0.076, 0.100, -1.026, 14:35:08.647, 1553970908647
209, -29709.67, 0.00, 0.00, 0.00, 0.00, 0.00, 0.00, -7707.75, 0.000, 0.000, 0.000, 14:35:08.648, 1553970908648
210, -29646.39, 0.00, 0.00, 0.00, 0.00, 0.00, 0.00, -7681.76, 0.000, 0.000, 0.000, 14:35:08.648, 1553970908648
211, -29699.57, 0.00, 0.00, 0.00, 0.00, 0.00, 0.00, -7711.60, 0.000, 0.000, 0.000, 14:35:08.648, 1553970908648
212, -29759.20, 0.00, 0.00, 0.00, 0.00, 0.00, 0.00, -7729.59, 0.000, 0.000, 0.000, 14:35:08.648, 1553970908648
213, -29725.72, 0.00, 0.00, 0.00, 0.00, 0.00, 0.00, -7711.33, 0.000, 0.000, 0.000, 14:35:08.648, 1553970908648
214, -29663.71, 0.00, 0.00, 0.00, 0.00, 0.00, 0.00, -7696.17, 0.000, 0.000, 0.000, 14:35:08.648, 1553970908648
215, -29691.34, 0.00, 0.00, 0.00, 0.00, 0.00, 0.00, -7719.00, 0.000, 0.000, 0.000, 14:35:08.648, 1553970908648
216, -29757.77, 0.00, 0.00, 0.00, 0.00, 0.00, 0.00, -7737.35, 0.000, 0.000, 0.000, 14:35:08.648, 1553970908648
217, -29741.74, 0.00, 0.00, 0.00, 0.00, 0.00, 0.00, -7721.34, 0.000, 0.000, 0.000, 14:35:08.648, 1553970908648
218, -29673.91, 0.00, 0.00, 0.00, 0.00, 0.00, 0.00, -7702.75, 0.080, 0.096, -1.026, 14:35:08.648, 1553970908648
219, -29682.54, 0.00, 0.00, 0.00, 0.00, 0.00, 0.00, -7715.51, 0.000, 0.000, 0.000, 14:35:08.648, 1553970908648
220, -29748.34, 0.00, 0.00, 0.00, 0.00, 0.00, 0.00, -7734.44, 0.000, 0.000, 0.000, 14:35:08.648, 1553970908648
221, -29755.58, 0.00, 0.00, 0.00, 0.00, 0.00, 0.00, -7725.88, 0.000, 0.000, 0.000, 14:35:08.648, 1553970908648
222, -29682.76, 0.00, 0.00, 0.00, 0.00, 0.00, 0.00, -7707.80, 0.000, 0.000, 0.000, 14:35:08.648, 1553970908648
223, -29678.11, 0.00, 0.00, 0.00, 0.00, 0.00, 0.00, -7723.62, 0.000, 0.000, 0.000, 14:35:08.648, 1553970908648
224, -29748.16, 0.00, 0.00, 0.00, 0.00, 0.00, 0.00, -7743.67, 0.000, 0.000, 0.000, 14:35:08.648, 1553970908648
225, -29765.35, 0.00, 0.00, 0.00, 0.00, 0.00, 0.00, -7744.01, 0.000, 0.000, 0.000, 14:35:08.649, 1553970908649
226, -29691.70, 0.00, 0.00, 0.00, 0.00, 0.00, 0.00, -7712.09, 0.000, 0.000, 0.000, 14:35:08.649, 1553970908649
227, -29655.11, 0.00, 0.00, 0.00, 0.00, 0.00, 0.00, -7706.59, 0.000, 0.000, 0.000, 14:35:08.649, 1553970908649
228, -29726.37, 0.00, 0.00, 0.00, 0.00, 0.00, 0.00, -7737.64, 0.082, 0.094, -1.024, 14:35:08.649, 1553970908649
229, -29767.18, 0.00, 0.00, 0.00, 0.00, 0.00, 0.00, -7743.76, 0.000, 0.000, 0.000, 14:35:08.649, 1553970908649
230, -29700.28, 0.00, 0.00, 0.00, 0.00, 0.00, 0.00, -7702.92, 0.000, 0.000, 0.000, 14:35:08.649, 1553970908649
231, -29652.14, 0.00, 0.00, 0.00, 0.00, 0.00, 0.00, -7687.75, 0.000, 0.000, 0.000, 14:35:08.649, 1553970908649
232, -29709.00, 0.00, 0.00, 0.00, 0.00, 0.00, 0.00, -7725.63, 0.000, 0.000, 0.000, 14:35:08.649, 1553970908649
233, -29765.46, 0.00, 0.00, 0.00, 0.00, 0.00, 0.00, -7744.63, 0.000, 0.000, 0.000, 14:35:08.649, 1553970908649
234, -29725.36, 0.00, 0.00, 0.00, 0.00, 0.00, 0.00, -7720.76, 0.000, 0.000, 0.000, 14:35:08.649, 1553970908649
235, -29661.66, 0.00, 0.00, 0.00, 0.00, 0.00, 0.00, -7705.54, 0.000, 0.000, 0.000, 14:35:08.649, 1553970908649
236, -29694.69, 0.00, 0.00, 0.00, 0.00, 0.00, 0.00, -7714.01, 0.000, 0.000, 0.000, 14:35:08.649, 1553970908649
237, -29762.44, 0.00, 0.00, 0.00, 0.00, 0.00, 0.00, -7733.03, 0.000, 0.000, 0.000, 14:35:08.649, 1553970908649
238, -29732.80, 0.00, 0.00, 0.00, 0.00, 0.00, 0.00, -7716.78, 0.076, 0.094, -1.020, 14:35:08.649, 1553970908649
239, -29660.47, 0.00, 0.00, 0.00, 0.00, 0.00, 0.00, -7701.85, 0.000, 0.000, 0.000, 14:35:08.649, 1553970908649
240, -29678.69, 0.00, 0.00, 0.00, 0.00, 0.00, 0.00, -7721.54, 0.000, 0.000, 0.000, 14:35:08.649, 1553970908649
241, -29753.12, 0.00, 0.00, 0.00, 0.00, 0.00, 0.00, -7745.44, 0.000, 0.000, 0.000, 14:35:08.649, 1553970908649
242, -29739.29, 0.00, 0.00, 0.00, 0.00, 0.00, 0.00, -7725.63, 0.000, 0.000, 0.000, 14:35:09.121, 1553970909121
243, -29668.41, 0.00, 0.00, 0.00, 0.00, 0.00, 0.00, -7701.72, 0.000, 0.000, 0.000, 14:35:09.122, 1553970909122
244, -29671.98, 0.00, 0.00, 0.00, 0.00, 0.00, 0.00, -7717.39, 0.000, 0.000, 0.000, 14:35:09.122, 1553970909122
245, -29744.09, 0.00, 0.00, 0.00, 0.00, 0.00, 0.00, -7739.43, 0.000, 0.000, 0.000, 14:35:09.122, 1553970909122
246, -29746.71, 0.00, 0.00, 0.00, 0.00, 0.00, 0.00, -7728.14, 0.000, 0.000, 0.000, 14:35:09.122, 1553970909122
247, -29671.74, 0.00, 0.00, 0.00, 0.00, 0.00, 0.00, -7704.91, 0.074, 0.094, -1.018, 14:35:09.122, 1553970909122
248, -29655.31, 0.00, 0.00, 0.00, 0.00, 0.00, 0.00, -7704.82, 0.000, 0.000, 0.000, 14:35:09.122, 1553970909122
249, -29727.57, 0.00, 0.00, 0.00, 0.00, 0.00, 0.00, -7730.66, 0.000, 0.000, 0.000, 14:35:09.122, 1553970909122
250, -29756.03, 0.00, 0.00, 0.00, 0.00, 0.00, 0.00, -7734.44, 0.000, 0.000, 0.000, 14:35:09.122, 1553970909122
251, -29678.78, 0.00, 0.00, 0.00, 0.00, 0.00, 0.00, -7702.28, 0.000, 0.000, 0.000, 14:35:09.122, 1553970909122
252, -29643.26, 0.00, 0.00, 0.00, 0.00, 0.00, 0.00, -7696.62, 0.000, 0.000, 0.000, 14:35:09.122, 1553970909122
253, -29703.17, 0.00, 0.00, 0.00, 0.00, 0.00, 0.00, -7722.15, 0.000, 0.000, 0.000, 14:35:09.122, 1553970909122
254, -29754.35, 0.00, 0.00, 0.00, 0.00, 0.00, 0.00, -7732.25, 0.000, 0.000, 0.000, 14:35:09.122, 1553970909122
255, -29710.23, 0.00, 0.00, 0.00, 0.00, 0.00, 0.00, -7712.80, 0.000, 0.000, 0.000, 14:35:09.122, 1553970909122
0, -29655.40, 0.00, 0.00, 0.00, 0.00, 0.00, 0.00, -7701.58, 0.000, 0.000, 0.000, 14:35:09.122, 1553970909122
1, -29707.01, 0.00, 0.00, 0.00, 0.00, 0.00, 0.00, -7725.90, 0.074, 0.094, -1.018, 14:35:09.122, 1553970909122
2, -29771.83, 0.00, 0.00, 0.00, 0.00, 0.00, 0.00, -7747.52, 0.000, 0.000, 0.000, 14:35:09.122, 1553970909122
3, -29717.31, 0.00, 0.00, 0.00, 0.00, 0.00, 0.00, -7717.54, 0.000, 0.000, 0.000, 14:35:09.122, 1553970909122
4, -29652.79, 0.00, 0.00, 0.00, 0.00, 0.00, 0.00, -7697.07, 0.000, 0.000, 0.000, 14:35:09.123, 1553970909123
5, -29691.54, 0.00, 0.00, 0.00, 0.00, 0.00, 0.00, -7717.21, 0.000, 0.000, 0.000, 14:35:09.123, 1553970909123
6, -29761.28, 0.00, 0.00, 0.00, 0.00, 0.00, 0.00, -7740.65, 0.000, 0.000, 0.000, 14:35:09.123, 1553970909123
7, -29725.99, 0.00, 0.00, 0.00, 0.00, 0.00, 0.00, -7712.60, 0.000, 0.000, 0.000, 14:35:09.123, 1553970909123
8, -29659.76, 0.00, 0.00, 0.00, 0.00, 0.00, 0.00, -7687.57, 0.000, 0.000, 0.000, 14:35:09.123, 1553970909123
9, -29683.12, 0.00, 0.00, 0.00, 0.00, 0.00, 0.00, -7712.45, 0.000, 0.000, 0.000, 14:35:09.123, 1553970909123
10, -29752.72, 0.00, 0.00, 0.00, 0.00, 0.00, 0.00, -7730.95, 0.000, 0.000, 0.000, 14:35:09.123, 1553970909123
11, -29739.60, 0.00, 0.00, 0.00, 0.00, 0.00, 0.00, -7716.51, 0.080, 0.094, -1.022, 14:35:09.123, 1553970909123
12, -29672.16, 0.00, 0.00, 0.00, 0.00, 0.00, 0.00, -7695.53, 0.000, 0.000, 0.000, 14:35:09.123, 1553970909123
13, -29675.58, 0.00, 0.00, 0.00, 0.00, 0.00, 0.00, -7706.55, 0.000, 0.000, 0.000, 14:35:09.123, 1553970909123
14, -29744.29, 0.00, 0.00, 0.00, 0.00, 0.00, 0.00, -7732.07, 0.000, 0.000, 0.000, 14:35:09.123, 1553970909123
15, -29751.54, 0.00, 0.00, 0.00, 0.00, 0.00, 0.00, -7723.35, 0.000, 0.000, 0.000, 14:35:09.123, 1553970909123
16, -29684.70, 0.00, 0.00, 0.00, 0.00, 0.00, 0.00, -7696.20, 0.000, 0.000, 0.000, 14:35:09.123, 1553970909123
17, -29666.55, 0.00, 0.00, 0.00, 0.00, 0.00, 0.00, -7700.09, 0.000, 0.000, 0.000, 14:35:09.124, 1553970909124
18, -29738.37, 0.00, 0.00, 0.00, 0.00, 0.00, 0.00, -7731.40, 0.000, 0.000, 0.000, 14:35:09.124, 1553970909124
19, -29765.44, 0.00, 0.00, 0.00, 0.00, 0.00, 0.00, -7732.14, 0.000, 0.000, 0.000, 14:35:09.124, 1553970909124
20, -29695.01, 0.00, 0.00, 0.00, 0.00, 0.00, 0.00, -7698.70, 0.000, 0.000, 0.000, 14:35:09.124, 1553970909124
21, -29653.81, 0.00, 0.00, 0.00, 0.00, 0.00, 0.00, -7690.16, 0.068, 0.098, -1.022, 14:35:09.124, 1553970909124
22, -29718.70, 0.00, 0.00, 0.00, 0.00, 0.00, 0.00, -7715.13, 0.000, 0.000, 0.000, 14:35:09.124, 1553970909124
23, -29769.82, 0.00, 0.00, 0.00, 0.00, 0.00, 0.00, -7732.83, 0.000, 0.000, 0.000, 14:35:09.124, 1553970909124
24, -29714.10, 0.00, 0.00, 0.00, 0.00, 0.00, 0.00, -7705.63, 0.000, 0.000, 0.000, 14:35:09.124, 1553970909124
25, -29657.30, 0.00, 0.00, 0.00, 0.00, 0.00, 0.00, -7690.48, 0.000, 0.000, 0.000, 14:35:09.124, 1553970909124
26, -29710.65, 0.00, 0.00, 0.00, 0.00, 0.00, 0.00, -7715.64, 0.000, 0.000, 0.000, 14:35:09.124, 1553970909124
27, -29767.16, 0.00, 0.00, 0.00, 0.00, 0.00, 0.00, -7734.55, 0.000, 0.000, 0.000, 14:35:09.124, 1553970909124
28, -29730.19, 0.00, 0.00, 0.00, 0.00, 0.00, 0.00, -7715.58, 0.000, 0.000, 0.000, 14:35:09.124, 1553970909124
29, -29663.94, 0.00, 0.00, 0.00, 0.00, 0.00, 0.00, -7696.33, 0.000, 0.000, 0.000, 14:35:09.124, 1553970909124
30, -29693.62, 0.00, 0.00, 0.00, 0.00, 0.00, 0.00, -7712.27, 0.000, 0.000, 0.000, 14:35:09.125, 1553970909125
31, -29760.47, 0.00, 0.00, 0.00, 0.00, 0.00, 0.00, -7732.85, 0.074, 0.098, -1.024, 14:35:09.125, 1553970909125
32, -29743.02, 0.00, 0.00, 0.00, 0.00, 0.00, 0.00, -7724.36, 0.000, 0.000, 0.000, 14:35:09.125, 1553970909125
33, -29664.27, 0.00, 0.00, 0.00, 0.00, 0.00, 0.00, -7694.70, 0.000, 0.000, 0.000, 14:35:09.125, 1553970909125
34, -29685.80, 0.00, 0.00, 0.00, 0.00, 0.00, 0.00, -7712.22, 0.000, 0.000, 0.000, 14:35:09.125, 1553970909125
35, -29762.62, 0.00, 0.00, 0.00, 0.00, 0.00, 0.00, -7739.09, 0.000, 0.000, 0.000, 14:35:09.125, 1553970909125
36, -29739.87, 0.00, 0.00, 0.00, 0.00, 0.00, 0.00, -7715.73, 0.000, 0.000, 0.000, 14:35:09.125, 1553970909125
37, -29660.63, 0.00, 0.00, 0.00, 0.00, 0.00, 0.00, -7691.15, 0.000, 0.000, 0.000, 14:35:09.125, 1553970909125
38, -29663.65, 0.00, 0.00, 0.00, 0.00, 0.00, 0.00, -7697.02, 0.000, 0.000, 0.000, 14:35:09.125, 1553970909125
39, -29735.51, 0.00, 0.00, 0.00, 0.00, 0.00, 0.00, -7717.03, 0.000, 0.000, 0.000, 14:35:09.125, 1553970909125
40, -29754.80, 0.00, 0.00, 0.00, 0.00, 0.00, 0.00, -7713.45, 0.000, 0.000, 0.000, 14:35:09.125, 1553970909125
41, -29689.42, 0.00, 0.00, 0.00, 0.00, 0.00, 0.00, -7687.48, 0.080, 0.096, -1.028, 14:35:09.125, 1553970909125
42, -29659.36, 0.00, 0.00, 0.00, 0.00, 0.00, 0.00, -7690.52, 0.000, 0.000, 0.000, 14:35:09.125, 1553970909125
43, -29729.58, 0.00, 0.00, 0.00, 0.00, 0.00, 0.00, -7722.26, 0.000, 0.000, 0.000, 14:35:09.125, 1553970909125
44, -29768.19, 0.00, 0.00, 0.00, 0.00, 0.00, 0.00, -7728.76, 0.000, 0.000, 0.000, 14:35:09.125, 1553970909125
45, -29691.43, 0.00, 0.00, 0.00, 0.00, 0.00, 0.00, -7692.51, 0.000, 0.000, 0.000, 14:35:09.125, 1553970909125
46, -29632.69, 0.00, 0.00, 0.00, 0.00, 0.00, 0.00, -7677.69, 0.000, 0.000, 0.000, 14:35:09.125, 1553970909125
47, -29697.35, 0.00, 0.00, 0.00, 0.00, 0.00, 0.00, -7705.94, 0.000, 0.000, 0.000, 14:35:09.125, 1553970909125
48, -29758.31, 0.00, 0.00, 0.00, 0.00, 0.00, 0.00, -7730.53, 0.000, 0.000, 0.000, 14:35:09.126, 1553970909126
49, -29697.62, 0.00, 0.00, 0.00, 0.00, 0.00, 0.00, -7695.41, 0.000, 0.000, 0.000, 14:35:09.126, 1553970909126
50, -29647.40, 0.00, 0.00, 0.00, 0.00, 0.00, 0.00, -7679.01, 0.078, 0.100, -1.026, 14:35:09.126, 1553970909126
51, -29706.34, 0.00, 0.00, 0.00, 0.00, 0.00, 0.00, -7707.15, 0.000, 0.000, 0.000, 14:35:09.126, 1553970909126
52, -29775.94, 0.00, 0.00, 0.00, 0.00, 0.00, 0.00, -7732.72, 0.000, 0.000, 0.000, 14:35:09.126, 1553970909126
53, -29729.96, 0.00, 0.00, 0.00, 0.00, 0.00, 0.00, -7707.64, 0.000, 0.000, 0.000, 14:35:09.126, 1553970909126
54, -29663.31, 0.00, 0.00, 0.00, 0.00, 0.00, 0.00, -7687.86, 0.000, 0.000, 0.000, 14:35:09.126, 1553970909126
55, -29687.61, 0.00, 0.00, 0.00, 0.00, 0.00, 0.00, -7705.94, 0.000, 0.000, 0.000, 14:35:09.126, 1553970909126
56, -29745.79, 0.00, 0.00, 0.00, 0.00, 0.00, 0.00, -7716.63, 0.000, 0.000, 0.000, 14:35:09.126, 1553970909126
57, -29728.09, 0.00, 0.00, 0.00, 0.00, 0.00, 0.00, -7703.77, 0.000, 0.000, 0.000, 14:35:09.127, 1553970909127
58, -29658.30, 0.00, 0.00, 0.00, 0.00, 0.00, 0.00, -7684.51, 0.000, 0.000, 0.000, 14:35:09.127, 1553970909127
59, -29677.33, 0.00, 0.00, 0.00, 0.00, 0.00, 0.00, -7701.52, 0.000, 0.000, 0.000, 14:35:09.127, 1553970909127
60, -29755.42, 0.00, 0.00, 0.00, 0.00, 0.00, 0.00, -7730.71, 0.082, 0.100, -1.026, 14:35:09.127, 1553970909127
61, -29754.17, 0.00, 0.00, 0.00, 0.00, 0.00, 0.00, -7720.72, 0.000, 0.000, 0.000, 14:35:09.127, 1553970909127
62, -29678.02, 0.00, 0.00, 0.00, 0.00, 0.00, 0.00, -7688.58, 0.000, 0.000, 0.000, 14:35:09.127, 1553970909127
63, -29672.65, 0.00, 0.00, 0.00, 0.00, 0.00, 0.00, -7702.43, 0.000, 0.000, 0.000, 14:35:09.127, 1553970909127
64, -29749.88, 0.00, 0.00, 0.00, 0.00, 0.00, 0.00, -7727.20, 0.000, 0.000, 0.000, 14:35:09.127, 1553970909127
65, -29773.77, 0.00, 0.00, 0.00, 0.00, 0.00, 0.00, -7732.14, 0.000, 0.000, 0.000, 14:35:09.128, 1553970909128
66, -29690.74, 0.00, 0.00, 0.00, 0.00, 0.00, 0.00, -7692.93, 0.000, 0.000, 0.000, 14:35:09.128, 1553970909128
67, -29673.08, 0.00, 0.00, 0.00, 0.00, 0.00, 0.00, -7704.78, 0.000, 0.000, 0.000, 14:35:09.128, 1553970909128
68, -29733.76, 0.00, 0.00, 0.00, 0.00, 0.00, 0.00, -7730.91, 0.000, 0.000, 0.000, 14:35:09.128, 1553970909128
69, -29763.74, 0.00, 0.00, 0.00, 0.00, 0.00, 0.00, -7733.03, 0.000, 0.000, 0.000, 14:35:09.128, 1553970909128
70, -29703.93, 0.00, 0.00, 0.00, 0.00, 0.00, 0.00, -7705.61, 0.078, 0.102, -1.020, 14:35:09.128, 1553970909128
71, -29655.18, 0.00, 0.00, 0.00, 0.00, 0.00, 0.00, -7692.51, 0.000, 0.000, 0.000, 14:35:09.128, 1553970909128
72, -29702.49, 0.00, 0.00, 0.00, 0.00, 0.00, 0.00, -7706.66, 0.000, 0.000, 0.000, 14:35:09.128, 1553970909128
73, -29764.19, 0.00, 0.00, 0.00, 0.00, 0.00, 0.00, -7731.40, 0.000, 0.000, 0.000, 14:35:09.128, 1553970909128
74, -29709.87, 0.00, 0.00, 0.00, 0.00, 0.00, 0.00, -7699.06, 0.000, 0.000, 0.000, 14:35:09.128, 1553970909128
75, -29650.62, 0.00, 0.00, 0.00, 0.00, 0.00, 0.00, -7682.16, 0.000, 0.000, 0.000, 14:35:09.128, 1553970909128
76, -29701.42, 0.00, 0.00, 0.00, 0.00, 0.00, 0.00, -7711.15, 0.000, 0.000, 0.000, 14:35:09.128, 1553970909128
77, -29767.96, 0.00, 0.00, 0.00, 0.00, 0.00, 0.00, -7728.36, 0.000, 0.000, 0.000, 14:35:09.128, 1553970909128
78, -29726.08, 0.00, 0.00, 0.00, 0.00, 0.00, 0.00, -7704.80, 0.000, 0.000, 0.000, 14:35:09.128, 1553970909128
79, -29653.19, 0.00, 0.00, 0.00, 0.00, 0.00, 0.00, -7685.89, 0.000, 0.000, 0.000, 14:35:09.129, 1553970909129
80, -29683.05, 0.00, 0.00, 0.00, 0.00, 0.00, 0.00, -7701.79, 0.080, 0.102, -1.022, 14:35:09.129, 1553970909129
81, -29748.03, 0.00, 0.00, 0.00, 0.00, 0.00, 0.00, -7712.18, 0.000, 0.000, 0.000, 14:35:09.129, 1553970909129
82, -29729.36, 0.00, 0.00, 0.00, 0.00, 0.00, 0.00, -7697.25, 0.000, 0.000, 0.000, 14:35:09.129, 1553970909129
83, -29651.00, 0.00, 0.00, 0.00, 0.00, 0.00, 0.00, -7669.17, 0.000, 0.000, 0.000, 14:35:09.129, 1553970909129
84, -29655.58, 0.00, 0.00, 0.00, 0.00, 0.00, 0.00, -7681.65, 0.000, 0.000, 0.000, 14:35:09.129, 1553970909129
85, -29741.19, 0.00, 0.00, 0.00, 0.00, 0.00, 0.00, -7715.29, 0.000, 0.000, 0.000, 14:35:09.129, 1553970909129
86, -29739.98, 0.00, 0.00, 0.00, 0.00, 0.00, 0.00, -7710.64, 0.000, 0.000, 0.000, 14:35:09.129, 1553970909129
87, -29666.93, 0.00, 0.00, 0.00, 0.00, 0.00, 0.00, -7680.46, 0.000, 0.000, 0.000, 14:35:09.129, 1553970909129
88, -29655.22, 0.00, 0.00, 0.00, 0.00, 0.00, 0.00, -7683.32, 0.000, 0.000, 0.000, 14:35:09.129, 1553970909129
89, -29730.50, 0.00, 0.00, 0.00, 0.00, 0.00, 0.00, -7715.73, 0.000, 0.000, 0.000, 14:35:09.129, 1553970909129
90, -29763.45, 0.00, 0.00, 0.00, 0.00, 0.00, 0.00, -7723.58, 0.082, 0.104, -1.022, 14:35:09.129, 1553970909129
91, -29684.61, 0.00, 0.00, 0.00, 0.00, 0.00, 0.00, -7685.85, 0.000, 0.000, 0.000, 14:35:09.129, 1553970909129
92, -29659.15, 0.00, 0.00, 0.00, 0.00, 0.00, 0.00, -7684.84, 0.000, 0.000, 0.000, 14:35:09.129, 1553970909129
93, -29735.73, 0.00, 0.00, 0.00, 0.00, 0.00, 0.00, -7725.79, 0.000, 0.000, 0.000, 14:35:09.130, 1553970909130
94, -29780.50, 0.00, 0.00, 0.00, 0.00, 0.00, 0.00, -7735.65, 0.000, 0.000, 0.000, 14:35:09.130, 1553970909130
95, -29717.69, 0.00, 0.00, 0.00, 0.00, 0.00, 0.00, -7705.09, 0.000, 0.000, 0.000, 14:35:09.130, 1553970909130
96, -29665.48, 0.00, 0.00, 0.00, 0.00, 0.00, 0.00, -7694.88, 0.000, 0.000, 0.000, 14:35:09.130, 1553970909130
97, -29716.71, 0.00, 0.00, 0.00, 0.00, 0.00, 0.00, -7717.12, 0.000, 0.000, 0.000, 14:35:09.130, 1553970909130
98, -29775.99, 0.00, 0.00, 0.00, 0.00, 0.00, 0.00, -7732.99, 0.000, 0.000, 0.000, 14:35:09.130, 1553970909130
99, -29738.46, 0.00, 0.00, 0.00, 0.00, 0.00, 0.00, -7716.43, 0.000, 0.000, 0.000, 14:35:09.130, 1553970909130
100, -29670.89, 0.00, 0.00, 0.00, 0.00, 0.00, 0.00, -7696.82, 0.080, 0.104, -1.022, 14:35:09.130, 1553970909130
101, -29710.77, 0.00, 0.00, 0.00, 0.00, 0.00, 0.00, -7722.53, 0.000, 0.000, 0.000, 14:35:09.130, 1553970909130
102, -29773.64, 0.00, 0.00, 0.00, 0.00, 0.00, 0.00, -7740.25, 0.000, 0.000, 0.000, 14:35:09.130, 1553970909130
103, -29735.91, 0.00, 0.00, 0.00, 0.00, 0.00, 0.00, -7714.88, 0.000, 0.000, 0.000, 14:35:09.130, 1553970909130
104, -29672.99, 0.00, 0.00, 0.00, 0.00, 0.00, 0.00, -7700.27, 0.000, 0.000, 0.000, 14:35:09.130, 1553970909130
105, -29697.15, 0.00, 0.00, 0.00, 0.00, 0.00, 0.00, -7712.94, 0.000, 0.000, 0.000, 14:35:09.130, 1553970909130
106, -29766.06, 0.00, 0.00, 0.00, 0.00, 0.00, 0.00, -7729.66, 0.000, 0.000, 0.000, 14:35:09.599, 1553970909599
107, -29753.19, 0.00, 0.00, 0.00, 0.00, 0.00, 0.00, -7715.64, 0.000, 0.000, 0.000, 14:35:09.599, 1553970909599
108, -29671.98, 0.00, 0.00, 0.00, 0.00, 0.00, 0.00, -7684.93, 0.000, 0.000, 0.000, 14:35:09.599, 1553970909599
109, -29671.78, 0.00, 0.00, 0.00, 0.00, 0.00, 0.00, -7696.76, 0.000, 0.000, 0.000, 14:35:09.599, 1553970909599
110, -29746.84, 0.00, 0.00, 0.00, 0.00, 0.00, 0.00, -7728.63, 0.084, 0.100, -1.018, 14:35:09.599, 1553970909599
111, -29759.83, 0.00, 0.00, 0.00, 0.00, 0.00, 0.00, -7722.80, 0.000, 0.000, 0.000, 14:35:09.599, 1553970909599
112, -29691.65, 0.00, 0.00, 0.00, 0.00, 0.00, 0.00, -7693.72, 0.000, 0.000, 0.000, 14:35:09.599, 1553970909599
113, -29678.58, 0.00, 0.00, 0.00, 0.00, 0.00, 0.00, -7702.81, 0.000, 0.000, 0.000, 14:35:09.600, 1553970909600
114, -29734.66, 0.00, 0.00, 0.00, 0.00, 0.00, 0.00, -7720.87, 0.000, 0.000, 0.000, 14:35:09.600, 1553970909600
115, -29761.15, 0.00, 0.00, 0.00, 0.00, 0.00, 0.00, -7723.80, 0.000, 0.000, 0.000, 14:35:09.600, 1553970909600
116, -29694.11, 0.00, 0.00, 0.00, 0.00, 0.00, 0.00, -7695.01, 0.000, 0.000, 0.000, 14:35:09.600, 1553970909600
117, -29664.27, 0.00, 0.00, 0.00, 0.00, 0.00, 0.00, -7691.57, 0.000, 0.000, 0.000, 14:35:09.600, 1553970909600
118, -29725.85, 0.00, 0.00, 0.00, 0.00, 0.00, 0.00, -7718.75, 0.000, 0.000, 0.000, 14:35:09.600, 1553970909600
119, -29773.44, 0.00, 0.00, 0.00, 0.00, 0.00, 0.00, -7729.57, 0.080, 0.098, -1.018, 14:35:09.600, 1553970909600
120, -29711.77, 0.00, 0.00, 0.00, 0.00, 0.00, 0.00, -7704.51, 0.000, 0.000, 0.000, 14:35:09.600, 1553970909600
121, -29663.38, 0.00, 0.00, 0.00, 0.00, 0.00, 0.00, -7697.74, 0.000, 0.000, 0.000, 14:35:09.600, 1553970909600
122, -29709.02, 0.00, 0.00, 0.00, 0.00, 0.00, 0.00, -7717.41, 0.000, 0.000, 0.000, 14:35:09.600, 1553970909600
123, -29761.86, 0.00, 0.00, 0.00, 0.00, 0.00, 0.00, -7725.57, 0.000, 0.000, 0.000, 14:35:09.600, 1553970909600
124, -29719.24, 0.00, 0.00, 0.00, 0.00, 0.00, 0.00, -7700.22, 0.000, 0.000, 0.000, 14:35:09.600, 1553970909600
125, -29653.01, 0.00, 0.00, 0.00, 0.00, 0.00, 0.00, -7679.92, 0.000, 0.000, 0.000, 14:35:09.600, 1553970909600
126, -29685.84, 0.00, 0.00, 0.00, 0.00, 0.00, 0.00, -7692.11, 0.000, 0.000, 0.000, 14:35:09.600, 1553970909600
127, -29762.78, 0.00, 0.00, 0.00, 0.00, 0.00, 0.00, -7718.97, 0.000, 0.000, 0.000, 14:35:09.600, 1553970909600
128, -29742.48, 0.00, 0.00, 0.00, 0.00, 0.00, 0.00, -7705.74, 0.000, 0.000, 0.000, 14:35:09.600, 1553970909600
129, -29670.58, 0.00, 0.00, 0.00, 0.00, 0.00, 0.00, -7688.31, 0.076, 0.100, -1.022, 14:35:09.600, 1553970909600
130, -29683.03, 0.00, 0.00, 0.00, 0.00, 0.00, 0.00, -7705.58, 0.000, 0.000, 0.000, 14:35:09.601, 1553970909601
131, -29754.64, 0.00, 0.00, 0.00, 0.00, 0.00, 0.00, -7729.05, 0.000, 0.000, 0.000, 14:35:09.601, 1553970909601
132, -29751.54, 0.00, 0.00, 0.00, 0.00, 0.00, 0.00, -7721.61, 0.000, 0.000, 0.000, 14:35:09.601, 1553970909601
133, -29690.18, 0.00, 0.00, 0.00, 0.00, 0.00, 0.00, -7705.27, 0.000, 0.000, 0.000, 14:35:09.601, 1553970909601
134, -29688.30, 0.00, 0.00, 0.00, 0.00, 0.00, 0.00, -7719.98, 0.000, 0.000, 0.000, 14:35:09.601, 1553970909601
135, -29766.31, 0.00, 0.00, 0.00, 0.00, 0.00, 0.00, -7755.74, 0.000, 0.000, 0.000, 14:35:09.601, 1553970909601
136, -29782.29, 0.00, 0.00, 0.00, 0.00, 0.00, 0.00, -7755.63, 0.000, 0.000, 0.000, 14:35:09.601, 1553970909601
137, -29708.42, 0.00, 0.00, 0.00, 0.00, 0.00, 0.00, -7720.27, 0.000, 0.000, 0.000, 14:35:09.601, 1553970909601
138, -29697.33, 0.00, 0.00, 0.00, 0.00, 0.00, 0.00, -7734.17, 0.000, 0.000, 0.000, 14:35:09.601, 1553970909601
139, -29775.83, 0.00, 0.00, 0.00, 0.00, 0.00, 0.00, -7775.75, 0.082, 0.102, -1.024, 14:35:09.602, 1553970909602
140, -29796.91, 0.00, 0.00, 0.00, 0.00, 0.00, 0.00, -7771.99, 0.000, 0.000, 0.000, 14:35:09.602, 1553970909602
141, -29731.84, 0.00, 0.00, 0.00, 0.00, 0.00, 0.00, -7745.10, 0.000, 0.000, 0.000, 14:35:09.602, 1553970909602
142, -29697.62, 0.00, 0.00, 0.00, 0.00, 0.00, 0.00, -7743.67, 0.000, 0.000, 0.000, 14:35:09.602, 1553970909602
143, -29760.43, 0.00, 0.00, 0.00, 0.00, 0.00, 0.00, -7773.69, 0.000, 0.000, 0.000, 14:35:09.602, 1553970909602
144, -29808.87, 0.00, 0.00, 0.00, 0.00, 0.00, 0.00, -7788.85, 0.000, 0.000, 0.000, 14:35:09.602, 1553970909602
145, -29752.83, 0.00, 0.00, 0.00, 0.00, 0.00, 0.00, -7763.83, 0.000, 0.000, 0.000, 14:35:09.602, 1553970909602
146, -29692.08, 0.00, 0.00, 0.00, 0.00, 0.00, 0.00, -7750.49, 0.000, 0.000, 0.000, 14:35:09.602, 1553970909602
147, -29736.04, 0.00, 0.00, 0.00, 0.00, 0.00, 0.00, -7770.78, 0.000, 0.000, 0.000, 14:35:09.602, 1553970909602
148, -29800.24, 0.00, 0.00, 0.00, 0.00, 0.00, 0.00, -7788.15, 0.000, 0.000, 0.000, 14:35:09.602, 1553970909602
149, -29762.91, 0.00, 0.00, 0.00, 0.00, 0.00, 0.00, -7770.74, 0.076, 0.104, -1.018, 14:35:09.602, 1553970909602
150, -29696.37, 0.00, 0.00, 0.00, 0.00, 0.00, 0.00, -7756.70, 0.000, 0.000, 0.000, 14:35:09.602, 1553970909602
151, -29724.33, 0.00, 0.00, 0.00, 0.00, 0.00, 0.00, -7771.66, 0.000, 0.000, 0.000, 14:35:09.602, 1553970909602
152, -29793.22, 0.00, 0.00, 0.00, 0.00, 0.00, 0.00, -7789.87, 0.000, 0.000, 0.000, 14:35:09.602, 1553970909602
153, -29773.91, 0.00, 0.00, 0.00, 0.00, 0.00, 0.00, -7780.35, 0.000, 0.000, 0.000, 14:35:09.602, 1553970909602
154, -29704.55, 0.00, 0.00, 0.00, 0.00, 0.00, 0.00, -7761.17, 0.000, 0.000, 0.000, 14:35:09.603, 1553970909603
155, -29722.01, 0.00, 0.00, 0.00, 0.00, 0.00, 0.00, -7775.30, 0.000, 0.000, 0.000, 14:35:09.603, 1553970909603
156, -29792.71, 0.00, 0.00, 0.00, 0.00, 0.00, 0.00, -7803.13, 0.000, 0.000, 0.000, 14:35:09.603, 1553970909603
157, -29779.92, 0.00, 0.00, 0.00, 0.00, 0.00, 0.00, -7788.93, 0.000, 0.000, 0.000, 14:35:09.603, 1553970909603
158, -29706.85, 0.00, 0.00, 0.00, 0.00, 0.00, 0.00, -7762.34, 0.000, 0.000, 0.000, 14:35:09.603, 1553970909603
159, -29700.24, 0.00, 0.00, 0.00, 0.00, 0.00, 0.00, -7772.24, 0.074, 0.100, -1.024, 14:35:09.603, 1553970909603
160, -29766.82, 0.00, 0.00, 0.00, 0.00, 0.00, 0.00, -7795.93, 0.000, 0.000, 0.000, 14:35:09.603, 1553970909603
161, -29781.22, 0.00, 0.00, 0.00, 0.00, 0.00, 0.00, -7792.29, 0.000, 0.000, 0.000, 14:35:09.603, 1553970909603
162, -29714.16, 0.00, 0.00, 0.00, 0.00, 0.00, 0.00, -7765.69, 0.000, 0.000, 0.000, 14:35:09.603, 1553970909603
163, -29687.54, 0.00, 0.00, 0.00, 0.00, 0.00, 0.00, -7763.88, 0.000, 0.000, 0.000, 14:35:09.603, 1553970909603
164, -29755.85, 0.00, 0.00, 0.00, 0.00, 0.00, 0.00, -7792.67, 0.000, 0.000, 0.000, 14:35:09.603, 1553970909603
165, -29792.91, 0.00, 0.00, 0.00, 0.00, 0.00, 0.00, -7798.43, 0.000, 0.000, 0.000, 14:35:09.603, 1553970909603
166, -29721.16, 0.00, 0.00, 0.00, 0.00, 0.00, 0.00, -7761.73, 0.000, 0.000, 0.000, 14:35:09.603, 1553970909603
167, -29674.82, 0.00, 0.00, 0.00, 0.00, 0.00, 0.00, -7750.47, 0.000, 0.000, 0.000, 14:35:09.603, 1553970909603
168, -29724.38, 0.00, 0.00, 0.00, 0.00, 0.00, 0.00, -7766.36, 0.000, 0.000, 0.000, 14:35:09.604, 1553970909604
169, -29774.33, 0.00, 0.00, 0.00, 0.00, 0.00, 0.00, -7779.50, 0.072, 0.098, -1.022, 14:35:09.604, 1553970909604
170, -29729.07, 0.00, 0.00, 0.00, 0.00, 0.00, 0.00, -7758.80, 0.000, 0.000, 0.000, 14:35:09.604, 1553970909604
171, -29678.29, 0.00, 0.00, 0.00, 0.00, 0.00, 0.00, -7750.33, 0.000, 0.000, 0.000, 14:35:09.604, 1553970909604
172, -29719.53, 0.00, 0.00, 0.00, 0.00, 0.00, 0.00, -7771.46, 0.000, 0.000, 0.000, 14:35:09.604, 1553970909604
173, -29779.00, 0.00, 0.00, 0.00, 0.00, 0.00, 0.00, -7785.76, 0.000, 0.000, 0.000, 14:35:09.604, 1553970909604
174, -29741.95, 0.00, 0.00, 0.00, 0.00, 0.00, 0.00, -7767.68, 0.000, 0.000, 0.000, 14:35:09.604, 1553970909604
175, -29675.81, 0.00, 0.00, 0.00, 0.00, 0.00, 0.00, -7748.99, 0.000, 0.000, 0.000, 14:35:09.604, 1553970909604
176, -29700.10, 0.00, 0.00, 0.00, 0.00, 0.00, 0.00, -7761.38, 0.000, 0.000, 0.000, 14:35:09.604, 1553970909604
177, -29766.20, 0.00, 0.00, 0.00, 0.00, 0.00, 0.00, -7777.94, 0.000, 0.000, 0.000, 14:35:09.604, 1553970909604
178, -29751.76, 0.00, 0.00, 0.00, 0.00, 0.00, 0.00, -7769.49, 0.000, 0.000, 0.000, 14:35:09.604, 1553970909604
179, -29680.72, 0.00, 0.00, 0.00, 0.00, 0.00, 0.00, -7748.70, 0.076, 0.094, -1.020, 14:35:09.604, 1553970909604
180, -29683.88, 0.00, 0.00, 0.00, 0.00, 0.00, 0.00, -7756.12, 0.000, 0.000, 0.000, 14:35:09.604, 1553970909604
181, -29761.17, 0.00, 0.00, 0.00, 0.00, 0.00, 0.00, -7783.35, 0.000, 0.000, 0.000, 14:35:09.604, 1553970909604
182, -29762.96, 0.00, 0.00, 0.00, 0.00, 0.00, 0.00, -7781.16, 0.000, 0.000, 0.000, 14:35:09.604, 1553970909604
183, -29685.98, 0.00, 0.00, 0.00, 0.00, 0.00, 0.00, -7746.18, 0.000, 0.000, 0.000, 14:35:09.604, 1553970909604
184, -29676.48, 0.00, 0.00, 0.00, 0.00, 0.00, 0.00, -7755.76, 0.000, 0.000, 0.000, 14:35:09.604, 1553970909604
185, -29743.94, 0.00, 0.00, 0.00, 0.00, 0.00, 0.00, -7782.27, 0.000, 0.000, 0.000, 14:35:09.604, 1553970909604
186, -29765.41, 0.00, 0.00, 0.00, 0.00, 0.00, 0.00, -7783.84, 0.000, 0.000, 0.000, 14:35:09.605, 1553970909605
187, -29696.71, 0.00, 0.00, 0.00, 0.00, 0.00, 0.00, -7749.44, 0.000, 0.000, 0.000, 14:35:09.605, 1553970909605
188, -29666.58, 0.00, 0.00, 0.00, 0.00, 0.00, 0.00, -7747.81, 0.070, 0.100, -1.018, 14:35:09.605, 1553970909605
189, -29726.84, 0.00, 0.00, 0.00, 0.00, 0.00, 0.00, -7772.71, 0.000, 0.000, 0.000, 14:35:09.605, 1553970909605
190, -29770.78, 0.00, 0.00, 0.00, 0.00, 0.00, 0.00, -7781.09, 0.000, 0.000, 0.000, 14:35:09.605, 1553970909605
191, -29711.81, 0.00, 0.00, 0.00, 0.00, 0.00, 0.00, -7755.74, 0.000, 0.000, 0.000, 14:35:09.605, 1553970909605
192, -29672.21, 0.00, 0.00, 0.00, 0.00, 0.00, 0.00, -7749.91, 0.000, 0.000, 0.000, 14:35:09.605, 1553970909605
193, -29714.56, 0.00, 0.00, 0.00, 0.00, 0.00, 0.00, -7759.56, 0.000, 0.000, 0.000, 14:35:09.605, 1553970909605
194, -29770.35, 0.00, 0.00, 0.00, 0.00, 0.00, 0.00, -7776.77, 0.000, 0.000, 0.000, 14:35:09.605, 1553970909605
195, -29717.54, 0.00, 0.00, 0.00, 0.00, 0.00, 0.00, -7746.29, 0.000, 0.000, 0.000, 14:35:09.605, 1553970909605
196, -29645.47, 0.00, 0.00, 0.00, 0.00, 0.00, 0.00, -7718.30, 0.000, 0.000, 0.000, 14:35:09.605, 1553970909605
197, -29690.45, 0.00, 0.00, 0.00, 0.00, 0.00, 0.00, -7742.96, 0.000, 0.000, 0.000, 14:35:09.605, 1553970909605
198, -29767.61, 0.00, 0.00, 0.00, 0.00, 0.00, 0.00, -7775.05, 0.074, 0.102, -1.020, 14:35:09.605, 1553970909605
199, -29737.59, 0.00, 0.00, 0.00, 0.00, 0.00, 0.00, -7757.66, 0.000, 0.000, 0.000, 14:35:09.605, 1553970909605
200, -29655.47, 0.00, 0.00, 0.00, 0.00, 0.00, 0.00, -7717.07, 0.000, 0.000, 0.000, 14:35:09.605, 1553970909605
201, -29680.63, 0.00, 0.00, 0.00, 0.00, 0.00, 0.00, -7734.98, 0.000, 0.000, 0.000, 14:35:09.605, 1553970909605
202, -29754.48, 0.00, 0.00, 0.00, 0.00, 0.00, 0.00, -7757.22, 0.000, 0.000, 0.000, 14:35:09.606, 1553970909606
203, -29738.82, 0.00, 0.00, 0.00, 0.00, 0.00, 0.00, -7746.94, 0.000, 0.000, 0.000, 14:35:09.606, 1553970909606
204, -29665.84, 0.00, 0.00, 0.00, 0.00, 0.00, 0.00, -7721.21, 0.000, 0.000, 0.000, 14:35:09.606, 1553970909606
205, -29675.87, 0.00, 0.00, 0.00, 0.00, 0.00, 0.00, -7734.73, 0.000, 0.000, 0.000, 14:35:09.606, 1553970909606
206, -29743.13, 0.00, 0.00, 0.00, 0.00, 0.00, 0.00, -7753.84, 0.000, 0.000, 0.000, 14:35:09.606, 1553970909606
207, -29745.41, 0.00, 0.00, 0.00, 0.00, 0.00, 0.00, -7741.88, 0.000, 0.000, 0.000, 14:35:09.606, 1553970909606
208, -29671.29, 0.00, 0.00, 0.00, 0.00, 0.00, 0.00, -7717.90, 0.078, 0.096, -1.018, 14:35:09.606, 1553970909606
209, -29659.98, 0.00, 0.00, 0.00, 0.00, 0.00, 0.00, -7724.34, 0.000, 0.000, 0.000, 14:35:09.606, 1553970909606
210, -29736.74, 0.00, 0.00, 0.00, 0.00, 0.00, 0.00, -7748.72, 0.000, 0.000, 0.000, 14:35:09.606, 1553970909606
211, -29754.19, 0.00, 0.00, 0.00, 0.00, 0.00, 0.00, -7743.54, 0.000, 0.000, 0.000, 14:35:09.606, 1553970909606
212, -29686.24, 0.00, 0.00, 0.00, 0.00, 0.00, 0.00, -7718.66, 0.000, 0.000, 0.000, 14:35:09.606, 1553970909606
213, -29664.43, 0.00, 0.00, 0.00, 0.00, 0.00, 0.00, -7726.86, 0.000, 0.000, 0.000, 14:35:09.606, 1553970909606
214, -29722.66, 0.00, 0.00, 0.00, 0.00, 0.00, 0.00, -7745.01, 0.000, 0.000, 0.000, 14:35:09.606, 1553970909606
215, -29768.28, 0.00, 0.00, 0.00, 0.00, 0.00, 0.00, -7752.43, 0.000, 0.000, 0.000, 14:35:09.606, 1553970909606
216, -29691.10, 0.00, 0.00, 0.00, 0.00, 0.00, 0.00, -7715.35, 0.000, 0.000, 0.000, 14:35:09.606, 1553970909606
217, -29650.97, 0.00, 0.00, 0.00, 0.00, 0.00, 0.00, -7717.61, 0.000, 0.000, 0.000, 14:35:09.606, 1553970909606
218, -29708.17, 0.00, 0.00, 0.00, 0.00, 0.00, 0.00, -7746.04, 0.080, 0.092, -1.022, 14:35:09.606, 1553970909606
219, -29763.16, 0.00, 0.00, 0.00, 0.00, 0.00, 0.00, -7751.94, 0.000, 0.000, 0.000, 14:35:09.606, 1553970909606
220, -29701.02, 0.00, 0.00, 0.00, 0.00, 0.00, 0.00, -7717.97, 0.000, 0.000, 0.000, 14:35:09.607, 1553970909607
221, -29661.70, 0.00, 0.00, 0.00, 0.00, 0.00, 0.00, -7725.17, 0.000, 0.000, 0.000, 14:35:09.607, 1553970909607
222, -29705.18, 0.00, 0.00, 0.00, 0.00, 0.00, 0.00, -7751.36, 0.000, 0.000, 0.000, 14:35:09.607, 1553970909607
223, -29763.67, 0.00, 0.00, 0.00, 0.00, 0.00, 0.00, -7761.67, 0.000, 0.000, 0.000, 14:35:09.607, 1553970909607
224, -29737.83, 0.00, 0.00, 0.00, 0.00, 0.00, 0.00, -7745.91, 0.000, 0.000, 0.000, 14:35:09.607, 1553970909607
225, -29659.71, 0.00, 0.00, 0.00, 0.00, 0.00, 0.00, -7713.68, 0.000, 0.000, 0.000, 14:35:09.607, 1553970909607
226, -29683.32, 0.00, 0.00, 0.00, 0.00, 0.00, 0.00, -7731.85, 0.000, 0.000, 0.000, 14:35:10.080, 1553970910080
227, -29752.03, 0.00, 0.00, 0.00, 0.00, 0.00, 0.00, -7755.88, 0.000, 0.000, 0.000, 14:35:10.080, 1553970910080
228, -29734.95, 0.00, 0.00, 0.00, 0.00, 0.00, 0.00, -7741.01, 0.078, 0.096, -1.026, 14:35:10.080, 1553970910080
229, -29672.50, 0.00, 0.00, 0.00, 0.00, 0.00, 0.00, -7721.90, 0.000, 0.000, 0.000, 14:35:10.080, 1553970910080
230, -29670.06, 0.00, 0.00, 0.00, 0.00, 0.00, 0.00, -7731.00, 0.000, 0.000, 0.000, 14:35:10.080, 1553970910080
231, -29737.25, 0.00, 0.00, 0.00, 0.00, 0.00, 0.00, -7754.00, 0.000, 0.000, 0.000, 14:35:10.080, 1553970910080
232, -29742.21, 0.00, 0.00, 0.00, 0.00, 0.00, 0.00, -7744.97, 0.000, 0.000, 0.000, 14:35:10.081, 1553970910081
233, -29674.40, 0.00, 0.00, 0.00, 0.00, 0.00, 0.00, -7720.25, 0.000, 0.000, 0.000, 14:35:10.081, 1553970910081
234, -29668.27, 0.00, 0.00, 0.00, 0.00, 0.00, 0.00, -7734.62, 0.000, 0.000, 0.000, 14:35:10.081, 1553970910081
235, -29735.40, 0.00, 0.00, 0.00, 0.00, 0.00, 0.00, -7759.99, 0.000, 0.000, 0.000, 14:35:10.081, 1553970910081
236, -29759.80, 0.00, 0.00, 0.00, 0.00, 0.00, 0.00, -7754.96, 0.000, 0.000, 0.000, 14:35:10.081, 1553970910081
237, -29681.42, 0.00, 0.00, 0.00, 0.00, 0.00, 0.00, -7718.82, 0.000, 0.000, 0.000, 14:35:10.081, 1553970910081
238, -29642.53, 0.00, 0.00, 0.00, 0.00, 0.00, 0.00, -7713.39, 0.080, 0.100, -1.020, 14:35:10.081, 1553970910081
239, -29707.08, 0.00, 0.00, 0.00, 0.00, 0.00, 0.00, -7744.68, 0.000, 0.000, 0.000, 14:35:10.081, 1553970910081
240, -29766.09, 0.00, 0.00, 0.00, 0.00, 0.00, 0.00, -7759.48, 0.000, 0.000, 0.000, 14:35:10.081, 1553970910081
241, -29712.08, 0.00, 0.00, 0.00, 0.00, 0.00, 0.00, -7734.44, 0.000, 0.000, 0.000, 14:35:10.081, 1553970910081
242, -29652.40, 0.00, 0.00, 0.00, 0.00, 0.00, 0.00, -7715.40, 0.000, 0.000, 0.000, 14:35:10.081, 1553970910081
243, -29702.79, 0.00, 0.00, 0.00, 0.00, 0.00, 0.00, -7741.28, 0.000, 0.000, 0.000, 14:35:10.081, 1553970910081
244, -29764.72, 0.00, 0.00, 0.00, 0.00, 0.00, 0.00, -7760.10, 0.000, 0.000, 0.000, 14:35:10.081, 1553970910081
245, -29720.91, 0.00, 0.00, 0.00, 0.00, 0.00, 0.00, -7732.27, 0.000, 0.000, 0.000, 14:35:10.081, 1553970910081
246, -29651.31, 0.00, 0.00, 0.00, 0.00, 0.00, 0.00, -7712.56, 0.000, 0.000, 0.000, 14:35:10.081, 1553970910081
247, -29683.81, 0.00, 0.00, 0.00, 0.00, 0.00, 0.00, -7731.87, 0.080, 0.098, -1.020, 14:35:10.081, 1553970910081
248, -29752.45, 0.00, 0.00, 0.00, 0.00, 0.00, 0.00, -7750.60, 0.000, 0.000, 0.000, 14:35:10.081, 1553970910081
249, -29732.89, 0.00, 0.00, 0.00, 0.00, 0.00, 0.00, -7736.61, 0.000, 0.000, 0.000, 14:35:10.081, 1553970910081
250, -29661.66, 0.00, 0.00, 0.00, 0.00, 0.00, 0.00, -7710.28, 0.000, 0.000, 0.000, 14:35:10.081, 1553970910081
251, -29677.68, 0.00, 0.00, 0.00, 0.00, 0.00, 0.00, -7725.12, 0.000, 0.000, 0.000, 14:35:10.081, 1553970910081
252, -29756.43, 0.00, 0.00, 0.00, 0.00, 0.00, 0.00, -7759.61, 0.000, 0.000, 0.000, 14:35:10.082, 1553970910082
253, -29739.69, 0.00, 0.00, 0.00, 0.00, 0.00, 0.00, -7744.37, 0.000, 0.000, 0.000, 14:35:10.082, 1553970910082
254, -29655.00, 0.00, 0.00, 0.00, 0.00, 0.00, 0.00, -7707.91, 0.000, 0.000, 0.000, 14:35:10.082, 1553970910082
255, -29652.18, 0.00, 0.00, 0.00, 0.00, 0.00, 0.00, -7716.47, 0.000, 0.000, 0.000, 14:35:10.082, 1553970910082
0, -29727.44, 0.00, 0.00, 0.00, 0.00, 0.00, 0.00, -7743.92, 0.000, 0.000, 0.000, 14:35:10.082, 1553970910082
1, -29745.97, 0.00, 0.00, 0.00, 0.00, 0.00, 0.00, -7744.81, 0.078, 0.098, -1.020, 14:35:10.082, 1553970910082
2, -29685.39, 0.00, 0.00, 0.00, 0.00, 0.00, 0.00, -7725.88, 0.000, 0.000, 0.000, 14:35:10.082, 1553970910082
3, -29655.06, 0.00, 0.00, 0.00, 0.00, 0.00, 0.00, -7716.02, 0.000, 0.000, 0.000, 14:35:10.082, 1553970910082
4, -29706.58, 0.00, 0.00, 0.00, 0.00, 0.00, 0.00, -7727.71, 0.000, 0.000, 0.000, 14:35:10.082, 1553970910082
5, -29731.82, 0.00, 0.00, 0.00, 0.00, 0.00, 0.00, -7724.65, 0.000, 0.000, 0.000, 14:35:10.082, 1553970910082
6, -29674.35, 0.00, 0.00, 0.00, 0.00, 0.00, 0.00, -7703.44, 0.000, 0.000, 0.000, 14:35:10.082, 1553970910082
7, -29638.37, 0.00, 0.00, 0.00, 0.00, 0.00, 0.00, -7700.20, 0.000, 0.000, 0.000, 14:35:10.082, 1553970910082
8, -29698.14, 0.00, 0.00, 0.00, 0.00, 0.00, 0.00, -7728.38, 0.000, 0.000, 0.000, 14:35:10.083, 1553970910083
9, -29754.06, 0.00, 0.00, 0.00, 0.00, 0.00, 0.00, -7749.73, 0.000, 0.000, 0.000, 14:35:10.083, 1553970910083
10, -29692.62, 0.00, 0.00, 0.00, 0.00, 0.00, 0.00, -7716.72, 0.000, 0.000, 0.000, 14:35:10.083, 1553970910083
11, -29638.66, 0.00, 0.00, 0.00, 0.00, 0.00, 0.00, -7703.42, 0.082, 0.098, -1.022, 14:35:10.083, 1553970910083
12, -29679.29, 0.00, 0.00, 0.00, 0.00, 0.00, 0.00, -7720.11, 0.000, 0.000, 0.000, 14:35:10.083, 1553970910083
13, -29747.89, 0.00, 0.00, 0.00, 0.00, 0.00, 0.00, -7740.10, 0.000, 0.000, 0.000, 14:35:10.083, 1553970910083
14, -29707.32, 0.00, 0.00, 0.00, 0.00, 0.00, 0.00, -7721.28, 0.000, 0.000, 0.000, 14:35:10.083, 1553970910083
15, -29644.13, 0.00, 0.00, 0.00, 0.00, 0.00, 0.00, -7703.84, 0.000, 0.000, 0.000, 14:35:10.083, 1553970910083
16, -29677.33, 0.00, 0.00, 0.00, 0.00, 0.00, 0.00, -7719.22, 0.000, 0.000, 0.000, 14:35:10.083, 1553970910083
17, -29737.01, 0.00, 0.00, 0.00, 0.00, 0.00, 0.00, -7732.97, 0.000, 0.000, 0.000, 14:35:10.083, 1553970910083
18, -29712.11, 0.00, 0.00, 0.00, 0.00, 0.00, 0.00, -7713.30, 0.000, 0.000, 0.000, 14:35:10.083, 1553970910083
19, -29650.33, 0.00, 0.00, 0.00, 0.00, 0.00, 0.00, -7698.92, 0.000, 0.000, 0.000, 14:35:10.083, 1553970910083
20, -29654.37, 0.00, 0.00, 0.00, 0.00, 0.00, 0.00, -7712.09, 0.000, 0.000, 0.000, 14:35:10.083, 1553970910083
21, -29726.99, 0.00, 0.00, 0.00, 0.00, 0.00, 0.00, -7737.93, 0.084, 0.098, -1.024, 14:35:10.083, 1553970910083
22, -29738.03, 0.00, 0.00, 0.00, 0.00, 0.00, 0.00, -7737.21, 0.000, 0.000, 0.000, 14:35:10.083, 1553970910083
23, -29665.95, 0.00, 0.00, 0.00, 0.00, 0.00, 0.00, -7707.22, 0.000, 0.000, 0.000, 14:35:10.083, 1553970910083
24, -29652.63, 0.00, 0.00, 0.00, 0.00, 0.00, 0.00, -7709.34, 0.000, 0.000, 0.000, 14:35:10.083, 1553970910083
25, -29724.33, 0.00, 0.00, 0.00, 0.00, 0.00, 0.00, -7738.42, 0.000, 0.000, 0.000, 14:35:10.083, 1553970910083
26, -29751.74, 0.00, 0.00, 0.00, 0.00, 0.00, 0.00, -7752.95, 0.000, 0.000, 0.000, 14:35:10.083, 1553970910083
27, -29677.62, 0.00, 0.00, 0.00, 0.00, 0.00, 0.00, -7720.11, 0.000, 0.000, 0.000, 14:35:10.083, 1553970910083
28, -29647.24, 0.00, 0.00, 0.00, 0.00, 0.00, 0.00, -7715.71, 0.000, 0.000, 0.000, 14:35:10.084, 1553970910084
29, -29713.67, 0.00, 0.00, 0.00, 0.00, 0.00, 0.00, -7743.23, 0.000, 0.000, 0.000, 14:35:10.084, 1553970910084
30, -29750.44, 0.00, 0.00, 0.00, 0.00, 0.00, 0.00, -7750.33, 0.000, 0.000, 0.000, 14:35:10.084, 1553970910084
31, -29683.32, 0.00, 0.00, 0.00, 0.00, 0.00, 0.00, -7719.09, 0.078, 0.096, -1.022, 14:35:10.084, 1553970910084
32, -29645.10, 0.00, 0.00, 0.00, 0.00, 0.00, 0.00, -7716.76, 0.000, 0.000, 0.000, 14:35:10.084, 1553970910084
33, -29712.22, 0.00, 0.00, 0.00, 0.00, 0.00, 0.00, -7747.32, 0.000, 0.000, 0.000, 14:35:10.084, 1553970910084
34, -29766.82, 0.00, 0.00, 0.00, 0.00, 0.00, 0.00, -7759.61, 0.000, 0.000, 0.000, 14:35:10.084, 1553970910084
35, -29709.87, 0.00, 0.00, 0.00, 0.00, 0.00, 0.00, -7730.89, 0.000, 0.000, 0.000, 14:35:10.084, 1553970910084
36, -29646.71, 0.00, 0.00, 0.00, 0.00, 0.00, 0.00, -7712.16, 0.000, 0.000, 0.000, 14:35:10.084, 1553970910084
37, -29695.05, 0.00, 0.00, 0.00, 0.00, 0.00, 0.00, -7741.82, 0.000, 0.000, 0.000, 14:35:10.085, 1553970910085
38, -29751.36, 0.00, 0.00, 0.00, 0.00, 0.00, 0.00, -7756.03, 0.000, 0.000, 0.000, 14:35:10.085, 1553970910085
39, -29711.79, 0.00, 0.00, 0.00, 0.00, 0.00, 0.00, -7733.26, 0.000, 0.000, 0.000, 14:35:10.085, 1553970910085
40, -29644.07, 0.00, 0.00, 0.00, 0.00, 0.00, 0.00, -7713.12, 0.000, 0.000, 0.000, 14:35:10.085, 1553970910085
41, -29668.99, 0.00, 0.00, 0.00, 0.00, 0.00, 0.00, -7729.14, 0.076, 0.088, -1.024, 14:35:10.085, 1553970910085
42, -29746.13, 0.00, 0.00, 0.00, 0.00, 0.00, 0.00, -7757.73, 0.000, 0.000, 0.000, 14:35:10.085, 1553970910085
43, -29721.34, 0.00, 0.00, 0.00, 0.00, 0.00, 0.00, -7737.53, 0.000, 0.000, 0.000, 14:35:10.085, 1553970910085
44, -29663.65, 0.00, 0.00, 0.00, 0.00, 0.00, 0.00, -7726.80, 0.000, 0.000, 0.000, 14:35:10.085, 1553970910085
45, -29674.40, 0.00, 0.00, 0.00, 0.00, 0.00, 0.00, -7738.26, 0.000, 0.000, 0.000, 14:35:10.085, 1553970910085
46, -29744.43, 0.00, 0.00, 0.00, 0.00, 0.00, 0.00, -7760.08, 0.000, 0.000, 0.000, 14:35:10.085, 1553970910085
47, -29742.33, 0.00, 0.00, 0.00, 0.00, 0.00, 0.00, -7747.87, 0.000, 0.000, 0.000, 14:35:10.085, 1553970910085
48, -29661.97, 0.00, 0.00, 0.00, 0.00, 0.00, 0.00, -7715.71, 0.000, 0.000, 0.000, 14:35:10.085, 1553970910085
49, -29653.43, 0.00, 0.00, 0.00, 0.00, 0.00, 0.00, -7722.50, 0.000, 0.000, 0.000, 14:35:10.085, 1553970910085
50, -29721.72, 0.00, 0.00, 0.00, 0.00, 0.00, 0.00, -7747.38, 0.000, 0.000, 0.000, 14:35:10.085, 1553970910085
51, -29740.25, 0.00, 0.00, 0.00, 0.00, 0.00, 0.00, -7739.51, 0.080, 0.090, -1.032, 14:35:10.085, 1553970910085
52, -29673.84, 0.00, 0.00, 0.00, 0.00, 0.00, 0.00, -7715.46, 0.000, 0.000, 0.000, 14:35:10.085, 1553970910085
53, -29644.38, 0.00, 0.00, 0.00, 0.00, 0.00, 0.00, -7715.64, 0.000, 0.000, 0.000, 14:35:10.085, 1553970910085
54, -29707.95, 0.00, 0.00, 0.00, 0.00, 0.00, 0.00, -7741.66, 0.000, 0.000, 0.000, 14:35:10.085, 1553970910085
55, -29747.27, 0.00, 0.00, 0.00, 0.00, 0.00, 0.00, -7745.42, 0.000, 0.000, 0.000, 14:35:10.085, 1553970910085
56, -29687.97, 0.00, 0.00, 0.00, 0.00, 0.00, 0.00, -7717.39, 0.000, 0.000, 0.000, 14:35:10.086, 1553970910086
57, -29647.93, 0.00, 0.00, 0.00, 0.00, 0.00, 0.00, -7716.40, 0.000, 0.000, 0.000, 14:35:10.086, 1553970910086
58, -29693.78, 0.00, 0.00, 0.00, 0.00, 0.00, 0.00, -7735.18, 0.000, 0.000, 0.000, 14:35:10.086, 1553970910086
59, -29751.42, 0.00, 0.00, 0.00, 0.00, 0.00, 0.00, -7748.72, 0.000, 0.000, 0.000, 14:35:10.086, 1553970910086
60, -29699.32, 0.00, 0.00, 0.00, 0.00, 0.00, 0.00, -7723.62, 0.076, 0.098, -1.026, 14:35:10.086, 1553970910086
61, -29636.49, 0.00, 0.00, 0.00, 0.00, 0.00, 0.00, -7706.68, 0.000, 0.000, 0.000, 14:35:10.086, 1553970910086
62, -29677.04, 0.00, 0.00, 0.00, 0.00, 0.00, 0.00, -7730.62, 0.000, 0.000, 0.000, 14:35:10.086, 1553970910086
63, -29744.25, 0.00, 0.00, 0.00, 0.00, 0.00, 0.00, -7754.51, 0.000, 0.000, 0.000, 14:35:10.086, 1553970910086
64, -29708.11, 0.00, 0.00, 0.00, 0.00, 0.00, 0.00, -7727.47, 0.000, 0.000, 0.000, 14:35:10.087, 1553970910087
65, -29640.47, 0.00, 0.00, 0.00, 0.00, 0.00, 0.00, -7706.93, 0.000, 0.000, 0.000, 14:35:10.087, 1553970910087
66, -29664.00, 0.00, 0.00, 0.00, 0.00, 0.00, 0.00, -7724.34, 0.000, 0.000, 0.000, 14:35:10.087, 1553970910087
67, -29733.83, 0.00, 0.00, 0.00, 0.00, 0.00, 0.00, -7749.68, 0.000, 0.000, 0.000, 14:35:10.087, 1553970910087
68, -29718.81, 0.00, 0.00, 0.00, 0.00, 0.00, 0.00, -7739.31, 0.000, 0.000, 0.000, 14:35:10.087, 1553970910087
69, -29649.12, 0.00, 0.00, 0.00, 0.00, 0.00, 0.00, -7714.19, 0.000, 0.000, 0.000, 14:35:10.087, 1553970910087
70, -29660.34, 0.00, 0.00, 0.00, 0.00, 0.00, 0.00, -7730.35, 0.074, 0.098, -1.028, 14:35:10.087, 1553970910087
71, -29732.29, 0.00, 0.00, 0.00, 0.00, 0.00, 0.00, -7750.65, 0.000, 0.000, 0.000, 14:35:10.087, 1553970910087
72, -29743.55, 0.00, 0.00, 0.00, 0.00, 0.00, 0.00, -7748.77, 0.000, 0.000, 0.000, 14:35:10.087, 1553970910087
73, -29670.69, 0.00, 0.00, 0.00, 0.00, 0.00, 0.00, -7723.80, 0.000, 0.000, 0.000, 14:35:10.087, 1553970910087
74, -29645.79, 0.00, 0.00, 0.00, 0.00, 0.00, 0.00, -7719.44, 0.000, 0.000, 0.000, 14:35:10.087, 1553970910087
75, -29718.65, 0.00, 0.00, 0.00, 0.00, 0.00, 0.00, -7745.93, 0.000, 0.000, 0.000, 14:35:10.087, 1553970910087
76, -29743.51, 0.00, 0.00, 0.00, 0.00, 0.00, 0.00, -7749.53, 0.000, 0.000, 0.000, 14:35:10.087, 1553970910087
77, -29674.58, 0.00, 0.00, 0.00, 0.00, 0.00, 0.00, -7719.26, 0.000, 0.000, 0.000, 14:35:10.087, 1553970910087
78, -29654.88, 0.00, 0.00, 0.00, 0.00, 0.00, 0.00, -7725.59, 0.000, 0.000, 0.000, 14:35:10.088, 1553970910088
79, -29709.96, 0.00, 0.00, 0.00, 0.00, 0.00, 0.00, -7747.20, 0.000, 0.000, 0.000, 14:35:10.088, 1553970910088
80, -29751.22, 0.00, 0.00, 0.00, 0.00, 0.00, 0.00, -7756.14, 0.078, 0.098, -1.028, 14:35:10.088, 1553970910088
81, -29694.04, 0.00, 0.00, 0.00, 0.00, 0.00, 0.00, -7729.90, 0.000, 0.000, 0.000, 14:35:10.088, 1553970910088
82, -29639.75, 0.00, 0.00, 0.00, 0.00, 0.00, 0.00, -7709.76, 0.000, 0.000, 0.000, 14:35:10.088, 1553970910088
83, -29704.30, 0.00, 0.00, 0.00, 0.00, 0.00, 0.00, -7742.87, 0.000, 0.000, 0.000, 14:35:10.088, 1553970910088
84, -29762.40, 0.00, 0.00, 0.00, 0.00, 0.00, 0.00, -7762.89, 0.000, 0.000, 0.000, 14:35:10.088, 1553970910088
85, -29707.79, 0.00, 0.00, 0.00, 0.00, 0.00, 0.00, -7735.58, 0.000, 0.000, 0.000, 14:35:10.088, 1553970910088
86, -29640.18, 0.00, 0.00, 0.00, 0.00, 0.00, 0.00, -7712.63, 0.000, 0.000, 0.000, 14:35:10.088, 1553970910088
87, -29675.09, 0.00, 0.00, 0.00, 0.00, 0.00, 0.00, -7727.47, 0.000, 0.000, 0.000, 14:35:10.088, 1553970910088
88, -29740.49, 0.00, 0.00, 0.00, 0.00, 0.00, 0.00, -7742.78, 0.000, 0.000, 0.000, 14:35:10.088, 1553970910088
89, -29725.92, 0.00, 0.00, 0.00, 0.00, 0.00, 0.00, -7738.15, 0.000, 0.000, 0.000, 14:35:10.088, 1553970910088
90, -29665.21, 0.00, 0.00, 0.00, 0.00, 0.00, 0.00, -7728.45, 0.074, 0.102, -1.026, 14:35:10.088, 1553970910088
91, -29678.22, 0.00, 0.00, 0.00, 0.00, 0.00, 0.00, -7739.45, 0.000, 0.000, 0.000, 14:35:10.562, 1553970910562
92, -29744.83, 0.00, 0.00, 0.00, 0.00, 0.00, 0.00, -7757.19, 0.000, 0.000, 0.000, 14:35:10.562, 1553970910562
93, -29734.77, 0.00, 0.00, 0.00, 0.00, 0.00, 0.00, -7741.39, 0.000, 0.000, 0.000, 14:35:10.562, 1553970910562
94, -29653.59, 0.00, 0.00, 0.00, 0.00, 0.00, 0.00, -7710.17, 0.000, 0.000, 0.000, 14:35:10.562, 1553970910562
95, -29653.66, 0.00, 0.00, 0.00, 0.00, 0.00, 0.00, -7717.25, 0.000, 0.000, 0.000, 14:35:10.562, 1553970910562
96, -29727.64, 0.00, 0.00, 0.00, 0.00, 0.00, 0.00, -7739.92, 0.000, 0.000, 0.000, 14:35:10.562, 1553970910562
97, -29744.61, 0.00, 0.00, 0.00, 0.00, 0.00, 0.00, -7742.71, 0.000, 0.000, 0.000, 14:35:10.562, 1553970910562
98, -29671.20, 0.00, 0.00, 0.00, 0.00, 0.00, 0.00, -7717.39, 0.000, 0.000, 0.000, 14:35:10.562, 1553970910562
99, -29650.24, 0.00, 0.00, 0.00, 0.00, 0.00, 0.00, -7720.49, 0.000, 0.000, 0.000, 14:35:10.562, 1553970910562
100, -29718.37, 0.00, 0.00, 0.00, 0.00, 0.00, 0.00, -7746.53, 0.078, 0.098, -1.024, 14:35:10.562, 1553970910562
101, -29738.23, 0.00, 0.00, 0.00, 0.00, 0.00, 0.00, -7734.75, 0.000, 0.000, 0.000, 14:35:10.562, 1553970910562
102, -29677.35, 0.00, 0.00, 0.00, 0.00, 0.00, 0.00, -7711.04, 0.000, 0.000, 0.000, 14:35:10.562, 1553970910562
103, -29650.28, 0.00, 0.00, 0.00, 0.00, 0.00, 0.00, -7716.65, 0.000, 0.000, 0.000, 14:35:10.562, 1553970910562
104, -29697.09, 0.00, 0.00, 0.00, 0.00, 0.00, 0.00, -7736.43, 0.000, 0.000, 0.000, 14:35:10.562, 1553970910562
105, -29745.46, 0.00, 0.00, 0.00, 0.00, 0.00, 0.00, -7752.97, 0.000, 0.000, 0.000, 14:35:10.562, 1553970910562
106, -29692.15, 0.00, 0.00, 0.00, 0.00, 0.00, 0.00, -7731.18, 0.000, 0.000, 0.000, 14:35:10.562, 1553970910562
107, -29641.90, 0.00, 0.00, 0.00, 0.00, 0.00, 0.00, -7717.79, 0.000, 0.000, 0.000, 14:35:10.563, 1553970910563
108, -29689.96, 0.00, 0.00, 0.00, 0.00, 0.00, 0.00, -7740.43, 0.000, 0.000, 0.000, 14:35:10.563, 1553970910563
109, -29749.32, 0.00, 0.00, 0.00, 0.00, 0.00, 0.00, -7760.32, 0.000, 0.000, 0.000, 14:35:10.563, 1553970910563
110, -29714.21, 0.00, 0.00, 0.00, 0.00, 0.00, 0.00, -7741.79, 0.078, 0.100, -1.026, 14:35:10.563, 1553970910563
111, -29658.66, 0.00, 0.00, 0.00, 0.00, 0.00, 0.00, -7726.66, 0.000, 0.000, 0.000, 14:35:10.563, 1553970910563
112, -29689.06, 0.00, 0.00, 0.00, 0.00, 0.00, 0.00, -7746.69, 0.000, 0.000, 0.000, 14:35:10.563, 1553970910563
113, -29759.69, 0.00, 0.00, 0.00, 0.00, 0.00, 0.00, -7775.99, 0.000, 0.000, 0.000, 14:35:10.563, 1553970910563
114, -29732.94, 0.00, 0.00, 0.00, 0.00, 0.00, 0.00, -7758.04, 0.000, 0.000, 0.000, 14:35:10.563, 1553970910563
115, -29656.63, 0.00, 0.00, 0.00, 0.00, 0.00, 0.00, -7732.52, 0.000, 0.000, 0.000, 14:35:10.563, 1553970910563
116, -29667.27, 0.00, 0.00, 0.00, 0.00, 0.00, 0.00, -7742.00, 0.000, 0.000, 0.000, 14:35:10.563, 1553970910563
117, -29743.46, 0.00, 0.00, 0.00, 0.00, 0.00, 0.00, -7764.46, 0.000, 0.000, 0.000, 14:35:10.563, 1553970910563
118, -29730.37, 0.00, 0.00, 0.00, 0.00, 0.00, 0.00, -7747.25, 0.000, 0.000, 0.000, 14:35:10.563, 1553970910563
119, -29659.65, 0.00, 0.00, 0.00, 0.00, 0.00, 0.00, -7725.37, 0.000, 0.000, 0.000, 14:35:10.563, 1553970910563
120, -29664.29, 0.00, 0.00, 0.00, 0.00, 0.00, 0.00, -7743.11, 0.072, 0.096, -1.028, 14:35:10.563, 1553970910563
121, -29735.55, 0.00, 0.00, 0.00, 0.00, 0.00, 0.00, -7766.72, 0.000, 0.000, 0.000, 14:35:10.563, 1553970910563
122, -29752.05, 0.00, 0.00, 0.00, 0.00, 0.00, 0.00, -7758.42, 0.000, 0.000, 0.000, 14:35:10.564, 1553970910564
123, -29685.55, 0.00, 0.00, 0.00, 0.00, 0.00, 0.00, -7735.18, 0.000, 0.000, 0.000, 14:35:10.564, 1553970910564
124, -29661.39, 0.00, 0.00, 0.00, 0.00, 0.00, 0.00, -7738.71, 0.000, 0.000, 0.000, 14:35:10.564, 1553970910564
125, -29719.91, 0.00, 0.00, 0.00, 0.00, 0.00, 0.00, -7757.46, 0.000, 0.000, 0.000, 14:35:10.564, 1553970910564
126, -29757.86, 0.00, 0.00, 0.00, 0.00, 0.00, 0.00, -7766.05, 0.000, 0.000, 0.000, 14:35:10.564, 1553970910564
127, -29690.13, 0.00, 0.00, 0.00, 0.00, 0.00, 0.00, -7745.28, 0.000, 0.000, 0.000, 14:35:10.564, 1553970910564
128, -29652.76, 0.00, 0.00, 0.00, 0.00, 0.00, 0.00, -7731.11, 0.000, 0.000, 0.000, 14:35:10.564, 1553970910564
129, -29701.24, 0.00, 0.00, 0.00, 0.00, 0.00, 0.00, -7743.43, 0.072, 0.100, -1.024, 14:35:10.564, 1553970910564
130, -29754.02, 0.00, 0.00, 0.00, 0.00, 0.00, 0.00, -7759.23, 0.000, 0.000, 0.000, 14:35:10.564, 1553970910564
131, -29716.84, 0.00, 0.00, 0.00, 0.00, 0.00, 0.00, -7748.75, 0.000, 0.000, 0.000, 14:35:10.564, 1553970910564
132, -29660.70, 0.00, 0.00, 0.00, 0.00, 0.00, 0.00, -7736.90, 0.000, 0.000, 0.000, 14:35:10.565, 1553970910565
133, -29697.69, 0.00, 0.00, 0.00, 0.00, 0.00, 0.00, -7755.99, 0.000, 0.000, 0.000, 14:35:10.565, 1553970910565
134, -29767.14, 0.00, 0.00, 0.00, 0.00, 0.00, 0.00, -7776.28, 0.000, 0.000, 0.000, 14:35:10.565, 1553970910565
135, -29733.50, 0.00, 0.00, 0.00, 0.00, 0.00, 0.00, -7753.51, 0.000, 0.000, 0.000, 14:35:10.565, 1553970910565
136, -29647.58, 0.00, 0.00, 0.00, 0.00, 0.00, 0.00, -7725.70, 0.000, 0.000, 0.000, 14:35:10.565, 1553970910565
137, -29673.77, 0.00, 0.00, 0.00, 0.00, 0.00, 0.00, -7743.92, 0.000, 0.000, 0.000, 14:35:10.565, 1553970910565
138, -29738.15, 0.00, 0.00, 0.00, 0.00, 0.00, 0.00, -7763.03, 0.000, 0.000, 0.000, 14:35:10.565, 1553970910565
139, -29729.96, 0.00, 0.00, 0.00, 0.00, 0.00, 0.00, -7757.53, 0.076, 0.098, -1.024, 14:35:10.565, 1553970910565
140, -29655.82, 0.00, 0.00, 0.00, 0.00, 0.00, 0.00, -7737.82, 0.000, 0.000, 0.000, 14:35:10.565, 1553970910565
141, -29659.31, 0.00, 0.00, 0.00, 0.00, 0.00, 0.00, -7741.79, 0.000, 0.000, 0.000, 14:35:10.565, 1553970910565
142, -29726.21, 0.00, 0.00, 0.00, 0.00, 0.00, 0.00, -7757.08, 0.000, 0.000, 0.000, 14:35:10.565, 1553970910565
143, -29728.40, 0.00, 0.00, 0.00, 0.00, 0.00, 0.00, -7751.94, 0.000, 0.000, 0.000, 14:35:10.565, 1553970910565
144, -29655.00, 0.00, 0.00, 0.00, 0.00, 0.00, 0.00, -7720.60, 0.000, 0.000, 0.000, 14:35:10.565, 1553970910565
145, -29649.16, 0.00, 0.00, 0.00, 0.00, 0.00, 0.00, -7733.64, 0.000, 0.000, 0.000, 14:35:10.565, 1553970910565
146, -29714.95, 0.00, 0.00, 0.00, 0.00, 0.00, 0.00, -7754.98, 0.000, 0.000, 0.000, 14:35:10.565, 1553970910565
147, -29741.59, 0.00, 0.00, 0.00, 0.00, 0.00, 0.00, -7758.49, 0.000, 0.000, 0.000, 14:35:10.565, 1553970910565
148, -29666.33, 0.00, 0.00, 0.00, 0.00, 0.00, 0.00, -7730.08, 0.000, 0.000, 0.000, 14:35:10.565, 1553970910565
149, -29637.56, 0.00, 0.00, 0.00, 0.00, 0.00, 0.00, -7725.88, 0.082, 0.098, -1.020, 14:35:10.565, 1553970910565
150, -29686.51, 0.00, 0.00, 0.00, 0.00, 0.00, 0.00, -7733.12, 0.000, 0.000, 0.000, 14:35:10.565, 1553970910565
151, -29720.46, 0.00, 0.00, 0.00, 0.00, 0.00, 0.00, -7738.49, 0.000, 0.000, 0.000, 14:35:10.565, 1553970910565
152, -29681.75, 0.00, 0.00, 0.00, 0.00, 0.00, 0.00, -7733.86, 0.000, 0.000, 0.000, 14:35:10.565, 1553970910565
153, -29652.43, 0.00, 0.00, 0.00, 0.00, 0.00, 0.00, -7743.02, 0.000, 0.000, 0.000, 14:35:10.566, 1553970910566
154, -29684.88, 0.00, 0.00, 0.00, 0.00, 0.00, 0.00, -7742.35, 0.000, 0.000, 0.000, 14:35:10.566, 1553970910566
155, -29724.29, 0.00, 0.00, 0.00, 0.00, 0.00, 0.00, -7741.53, 0.000, 0.000, 0.000, 14:35:10.566, 1553970910566
156, -29698.29, 0.00, 0.00, 0.00, 0.00, 0.00, 0.00, -7740.61, 0.000, 0.000, 0.000, 14:35:10.566, 1553970910566
157, -29663.67, 0.00, 0.00, 0.00, 0.00, 0.00, 0.00, -7742.89, 0.000, 0.000, 0.000, 14:35:10.566, 1553970910566
158, -29699.34, 0.00, 0.00, 0.00, 0.00, 0.00, 0.00, -7751.36, 0.000, 0.000, 0.000, 14:35:10.566, 1553970910566
159, -29740.31, 0.00, 0.00, 0.00, 0.00, 0.00, 0.00, -7750.15, 0.086, 0.096, -1.018, 14:35:10.566, 1553970910566
160, -29714.21, 0.00, 0.00, 0.00, 0.00, 0.00, 0.00, -7743.60, 0.000, 0.000, 0.000, 14:35:10.566, 1553970910566
161, -29669.35, 0.00, 0.00, 0.00, 0.00, 0.00, 0.00, -7741.03, 0.000, 0.000, 0.000, 14:35:10.566, 1553970910566
162, -29684.50, 0.00, 0.00, 0.00, 0.00, 0.00, 0.00, -7750.04, 0.000, 0.000, 0.000, 14:35:10.566, 1553970910566
163, -29720.71, 0.00, 0.00, 0.00, 0.00, 0.00, 0.00, -7741.33, 0.000, 0.000, 0.000, 14:35:10.566, 1553970910566
164, -29709.00, 0.00, 0.00, 0.00, 0.00, 0.00, 0.00, -7731.92, 0.000, 0.000, 0.000, 14:35:10.566, 1553970910566
165, -29661.99, 0.00, 0.00, 0.00, 0.00, 0.00, 0.00, -7729.77, 0.000, 0.000, 0.000, 14:35:10.566, 1553970910566
166, -29670.33, 0.00, 0.00, 0.00, 0.00, 0.00, 0.00, -7737.03, 0.000, 0.000, 0.000, 14:35:10.566, 1553970910566
167, -29711.93, 0.00, 0.00, 0.00, 0.00, 0.00, 0.00, -7734.51, 0.000, 0.000, 0.000, 14:35:10.566, 1553970910566
168, -29717.56, 0.00, 0.00, 0.00, 0.00, 0.00, 0.00, -7734.73, 0.000, 0.000, 0.000, 14:35:10.567, 1553970910567
169, -29674.53, 0.00, 0.00, 0.00, 0.00, 0.00, 0.00, -7734.28, 0.086, 0.096, -1.018, 14:35:10.567, 1553970910567
170, -29663.54, 0.00, 0.00, 0.00, 0.00, 0.00, 0.00, -7741.39, 0.000, 0.000, 0.000, 14:35:10.567, 1553970910567
171, -29696.24, 0.00, 0.00, 0.00, 0.00, 0.00, 0.00, -7726.91, 0.000, 0.000, 0.000, 14:35:10.567, 1553970910567
172, -29714.54, 0.00, 0.00, 0.00, 0.00, 0.00, 0.00, -7723.58, 0.000, 0.000, 0.000, 14:35:10.567, 1553970910567
173, -29670.02, 0.00, 0.00, 0.00, 0.00, 0.00, 0.00, -7721.23, 0.000, 0.000, 0.000, 14:35:10.567, 1553970910567
174, -29657.17, 0.00, 0.00, 0.00, 0.00, 0.00, 0.00, -7741.41, 0.000, 0.000, 0.000, 14:35:10.567, 1553970910567
175, -29687.72, 0.00, 0.00, 0.00, 0.00, 0.00, 0.00, -7735.18, 0.000, 0.000, 0.000, 14:35:10.567, 1553970910567
176, -29716.31, 0.00, 0.00, 0.00, 0.00, 0.00, 0.00, -7726.73, 0.000, 0.000, 0.000, 14:35:10.567, 1553970910567
177, -29681.75, 0.00, 0.00, 0.00, 0.00, 0.00, 0.00, -7723.11, 0.000, 0.000, 0.000, 14:35:10.567, 1553970910567
178, -29654.21, 0.00, 0.00, 0.00, 0.00, 0.00, 0.00, -7733.61, 0.000, 0.000, 0.000, 14:35:10.567, 1553970910567
179, -29674.82, 0.00, 0.00, 0.00, 0.00, 0.00, 0.00, -7724.67, 0.080, 0.100, -1.018, 14:35:10.567, 1553970910567
180, -29714.16, 0.00, 0.00, 0.00, 0.00, 0.00, 0.00, -7726.28, 0.000, 0.000, 0.000, 14:35:10.567, 1553970910567
181, -29689.33, 0.00, 0.00, 0.00, 0.00, 0.00, 0.00, -7723.96, 0.000, 0.000, 0.000, 14:35:10.567, 1553970910567
182, -29645.50, 0.00, 0.00, 0.00, 0.00, 0.00, 0.00, -7725.03, 0.000, 0.000, 0.000, 14:35:10.567, 1553970910567
183, -29663.09, 0.00, 0.00, 0.00, 0.00, 0.00, 0.00, -7724.47, 0.000, 0.000, 0.000, 14:35:10.568, 1553970910568
184, -29704.95, 0.00, 0.00, 0.00, 0.00, 0.00, 0.00, -7721.95, 0.000, 0.000, 0.000, 14:35:10.568, 1553970910568
185, -29703.43, 0.00, 0.00, 0.00, 0.00, 0.00, 0.00, -7729.05, 0.000, 0.000, 0.000, 14:35:10.568, 1553970910568
186, -29667.27, 0.00, 0.00, 0.00, 0.00, 0.00, 0.00, -7736.41, 0.000, 0.000, 0.000, 14:35:10.568, 1553970910568
187, -29670.35, 0.00, 0.00, 0.00, 0.00, 0.00, 0.00, -7735.63, 0.000, 0.000, 0.000, 14:35:10.568, 1553970910568
188, -29700.71, 0.00, 0.00, 0.00, 0.00, 0.00, 0.00, -7719.11, 0.076, 0.096, -1.020, 14:35:10.568, 1553970910568
189, -29696.59, 0.00, 0.00, 0.00, 0.00, 0.00, 0.00, -7712.45, 0.000, 0.000, 0.000, 14:35:10.568, 1553970910568
190, -29666.87, 0.00, 0.00, 0.00, 0.00, 0.00, 0.00, -7724.76, 0.000, 0.000, 0.000, 14:35:10.568, 1553970910568
191, -29666.89, 0.00, 0.00, 0.00, 0.00, 0.00, 0.00, -7735.09, 0.000, 0.000, 0.000, 14:35:10.568, 1553970910568
192, -29696.04, 0.00, 0.00, 0.00, 0.00, 0.00, 0.00, -7720.56, 0.000, 0.000, 0.000, 14:35:10.568, 1553970910568
193, -29711.59, 0.00, 0.00, 0.00, 0.00, 0.00, 0.00, -7719.76, 0.000, 0.000, 0.000, 14:35:10.568, 1553970910568
194, -29671.80, 0.00, 0.00, 0.00, 0.00, 0.00, 0.00, -7723.18, 0.000, 0.000, 0.000, 14:35:10.568, 1553970910568
195, -29658.35, 0.00, 0.00, 0.00, 0.00, 0.00, 0.00, -7727.42, 0.000, 0.000, 0.000, 14:35:10.568, 1553970910568
196, -29699.61, 0.00, 0.00, 0.00, 0.00, 0.00, 0.00, -7725.59, 0.000, 0.000, 0.000, 14:35:10.568, 1553970910568
197, -29723.84, 0.00, 0.00, 0.00, 0.00, 0.00, 0.00, -7728.29, 0.000, 0.000, 0.000, 14:35:10.568, 1553970910568
198, -29686.63, 0.00, 0.00, 0.00, 0.00, 0.00, 0.00, -7730.53, 0.080, 0.100, -1.020, 14:35:10.568, 1553970910568
199, -29664.14, 0.00, 0.00, 0.00, 0.00, 0.00, 0.00, -7740.41, 0.000, 0.000, 0.000, 14:35:10.568, 1553970910568
200, -29681.91, 0.00, 0.00, 0.00, 0.00, 0.00, 0.00, -7723.13, 0.000, 0.000, 0.000, 14:35:10.569, 1553970910569
201, -29718.23, 0.00, 0.00, 0.00, 0.00, 0.00, 0.00, -7730.37, 0.000, 0.000, 0.000, 14:35:10.569, 1553970910569
202, -29681.98, 0.00, 0.00, 0.00, 0.00, 0.00, 0.00, -7721.32, 0.000, 0.000, 0.000, 14:35:10.569, 1553970910569
203, -29657.90, 0.00, 0.00, 0.00, 0.00, 0.00, 0.00, -7731.42, 0.000, 0.000, 0.000, 14:35:10.569, 1553970910569
204, -29680.46, 0.00, 0.00, 0.00, 0.00, 0.00, 0.00, -7728.50, 0.000, 0.000, 0.000, 14:35:10.569, 1553970910569
205, -29718.74, 0.00, 0.00, 0.00, 0.00, 0.00, 0.00, -7730.40, 0.000, 0.000, 0.000, 14:35:10.569, 1553970910569
206, -29701.47, 0.00, 0.00, 0.00, 0.00, 0.00, 0.00, -7731.60, 0.000, 0.000, 0.000, 14:35:10.569, 1553970910569
207, -29670.04, 0.00, 0.00, 0.00, 0.00, 0.00, 0.00, -7739.60, 0.000, 0.000, 0.000, 14:35:10.569, 1553970910569
208, -29682.47, 0.00, 0.00, 0.00, 0.00, 0.00, 0.00, -7733.39, 0.082, 0.100, -1.022, 14:35:10.569, 1553970910569
209, -29720.09, 0.00, 0.00, 0.00, 0.00, 0.00, 0.00, -7727.60, 0.000, 0.000, 0.000, 14:35:10.569, 1553970910569
210, -29699.48, 0.00, 0.00, 0.00, 0.00, 0.00, 0.00, -7720.16, 0.000, 0.000, 0.000, 14:35:10.569, 1553970910569
211, -29651.87, 0.00, 0.00, 0.00, 0.00, 0.00, 0.00, -7721.12, 0.000, 0.000, 0.000, 14:35:11.040, 1553970911040
212, -29656.12, 0.00, 0.00, 0.00, 0.00, 0.00, 0.00, -7724.81, 0.000, 0.000, 0.000, 14:35:11.040, 1553970911040
213, -29695.32, 0.00, 0.00, 0.00, 0.00, 0.00, 0.00, -7716.98, 0.000, 0.000, 0.000, 14:35:11.040, 1553970911040
214, -29703.48, 0.00, 0.00, 0.00, 0.00, 0.00, 0.00, -7723.96, 0.000, 0.000, 0.000, 14:35:11.040, 1553970911040
215, -29654.82, 0.00, 0.00, 0.00, 0.00, 0.00, 0.00, -7720.16, 0.000, 0.000, 0.000, 14:35:11.040, 1553970911040
216, -29661.21, 0.00, 0.00, 0.00, 0.00, 0.00, 0.00, -7729.88, 0.000, 0.000, 0.000, 14:35:11.040, 1553970911040
217, -29697.44, 0.00, 0.00, 0.00, 0.00, 0.00, 0.00, -7721.68, 0.000, 0.000, 0.000, 14:35:11.040, 1553970911040
218, -29712.53, 0.00, 0.00, 0.00, 0.00, 0.00, 0.00, -7726.19, 0.078, 0.098, -1.020, 14:35:11.040, 1553970911040
219, -29662.71, 0.00, 0.00, 0.00, 0.00, 0.00, 0.00, -7723.73, 0.000, 0.000, 0.000, 14:35:11.040, 1553970911040
220, -29648.92, 0.00, 0.00, 0.00, 0.00, 0.00, 0.00, -7736.07, 0.000, 0.000, 0.000, 14:35:11.041, 1553970911041
221, -29678.47, 0.00, 0.00, 0.00, 0.00, 0.00, 0.00, -7720.09, 0.000, 0.000, 0.000, 14:35:11.041, 1553970911041
222, -29706.61, 0.00, 0.00, 0.00, 0.00, 0.00, 0.00, -7720.99, 0.000, 0.000, 0.000, 14:35:11.041, 1553970911041
223, -29669.97, 0.00, 0.00, 0.00, 0.00, 0.00, 0.00, -7721.21, 0.000, 0.000, 0.000, 14:35:11.041, 1553970911041
224, -29652.63, 0.00, 0.00, 0.00, 0.00, 0.00, 0.00, -7738.64, 0.000, 0.000, 0.000, 14:35:11.041, 1553970911041
225, -29682.15, 0.00, 0.00, 0.00, 0.00, 0.00, 0.00, -7732.97, 0.000, 0.000, 0.000, 14:35:11.041, 1553970911041
226, -29713.13, 0.00, 0.00, 0.00, 0.00, 0.00, 0.00, -7729.10, 0.000, 0.000, 0.000, 14:35:11.041, 1553970911041
227, -29683.27, 0.00, 0.00, 0.00, 0.00, 0.00, 0.00, -7727.11, 0.000, 0.000, 0.000, 14:35:11.041, 1553970911041
228, -29658.64, 0.00, 0.00, 0.00, 0.00, 0.00, 0.00, -7741.19, 0.080, 0.098, -1.018, 14:35:11.041, 1553970911041
229, -29682.56, 0.00, 0.00, 0.00, 0.00, 0.00, 0.00, -7743.00, 0.000, 0.000, 0.000, 14:35:11.041, 1553970911041
230, -29720.20, 0.00, 0.00, 0.00, 0.00, 0.00, 0.00, -7734.04, 0.000, 0.000, 0.000, 14:35:11.041, 1553970911041
231, -29703.81, 0.00, 0.00, 0.00, 0.00, 0.00, 0.00, -7734.87, 0.000, 0.000, 0.000, 14:35:11.041, 1553970911041
232, -29663.92, 0.00, 0.00, 0.00, 0.00, 0.00, 0.00, -7739.16, 0.000, 0.000, 0.000, 14:35:11.041, 1553970911041
233, -29672.05, 0.00, 0.00, 0.00, 0.00, 0.00, 0.00, -7736.01, 0.000, 0.000, 0.000, 14:35:11.041, 1553970911041
234, -29705.22, 0.00, 0.00, 0.00, 0.00, 0.00, 0.00, -7721.79, 0.000, 0.000, 0.000, 14:35:11.041, 1553970911041
235, -29698.74, 0.00, 0.00, 0.00, 0.00, 0.00, 0.00, -7721.83, 0.000, 0.000, 0.000, 14:35:11.041, 1553970911041
236, -29651.49, 0.00, 0.00, 0.00, 0.00, 0.00, 0.00, -7727.94, 0.000, 0.000, 0.000, 14:35:11.041, 1553970911041
237, -29661.61, 0.00, 0.00, 0.00, 0.00, 0.00, 0.00, -7733.68, 0.000, 0.000, 0.000, 14:35:11.041, 1553970911041
238, -29703.70, 0.00, 0.00, 0.00, 0.00, 0.00, 0.00, -7725.21, 0.080, 0.098, -1.024, 14:35:11.041, 1553970911041
239, -29713.07, 0.00, 0.00, 0.00, 0.00, 0.00, 0.00, -7731.62, 0.000, 0.000, 0.000, 14:35:11.042, 1553970911042
240, -29664.92, 0.00, 0.00, 0.00, 0.00, 0.00, 0.00, -7729.21, 0.000, 0.000, 0.000, 14:35:11.042, 1553970911042
241, -29653.37, 0.00, 0.00, 0.00, 0.00, 0.00, 0.00, -7728.09, 0.000, 0.000, 0.000, 14:35:11.042, 1553970911042
242, -29688.41, 0.00, 0.00, 0.00, 0.00, 0.00, 0.00, -7714.97, 0.000, 0.000, 0.000, 14:35:11.042, 1553970911042
243, -29721.25, 0.00, 0.00, 0.00, 0.00, 0.00, 0.00, -7731.69, 0.000, 0.000, 0.000, 14:35:11.042, 1553970911042
244, -29677.21, 0.00, 0.00, 0.00, 0.00, 0.00, 0.00, -7735.69, 0.000, 0.000, 0.000, 14:35:11.042, 1553970911042
245, -29651.40, 0.00, 0.00, 0.00, 0.00, 0.00, 0.00, -7734.40, 0.000, 0.000, 0.000, 14:35:11.043, 1553970911043
246, -29683.96, 0.00, 0.00, 0.00, 0.00, 0.00, 0.00, -7725.59, 0.000, 0.000, 0.000, 14:35:11.043, 1553970911043
247, -29718.07, 0.00, 0.00, 0.00, 0.00, 0.00, 0.00, -7733.39, 0.000, 0.000, 0.000, 14:35:11.043, 1553970911043
248, -29685.15, 0.00, 0.00, 0.00, 0.00, 0.00, 0.00, -7735.07, 0.082, 0.098, -1.024, 14:35:11.043, 1553970911043
249, -29655.40, 0.00, 0.00, 0.00, 0.00, 0.00, 0.00, -7736.39, 0.000, 0.000, 0.000, 14:35:11.043, 1553970911043
250, -29677.19, 0.00, 0.00, 0.00, 0.00, 0.00, 0.00, -7725.14, 0.000, 0.000, 0.000, 14:35:11.043, 1553970911043
251, -29709.98, 0.00, 0.00, 0.00, 0.00, 0.00, 0.00, -7720.29, 0.000, 0.000, 0.000, 14:35:11.043, 1553970911043
252, -29684.52, 0.00, 0.00, 0.00, 0.00, 0.00, 0.00, -7716.25, 0.000, 0.000, 0.000, 14:35:11.043, 1553970911043
253, -29654.82, 0.00, 0.00, 0.00, 0.00, 0.00, 0.00, -7725.59, 0.000, 0.000, 0.000, 14:35:11.043, 1553970911043
254, -29677.35, 0.00, 0.00, 0.00, 0.00, 0.00, 0.00, -7727.04, 0.000, 0.000, 0.000, 14:35:11.043, 1553970911043
255, -29711.14, 0.00, 0.00, 0.00, 0.00, 0.00, 0.00, -7719.51, 0.000, 0.000, 0.000, 14:35:11.043, 1553970911043
0, -29702.45, 0.00, 0.00, 0.00, 0.00, 0.00, 0.00, -7725.32, 0.000, 0.000, 0.000, 14:35:11.043, 1553970911043
1, -29653.90, 0.00, 0.00, 0.00, 0.00, 0.00, 0.00, -7727.82, 0.078, 0.098, -1.024, 14:35:11.043, 1553970911043
2, -29656.27, 0.00, 0.00, 0.00, 0.00, 0.00, 0.00, -7722.97, 0.000, 0.000, 0.000, 14:35:11.043, 1553970911043
3, -29698.96, 0.00, 0.00, 0.00, 0.00, 0.00, 0.00, -7718.57, 0.000, 0.000, 0.000, 14:35:11.043, 1553970911043
4, -29703.84, 0.00, 0.00, 0.00, 0.00, 0.00, 0.00, -7726.04, 0.000, 0.000, 0.000, 14:35:11.043, 1553970911043
5, -29658.48, 0.00, 0.00, 0.00, 0.00, 0.00, 0.00, -7725.90, 0.000, 0.000, 0.000, 14:35:11.043, 1553970911043
6, -29653.43, 0.00, 0.00, 0.00, 0.00, 0.00, 0.00, -7721.12, 0.000, 0.000, 0.000, 14:35:11.043, 1553970911043
7, -29693.49, 0.00, 0.00, 0.00, 0.00, 0.00, 0.00, -7716.43, 0.000, 0.000, 0.000, 14:35:11.043, 1553970911043
8, -29699.61, 0.00, 0.00, 0.00, 0.00, 0.00, 0.00, -7715.06, 0.000, 0.000, 0.000, 14:35:11.043, 1553970911043
9, -29661.86, 0.00, 0.00, 0.00, 0.00, 0.00, 0.00, -7716.74, 0.000, 0.000, 0.000, 14:35:11.044, 1553970911044
10, -29648.22, 0.00, 0.00, 0.00, 0.00, 0.00, 0.00, -7720.90, 0.000, 0.000, 0.000, 14:35:11.044, 1553970911044
11, -29678.89, 0.00, 0.00, 0.00, 0.00, 0.00, 0.00, -7707.24, 0.076, 0.102, -1.018, 14:35:11.044, 1553970911044
12, -29701.98, 0.00, 0.00, 0.00, 0.00, 0.00, 0.00, -7709.32, 0.000, 0.000, 0.000, 14:35:11.044, 1553970911044
13, -29656.16, 0.00, 0.00, 0.00, 0.00, 0.00, 0.00, -7705.43, 0.000, 0.000, 0.000, 14:35:11.044, 1553970911044
14, -29644.98, 0.00, 0.00, 0.00, 0.00, 0.00, 0.00, -7720.67, 0.000, 0.000, 0.000, 14:35:11.044, 1553970911044
15, -29677.13, 0.00, 0.00, 0.00, 0.00, 0.00, 0.00, -7715.06, 0.000, 0.000, 0.000, 14:35:11.044, 1553970911044
16, -29701.40, 0.00, 0.00, 0.00, 0.00, 0.00, 0.00, -7712.69, 0.000, 0.000, 0.000, 14:35:11.044, 1553970911044
17, -29658.37, 0.00, 0.00, 0.00, 0.00, 0.00, 0.00, -7702.88, 0.000, 0.000, 0.000, 14:35:11.044, 1553970911044
18, -29641.25, 0.00, 0.00, 0.00, 0.00, 0.00, 0.00, -7718.26, 0.000, 0.000, 0.000, 14:35:11.044, 1553970911044
19, -29672.21, 0.00, 0.00, 0.00, 0.00, 0.00, 0.00, -7719.33, 0.000, 0.000, 0.000, 14:35:11.044, 1553970911044
20, -29696.13, 0.00, 0.00, 0.00, 0.00, 0.00, 0.00, -7712.60, 0.000, 0.000, 0.000, 14:35:11.044, 1553970911044
21, -29670.58, 0.00, 0.00, 0.00, 0.00, 0.00, 0.00, -7715.31, 0.080, 0.094, -1.022, 14:35:11.044, 1553970911044
22, -29637.27, 0.00, 0.00, 0.00, 0.00, 0.00, 0.00, -7719.64, 0.000, 0.000, 0.000, 14:35:11.045, 1553970911045
23, -29659.33, 0.00, 0.00, 0.00, 0.00, 0.00, 0.00, -7714.59, 0.000, 0.000, 0.000, 14:35:11.045, 1553970911045
24, -29700.04, 0.00, 0.00, 0.00, 0.00, 0.00, 0.00, -7715.29, 0.000, 0.000, 0.000, 14:35:11.045, 1553970911045
25, -29682.31, 0.00, 0.00, 0.00, 0.00, 0.00, 0.00, -7712.74, 0.000, 0.000, 0.000, 14:35:11.045, 1553970911045
26, -29654.53, 0.00, 0.00, 0.00, 0.00, 0.00, 0.00, -7727.82, 0.000, 0.000, 0.000, 14:35:11.045, 1553970911045
27, -29661.23, 0.00, 0.00, 0.00, 0.00, 0.00, 0.00, -7732.79, 0.000, 0.000, 0.000, 14:35:11.045, 1553970911045
28, -29697.44, 0.00, 0.00, 0.00, 0.00, 0.00, 0.00, -7721.43, 0.000, 0.000, 0.000, 14:35:11.045, 1553970911045
29, -29692.37, 0.00, 0.00, 0.00, 0.00, 0.00, 0.00, -7715.24, 0.000, 0.000, 0.000, 14:35:11.046, 1553970911046
30, -29646.71, 0.00, 0.00, 0.00, 0.00, 0.00, 0.00, -7715.98, 0.000, 0.000, 0.000, 14:35:11.046, 1553970911046
31, -29654.88, 0.00, 0.00, 0.00, 0.00, 0.00, 0.00, -7729.46, 0.076, 0.094, -1.022, 14:35:11.046, 1553970911046
32, -29695.28, 0.00, 0.00, 0.00, 0.00, 0.00, 0.00, -7725.14, 0.000, 0.000, 0.000, 14:35:11.046, 1553970911046
33, -29705.82, 0.00, 0.00, 0.00, 0.00, 0.00, 0.00, -7721.86, 0.000, 0.000, 0.000, 14:35:11.046, 1553970911046
34, -29660.05, 0.00, 0.00, 0.00, 0.00, 0.00, 0.00, -7721.45, 0.000, 0.000, 0.000, 14:35:11.046, 1553970911046
35, -29655.04, 0.00, 0.00, 0.00, 0.00, 0.00, 0.00, -7730.17, 0.000, 0.000, 0.000, 14:35:11.046, 1553970911046
36, -29680.81, 0.00, 0.00, 0.00, 0.00, 0.00, 0.00, -7708.54, 0.000, 0.000, 0.000, 14:35:11.046, 1553970911046
37, -29708.28, 0.00, 0.00, 0.00, 0.00, 0.00, 0.00, -7713.88, 0.000, 0.000, 0.000, 14:35:11.046, 1553970911046
38, -29672.48, 0.00, 0.00, 0.00, 0.00, 0.00, 0.00, -7714.46, 0.000, 0.000, 0.000, 14:35:11.046, 1553970911046
39, -29655.31, 0.00, 0.00, 0.00, 0.00, 0.00, 0.00, -7729.48, 0.000, 0.000, 0.000, 14:35:11.046, 1553970911046
40, -29672.12, 0.00, 0.00, 0.00, 0.00, 0.00, 0.00, -7713.61, 0.000, 0.000, 0.000, 14:35:11.046, 1553970911046
41, -29695.39, 0.00, 0.00, 0.00, 0.00, 0.00, 0.00, -7705.83, 0.074, 0.098, -1.016, 14:35:11.046, 1553970911046
42, -29666.55, 0.00, 0.00, 0.00, 0.00, 0.00, 0.00, -7707.04, 0.000, 0.000, 0.000, 14:35:11.046, 1553970911046
43, -29639.75, 0.00, 0.00, 0.00, 0.00, 0.00, 0.00, -7720.56, 0.000, 0.000, 0.000, 14:35:11.047, 1553970911047
44, -29670.87, 0.00, 0.00, 0.00, 0.00, 0.00, 0.00, -7726.71, 0.000, 0.000, 0.000, 14:35:11.047, 1553970911047
45, -29702.90, 0.00, 0.00, 0.00, 0.00, 0.00, 0.00, -7722.62, 0.000, 0.000, 0.000, 14:35:11.047, 1553970911047
46, -29678.49, 0.00, 0.00, 0.00, 0.00, 0.00, 0.00, -7711.73, 0.000, 0.000, 0.000, 14:35:11.047, 1553970911047
47, -29647.82, 0.00, 0.00, 0.00, 0.00, 0.00, 0.00, -7723.35, 0.000, 0.000, 0.000, 14:35:11.047, 1553970911047
48, -29657.90, 0.00, 0.00, 0.00, 0.00, 0.00, 0.00, -7713.83, 0.000, 0.000, 0.000, 14:35:11.048, 1553970911048
49, -29693.20, 0.00, 0.00, 0.00, 0.00, 0.00, 0.00, -7704.87, 0.000, 0.000, 0.000, 14:35:11.048, 1553970911048
50, -29685.46, 0.00, 0.00, 0.00, 0.00, 0.00, 0.00, -7709.85, 0.000, 0.000, 0.000, 14:35:11.048, 1553970911048
51, -29651.98, 0.00, 0.00, 0.00, 0.00, 0.00, 0.00, -7718.82, 0.072, 0.102, -1.020, 14:35:11.048, 1553970911048
52, -29654.04, 0.00, 0.00, 0.00, 0.00, 0.00, 0.00, -7717.70, 0.000, 0.000, 0.000, 14:35:11.048, 1553970911048
53, -29685.75, 0.00, 0.00, 0.00, 0.00, 0.00, 0.00, -7703.71, 0.000, 0.000, 0.000, 14:35:11.048, 1553970911048
54, -29686.89, 0.00, 0.00, 0.00, 0.00, 0.00, 0.00, -7703.13, 0.000, 0.000, 0.000, 14:35:11.048, 1553970911048
55, -29646.44, 0.00, 0.00, 0.00, 0.00, 0.00, 0.00, -7708.58, 0.000, 0.000, 0.000, 14:35:11.048, 1553970911048
56, -29648.18, 0.00, 0.00, 0.00, 0.00, 0.00, 0.00, -7714.57, 0.000, 0.000, 0.000, 14:35:11.048, 1553970911048
57, -29684.66, 0.00, 0.00, 0.00, 0.00, 0.00, 0.00, -7705.76, 0.000, 0.000, 0.000, 14:35:11.048, 1553970911048
58, -29700.71, 0.00, 0.00, 0.00, 0.00, 0.00, 0.00, -7711.55, 0.000, 0.000, 0.000, 14:35:11.048, 1553970911048
59, -29657.50, 0.00, 0.00, 0.00, 0.00, 0.00, 0.00, -7708.76, 0.000, 0.000, 0.000, 14:35:11.048, 1553970911048
60, -29647.98, 0.00, 0.00, 0.00, 0.00, 0.00, 0.00, -7720.38, 0.000, 0.000, 0.000, 14:35:11.048, 1553970911048
61, -29672.07, 0.00, 0.00, 0.00, 0.00, 0.00, 0.00, -7705.96, 0.074, 0.102, -1.026, 14:35:11.048, 1553970911048
62, -29698.07, 0.00, 0.00, 0.00, 0.00, 0.00, 0.00, -7709.36, 0.000, 0.000, 0.000, 14:35:11.048, 1553970911048
63, -29656.79, 0.00, 0.00, 0.00, 0.00, 0.00, 0.00, -7708.40, 0.000, 0.000, 0.000, 14:35:11.048, 1553970911048
64, -29630.19, 0.00, 0.00, 0.00, 0.00, 0.00, 0.00, -7716.90, 0.000, 0.000, 0.000, 14:35:11.048, 1553970911048
65, -29660.14, 0.00, 0.00, 0.00, 0.00, 0.00, 0.00, -7710.93, 0.000, 0.000, 0.000, 14:35:11.049, 1553970911049
66, -29694.49, 0.00, 0.00, 0.00, 0.00, 0.00, 0.00, -7710.90, 0.000, 0.000, 0.000, 14:35:11.049, 1553970911049
67, -29656.67, 0.00, 0.00, 0.00, 0.00, 0.00, 0.00, -7703.19, 0.000, 0.000, 0.000, 14:35:11.049, 1553970911049
68, -29624.55, 0.00, 0.00, 0.00, 0.00, 0.00, 0.00, -7704.58, 0.000, 0.000, 0.000, 14:35:11.049, 1553970911049
69, -29660.67, 0.00, 0.00, 0.00, 0.00, 0.00, 0.00, -7709.09, 0.000, 0.000, 0.000, 14:35:11.049, 1553970911049
70, -29714.36, 0.00, 0.00, 0.00, 0.00, 0.00, 0.00, -7721.34, 0.076, 0.098, -1.024, 14:35:11.049, 1553970911049
71, -29690.00, 0.00, 0.00, 0.00, 0.00, 0.00, 0.00, -7716.63, 0.000, 0.000, 0.000, 14:35:11.049, 1553970911049
72, -29650.17, 0.00, 0.00, 0.00, 0.00, 0.00, 0.00, -7720.74, 0.000, 0.000, 0.000, 14:35:11.049, 1553970911049
73, -29653.72, 0.00, 0.00, 0.00, 0.00, 0.00, 0.00, -7710.41, 0.000, 0.000, 0.000, 14:35:11.049, 1553970911049
74, -29691.74, 0.00, 0.00, 0.00, 0.00, 0.00, 0.00, -7699.13, 0.000, 0.000, 0.000, 14:35:11.049, 1553970911049
75, -29686.16, 0.00, 0.00, 0.00, 0.00, 0.00, 0.00, -7700.96, 0.000, 0.000, 0.000, 14:35:11.507, 1553970911507
76, -29640.96, 0.00, 0.00, 0.00, 0.00, 0.00, 0.00, -7702.05, 0.000, 0.000, 0.000, 14:35:11.507, 1553970911507
77, -29646.64, 0.00, 0.00, 0.00, 0.00, 0.00, 0.00, -7700.42, 0.000, 0.000, 0.000, 14:35:11.507, 1553970911507
78, -29677.53, 0.00, 0.00, 0.00, 0.00, 0.00, 0.00, -7688.15, 0.000, 0.000, 0.000, 14:35:11.508, 1553970911508
79, -29692.77, 0.00, 0.00, 0.00, 0.00, 0.00, 0.00, -7700.20, 0.000, 0.000, 0.000, 14:35:11.508, 1553970911508
80, -29654.19, 0.00, 0.00, 0.00, 0.00, 0.00, 0.00, -7706.14, 0.076, 0.096, -1.020, 14:35:11.508, 1553970911508
81, -29647.62, 0.00, 0.00, 0.00, 0.00, 0.00, 0.00, -7714.17, 0.000, 0.000, 0.000, 14:35:11.508, 1553970911508
82, -29677.57, 0.00, 0.00, 0.00, 0.00, 0.00, 0.00, -7694.25, 0.000, 0.000, 0.000, 14:35:11.508, 1553970911508
83, -29712.08, 0.00, 0.00, 0.00, 0.00, 0.00, 0.00, -7711.15, 0.000, 0.000, 0.000, 14:35:11.508, 1553970911508
84, -29665.93, 0.00, 0.00, 0.00, 0.00, 0.00, 0.00, -7710.95, 0.000, 0.000, 0.000, 14:35:11.508, 1553970911508
85, -29647.96, 0.00, 0.00, 0.00, 0.00, 0.00, 0.00, -7714.86, 0.000, 0.000, 0.000, 14:35:11.508, 1553970911508
86, -29683.94, 0.00, 0.00, 0.00, 0.00, 0.00, 0.00, -7708.76, 0.000, 0.000, 0.000, 14:35:11.508, 1553970911508
87, -29711.81, 0.00, 0.00, 0.00, 0.00, 0.00, 0.00, -7707.98, 0.000, 0.000, 0.000, 14:35:11.508, 1553970911508
88, -29670.55, 0.00, 0.00, 0.00, 0.00, 0.00, 0.00, -7701.49, 0.000, 0.000, 0.000, 14:35:11.508, 1553970911508
89, -29646.21, 0.00, 0.00, 0.00, 0.00, 0.00, 0.00, -7709.94, 0.000, 0.000, 0.000, 14:35:11.508, 1553970911508
90, -29671.31, 0.00, 0.00, 0.00, 0.00, 0.00, 0.00, -7699.55, 0.076, 0.102, -1.022, 14:35:11.508, 1553970911508
91, -29710.21, 0.00, 0.00, 0.00, 0.00, 0.00, 0.00, -7700.22, 0.000, 0.000, 0.000, 14:35:11.508, 1553970911508
92, -29676.68, 0.00, 0.00, 0.00, 0.00, 0.00, 0.00, -7695.48, 0.000, 0.000, 0.000, 14:35:11.508, 1553970911508
93, -29636.00, 0.00, 0.00, 0.00, 0.00, 0.00, 0.00, -7695.26, 0.000, 0.000, 0.000, 14:35:11.508, 1553970911508
94, -29648.96, 0.00, 0.00, 0.00, 0.00, 0.00, 0.00, -7686.68, 0.000, 0.000, 0.000, 14:35:11.508, 1553970911508
95, -29700.04, 0.00, 0.00, 0.00, 0.00, 0.00, 0.00, -7694.90, 0.000, 0.000, 0.000, 14:35:11.508, 1553970911508
96, -29686.33, 0.00, 0.00, 0.00, 0.00, 0.00, 0.00, -7697.43, 0.000, 0.000, 0.000, 14:35:11.508, 1553970911508
97, -29646.15, 0.00, 0.00, 0.00, 0.00, 0.00, 0.00, -7701.09, 0.000, 0.000, 0.000, 14:35:11.508, 1553970911508
98, -29645.25, 0.00, 0.00, 0.00, 0.00, 0.00, 0.00, -7693.96, 0.000, 0.000, 0.000, 14:35:11.508, 1553970911508
99, -29679.90, 0.00, 0.00, 0.00, 0.00, 0.00, 0.00, -7681.85, 0.000, 0.000, 0.000, 14:35:11.508, 1553970911508
100, -29673.77, 0.00, 0.00, 0.00, 0.00, 0.00, 0.00, -7678.02, 0.076, 0.098, -1.028, 14:35:11.508, 1553970911508
101, -29629.00, 0.00, 0.00, 0.00, 0.00, 0.00, 0.00, -7683.59, 0.000, 0.000, 0.000, 14:35:11.509, 1553970911509
102, -29624.69, 0.00, 0.00, 0.00, 0.00, 0.00, 0.00, -7681.42, 0.000, 0.000, 0.000, 14:35:11.509, 1553970911509
103, -29662.93, 0.00, 0.00, 0.00, 0.00, 0.00, 0.00, -7670.02, 0.000, 0.000, 0.000, 14:35:11.509, 1553970911509
104, -29671.43, 0.00, 0.00, 0.00, 0.00, 0.00, 0.00, -7669.11, 0.000, 0.000, 0.000, 14:35:11.509, 1553970911509
105, -29634.68, 0.00, 0.00, 0.00, 0.00, 0.00, 0.00, -7673.29, 0.000, 0.000, 0.000, 14:35:11.509, 1553970911509
106, -29629.29, 0.00, 0.00, 0.00, 0.00, 0.00, 0.00, -7681.42, 0.000, 0.000, 0.000, 14:35:11.509, 1553970911509
107, -29661.57, 0.00, 0.00, 0.00, 0.00, 0.00, 0.00, -7669.58, 0.000, 0.000, 0.000, 14:35:11.509, 1553970911509
108, -29684.21, 0.00, 0.00, 0.00, 0.00, 0.00, 0.00, -7678.70, 0.000, 0.000, 0.000, 14:35:11.509, 1553970911509
109, -29654.04, 0.00, 0.00, 0.00, 0.00, 0.00, 0.00, -7689.31, 0.000, 0.000, 0.000, 14:35:11.509, 1553970911509
110, -29641.85, 0.00, 0.00, 0.00, 0.00, 0.00, 0.00, -7699.57, 0.084, 0.102, -1.024, 14:35:11.509, 1553970911509
111, -29664.32, 0.00, 0.00, 0.00, 0.00, 0.00, 0.00, -7685.56, 0.000, 0.000, 0.000, 14:35:11.509, 1553970911509
112, -29692.82, 0.00, 0.00, 0.00, 0.00, 0.00, 0.00, -7692.33, 0.000, 0.000, 0.000, 14:35:11.509, 1553970911509
113, -29661.14, 0.00, 0.00, 0.00, 0.00, 0.00, 0.00, -7700.00, 0.000, 0.000, 0.000, 14:35:11.510, 1553970911510
114, -29632.94, 0.00, 0.00, 0.00, 0.00, 0.00, 0.00, -7700.42, 0.000, 0.000, 0.000, 14:35:11.510, 1553970911510
115, -29657.66, 0.00, 0.00, 0.00, 0.00, 0.00, 0.00, -7691.21, 0.000, 0.000, 0.000, 14:35:11.510, 1553970911510
116, -29694.43, 0.00, 0.00, 0.00, 0.00, 0.00, 0.00, -7693.94, 0.000, 0.000, 0.000, 14:35:11.510, 1553970911510
117, -29664.90, 0.00, 0.00, 0.00, 0.00, 0.00, 0.00, -7692.46, 0.000, 0.000, 0.000, 14:35:11.510, 1553970911510
118, -29637.76, 0.00, 0.00, 0.00, 0.00, 0.00, 0.00, -7706.64, 0.000, 0.000, 0.000, 14:35:11.510, 1553970911510
119, -29660.85, 0.00, 0.00, 0.00, 0.00, 0.00, 0.00, -7708.60, 0.000, 0.000, 0.000, 14:35:11.510, 1553970911510
120, -29699.70, 0.00, 0.00, 0.00, 0.00, 0.00, 0.00, -7703.62, 0.082, 0.108, -1.026, 14:35:11.510, 1553970911510
121, -29685.64, 0.00, 0.00, 0.00, 0.00, 0.00, 0.00, -7705.99, 0.000, 0.000, 0.000, 14:35:11.510, 1553970911510
122, -29647.00, 0.00, 0.00, 0.00, 0.00, 0.00, 0.00, -7708.36, 0.000, 0.000, 0.000, 14:35:11.510, 1553970911510
123, -29650.71, 0.00, 0.00, 0.00, 0.00, 0.00, 0.00, -7699.51, 0.000, 0.000, 0.000, 14:35:11.510, 1553970911510
124, -29691.14, 0.00, 0.00, 0.00, 0.00, 0.00, 0.00, -7692.00, 0.000, 0.000, 0.000, 14:35:11.510, 1553970911510
125, -29692.66, 0.00, 0.00, 0.00, 0.00, 0.00, 0.00, -7695.21, 0.000, 0.000, 0.000, 14:35:11.510, 1553970911510
126, -29656.23, 0.00, 0.00, 0.00, 0.00, 0.00, 0.00, -7708.92, 0.000, 0.000, 0.000, 14:35:11.510, 1553970911510
127, -29658.48, 0.00, 0.00, 0.00, 0.00, 0.00, 0.00, -7715.35, 0.000, 0.000, 0.000, 14:35:11.510, 1553970911510
128, -29690.85, 0.00, 0.00, 0.00, 0.00, 0.00, 0.00, -7701.96, 0.000, 0.000, 0.000, 14:35:11.510, 1553970911510
129, -29696.30, 0.00, 0.00, 0.00, 0.00, 0.00, 0.00, -7694.61, 0.078, 0.104, -1.028, 14:35:11.510, 1553970911510
130, -29666.78, 0.00, 0.00, 0.00, 0.00, 0.00, 0.00, -7712.40, 0.000, 0.000, 0.000, 14:35:11.510, 1553970911510
131, -29653.63, 0.00, 0.00, 0.00, 0.00, 0.00, 0.00, -7720.65, 0.000, 0.000, 0.000, 14:35:11.510, 1553970911510
132, -29667.47, 0.00, 0.00, 0.00, 0.00, 0.00, 0.00, -7695.97, 0.000, 0.000, 0.000, 14:35:11.510, 1553970911510
133, -29694.40, 0.00, 0.00, 0.00, 0.00, 0.00, 0.00, -7698.23, 0.000, 0.000, 0.000, 14:35:11.511, 1553970911511
134, -29658.44, 0.00, 0.00, 0.00, 0.00, 0.00, 0.00, -7698.77, 0.000, 0.000, 0.000, 14:35:11.511, 1553970911511
135, -29632.36, 0.00, 0.00, 0.00, 0.00, 0.00, 0.00, -7704.80, 0.000, 0.000, 0.000, 14:35:11.511, 1553970911511
136, -29658.91, 0.00, 0.00, 0.00, 0.00, 0.00, 0.00, -7694.05, 0.000, 0.000, 0.000, 14:35:11.511, 1553970911511
137, -29696.95, 0.00, 0.00, 0.00, 0.00, 0.00, 0.00, -7702.32, 0.000, 0.000, 0.000, 14:35:11.511, 1553970911511
138, -29666.60, 0.00, 0.00, 0.00, 0.00, 0.00, 0.00, -7699.68, 0.000, 0.000, 0.000, 14:35:11.511, 1553970911511
139, -29641.70, 0.00, 0.00, 0.00, 0.00, 0.00, 0.00, -7707.15, 0.074, 0.102, -1.030, 14:35:11.511, 1553970911511
140, -29661.30, 0.00, 0.00, 0.00, 0.00, 0.00, 0.00, -7699.08, 0.000, 0.000, 0.000, 14:35:11.511, 1553970911511
141, -29688.79, 0.00, 0.00, 0.00, 0.00, 0.00, 0.00, -7695.64, 0.000, 0.000, 0.000, 14:35:11.511, 1553970911511
142, -29681.53, 0.00, 0.00, 0.00, 0.00, 0.00, 0.00, -7710.23, 0.000, 0.000, 0.000, 14:35:11.511, 1553970911511
143, -29646.66, 0.00, 0.00, 0.00, 0.00, 0.00, 0.00, -7715.75, 0.000, 0.000, 0.000, 14:35:11.511, 1553970911511
144, -29657.05, 0.00, 0.00, 0.00, 0.00, 0.00, 0.00, -7705.43, 0.000, 0.000, 0.000, 14:35:11.511, 1553970911511
145, -29700.57, 0.00, 0.00, 0.00, 0.00, 0.00, 0.00, -7709.63, 0.000, 0.000, 0.000, 14:35:11.512, 1553970911512
146, -29691.92, 0.00, 0.00, 0.00, 0.00, 0.00, 0.00, -7712.29, 0.000, 0.000, 0.000, 14:35:11.512, 1553970911512
147, -29654.19, 0.00, 0.00, 0.00, 0.00, 0.00, 0.00, -7717.41, 0.000, 0.000, 0.000, 14:35:11.512, 1553970911512
148, -29653.41, 0.00, 0.00, 0.00, 0.00, 0.00, 0.00, -7710.48, 0.000, 0.000, 0.000, 14:35:11.512, 1553970911512
149, -29685.60, 0.00, 0.00, 0.00, 0.00, 0.00, 0.00, -7691.44, 0.074, 0.100, -1.022, 14:35:11.512, 1553970911512
150, -29695.16, 0.00, 0.00, 0.00, 0.00, 0.00, 0.00, -7697.78, 0.000, 0.000, 0.000, 14:35:11.512, 1553970911512
151, -29652.87, 0.00, 0.00, 0.00, 0.00, 0.00, 0.00, -7702.28, 0.000, 0.000, 0.000, 14:35:11.512, 1553970911512
152, -29646.95, 0.00, 0.00, 0.00, 0.00, 0.00, 0.00, -7699.15, 0.000, 0.000, 0.000, 14:35:11.512, 1553970911512
153, -29683.72, 0.00, 0.00, 0.00, 0.00, 0.00, 0.00, -7687.77, 0.000, 0.000, 0.000, 14:35:11.512, 1553970911512
154, -29700.57, 0.00, 0.00, 0.00, 0.00, 0.00, 0.00, -7688.42, 0.000, 0.000, 0.000, 14:35:11.512, 1553970911512
155, -29663.04, 0.00, 0.00, 0.00, 0.00, 0.00, 0.00, -7694.90, 0.000, 0.000, 0.000, 14:35:11.512, 1553970911512
156, -29659.74, 0.00, 0.00, 0.00, 0.00, 0.00, 0.00, -7707.62, 0.000, 0.000, 0.000, 14:35:11.512, 1553970911512
157, -29679.81, 0.00, 0.00, 0.00, 0.00, 0.00, 0.00, -7693.11, 0.000, 0.000, 0.000, 14:35:11.512, 1553970911512
158, -29704.35, 0.00, 0.00, 0.00, 0.00, 0.00, 0.00, -7696.42, 0.000, 0.000, 0.000, 14:35:11.512, 1553970911512
159, -29671.60, 0.00, 0.00, 0.00, 0.00, 0.00, 0.00, -7699.62, 0.076, 0.100, -1.020, 14:35:11.512, 1553970911512
160, -29657.10, 0.00, 0.00, 0.00, 0.00, 0.00, 0.00, -7710.03, 0.000, 0.000, 0.000, 14:35:11.512, 1553970911512
161, -29673.88, 0.00, 0.00, 0.00, 0.00, 0.00, 0.00, -7694.16, 0.000, 0.000, 0.000, 14:35:11.512, 1553970911512
162, -29697.96, 0.00, 0.00, 0.00, 0.00, 0.00, 0.00, -7690.23, 0.000, 0.000, 0.000, 14:35:11.512, 1553970911512
163, -29666.17, 0.00, 0.00, 0.00, 0.00, 0.00, 0.00, -7688.73, 0.000, 0.000, 0.000, 14:35:11.512, 1553970911512
164, -29650.68, 0.00, 0.00, 0.00, 0.00, 0.00, 0.00, -7707.86, 0.000, 0.000, 0.000, 14:35:11.512, 1553970911512
165, -29661.48, 0.00, 0.00, 0.00, 0.00, 0.00, 0.00, -7693.51, 0.000, 0.000, 0.000, 14:35:11.512, 1553970911512
166, -29711.32, 0.00, 0.00, 0.00, 0.00, 0.00, 0.00, -7703.37, 0.000, 0.000, 0.000, 14:35:11.512, 1553970911512
167, -29701.51, 0.00, 0.00, 0.00, 0.00, 0.00, 0.00, -7712.96, 0.000, 0.000, 0.000, 14:35:11.512, 1553970911512
168, -29651.67, 0.00, 0.00, 0.00, 0.00, 0.00, 0.00, -7704.15, 0.000, 0.000, 0.000, 14:35:11.513, 1553970911513
169, -29652.67, 0.00, 0.00, 0.00, 0.00, 0.00, 0.00, -7697.31, 0.074, 0.098, -1.022, 14:35:11.513, 1553970911513
170, -29694.40, 0.00, 0.00, 0.00, 0.00, 0.00, 0.00, -7696.04, 0.000, 0.000, 0.000, 14:35:11.513, 1553970911513
171, -29690.49, 0.00, 0.00, 0.00, 0.00, 0.00, 0.00, -7698.63, 0.000, 0.000, 0.000, 14:35:11.513, 1553970911513
172, -29644.45, 0.00, 0.00, 0.00, 0.00, 0.00, 0.00, -7697.56, 0.000, 0.000, 0.000, 14:35:11.513, 1553970911513
173, -29641.85, 0.00, 0.00, 0.00, 0.00, 0.00, 0.00, -7689.27, 0.000, 0.000, 0.000, 14:35:11.513, 1553970911513
174, -29694.34, 0.00, 0.00, 0.00, 0.00, 0.00, 0.00, -7690.70, 0.000, 0.000, 0.000, 14:35:11.513, 1553970911513
175, -29698.85, 0.00, 0.00, 0.00, 0.00, 0.00, 0.00, -7699.30, 0.000, 0.000, 0.000, 14:35:11.513, 1553970911513
176, -29660.47, 0.00, 0.00, 0.00, 0.00, 0.00, 0.00, -7707.73, 0.000, 0.000, 0.000, 14:35:11.513, 1553970911513
177, -29652.99, 0.00, 0.00, 0.00, 0.00, 0.00, 0.00, -7714.01, 0.000, 0.000, 0.000, 14:35:11.513, 1553970911513
178, -29681.62, 0.00, 0.00, 0.00, 0.00, 0.00, 0.00, -7695.24, 0.000, 0.000, 0.000, 14:35:11.513, 1553970911513
179, -29699.34, 0.00, 0.00, 0.00, 0.00, 0.00, 0.00, -7697.43, 0.074, 0.100, -1.024, 14:35:11.513, 1553970911513
180, -29664.88, 0.00, 0.00, 0.00, 0.00, 0.00, 0.00, -7700.96, 0.000, 0.000, 0.000, 14:35:11.513, 1553970911513
181, -29649.68, 0.00, 0.00, 0.00, 0.00, 0.00, 0.00, -7705.27, 0.000, 0.000, 0.000, 14:35:11.513, 1553970911513
182, -29672.12, 0.00, 0.00, 0.00, 0.00, 0.00, 0.00, -7686.36, 0.000, 0.000, 0.000, 14:35:11.513, 1553970911513
183, -29702.74, 0.00, 0.00, 0.00, 0.00, 0.00, 0.00, -7690.83, 0.000, 0.000, 0.000, 14:35:11.513, 1553970911513
184, -29671.47, 0.00, 0.00, 0.00, 0.00, 0.00, 0.00, -7696.22, 0.000, 0.000, 0.000, 14:35:11.513, 1553970911513
185, -29654.15, 0.00, 0.00, 0.00, 0.00, 0.00, 0.00, -7710.81, 0.000, 0.000, 0.000, 14:35:11.513, 1553970911513
186, -29680.23, 0.00, 0.00, 0.00, 0.00, 0.00, 0.00, -7702.43, 0.000, 0.000, 0.000, 14:35:11.513, 1553970911513
187, -29705.51, 0.00, 0.00, 0.00, 0.00, 0.00, 0.00, -7696.78, 0.000, 0.000, 0.000, 14:35:11.514, 1553970911514
188, -29675.11, 0.00, 0.00, 0.00, 0.00, 0.00, 0.00, -7696.60, 0.000, 0.000, 0.000, 14:35:11.514, 1553970911514
189, -29644.49, 0.00, 0.00, 0.00, 0.00, 0.00, 0.00, -7704.15, 0.076, 0.094, -1.026, 14:35:11.975, 1553970911975
190, -29657.77, 0.00, 0.00, 0.00, 0.00, 0.00, 0.00, -7689.07, 0.000, 0.000, 0.000, 14:35:11.975, 1553970911975
191, -29691.99, 0.00, 0.00, 0.00, 0.00, 0.00, 0.00, -7684.60, 0.000, 0.000, 0.000, 14:35:11.976, 1553970911976
192, -29681.71, 0.00, 0.00, 0.00, 0.00, 0.00, 0.00, -7693.63, 0.000, 0.000, 0.000, 14:35:11.976, 1553970911976
193, -29646.93, 0.00, 0.00, 0.00, 0.00, 0.00, 0.00, -7701.70, 0.000, 0.000, 0.000, 14:35:11.976, 1553970911976
194, -29655.20, 0.00, 0.00, 0.00, 0.00, 0.00, 0.00, -7694.43, 0.000, 0.000, 0.000, 14:35:11.976, 1553970911976
195, -29681.57, 0.00, 0.00, 0.00, 0.00, 0.00, 0.00, -7678.00, 0.000, 0.000, 0.000, 14:35:11.976, 1553970911976
196, -29676.88, 0.00, 0.00, 0.00, 0.00, 0.00, 0.00, -7678.41, 0.000, 0.000, 0.000, 14:35:11.976, 1553970911976
197, -29632.98, 0.00, 0.00, 0.00, 0.00, 0.00, 0.00, -7679.08, 0.000, 0.000, 0.000, 14:35:11.976, 1553970911976
198, -29632.51, 0.00, 0.00, 0.00, 0.00, 0.00, 0.00, -7682.00, 0.076, 0.098, -1.022, 14:35:11.976, 1553970911976
199, -29670.26, 0.00, 0.00, 0.00, 0.00, 0.00, 0.00, -7678.05, 0.000, 0.000, 0.000, 14:35:11.976, 1553970911976
200, -29686.65, 0.00, 0.00, 0.00, 0.00, 0.00, 0.00, -7687.37, 0.000, 0.000, 0.000, 14:35:11.976, 1553970911976
201, -29648.92, 0.00, 0.00, 0.00, 0.00, 0.00, 0.00, -7691.95, 0.000, 0.000, 0.000, 14:35:11.976, 1553970911976
202, -29638.57, 0.00, 0.00, 0.00, 0.00, 0.00, 0.00, -7695.66, 0.000, 0.000, 0.000, 14:35:11.976, 1553970911976
203, -29660.74, 0.00, 0.00, 0.00, 0.00, 0.00, 0.00, -7680.98, 0.000, 0.000, 0.000, 14:35:11.976, 1553970911976
204, -29685.84, 0.00, 0.00, 0.00, 0.00, 0.00, 0.00, -7689.65, 0.000, 0.000, 0.000, 14:35:11.976, 1553970911976
205, -29650.17, 0.00, 0.00, 0.00, 0.00, 0.00, 0.00, -7691.64, 0.000, 0.000, 0.000, 14:35:11.976, 1553970911976
206, -29639.46, 0.00, 0.00, 0.00, 0.00, 0.00, 0.00, -7701.45, 0.000, 0.000, 0.000, 14:35:11.976, 1553970911976
207, -29661.03, 0.00, 0.00, 0.00, 0.00, 0.00, 0.00, -7684.69, 0.000, 0.000, 0.000, 14:35:11.976, 1553970911976
208, -29688.73, 0.00, 0.00, 0.00, 0.00, 0.00, 0.00, -7682.85, 0.078, 0.100, -1.022, 14:35:11.976, 1553970911976
209, -29658.21, 0.00, 0.00, 0.00, 0.00, 0.00, 0.00, -7685.80, 0.000, 0.000, 0.000, 14:35:11.976, 1553970911976
210, -29628.53, 0.00, 0.00, 0.00, 0.00, 0.00, 0.00, -7691.17, 0.000, 0.000, 0.000, 14:35:11.976, 1553970911976
211, -29644.29, 0.00, 0.00, 0.00, 0.00, 0.00, 0.00, -7680.04, 0.000, 0.000, 0.000, 14:35:11.976, 1553970911976
212, -29684.55, 0.00, 0.00, 0.00, 0.00, 0.00, 0.00, -7685.22, 0.000, 0.000, 0.000, 14:35:11.976, 1553970911976
213, -29659.69, 0.00, 0.00, 0.00, 0.00, 0.00, 0.00, -7684.35, 0.000, 0.000, 0.000, 14:35:11.976, 1553970911976
214, -29633.58, 0.00, 0.00, 0.00, 0.00, 0.00, 0.00, -7692.93, 0.000, 0.000, 0.000, 14:35:11.976, 1553970911976
215, -29650.75, 0.00, 0.00, 0.00, 0.00, 0.00, 0.00, -7687.03, 0.000, 0.000, 0.000, 14:35:11.977, 1553970911977
216, -29689.55, 0.00, 0.00, 0.00, 0.00, 0.00, 0.00, -7682.00, 0.000, 0.000, 0.000, 14:35:11.977, 1553970911977
217, -29674.20, 0.00, 0.00, 0.00, 0.00, 0.00, 0.00, -7682.81, 0.000, 0.000, 0.000, 14:35:11.977, 1553970911977
218, -29639.80, 0.00, 0.00, 0.00, 0.00, 0.00, 0.00, -7692.71, 0.070, 0.100, -1.020, 14:35:11.977, 1553970911977
219, -29641.68, 0.00, 0.00, 0.00, 0.00, 0.00, 0.00, -7686.85, 0.000, 0.000, 0.000, 14:35:11.977, 1553970911977
220, -29678.62, 0.00, 0.00, 0.00, 0.00, 0.00, 0.00, -7681.36, 0.000, 0.000, 0.000, 14:35:11.977, 1553970911977
221, -29683.03, 0.00, 0.00, 0.00, 0.00, 0.00, 0.00, -7687.17, 0.000, 0.000, 0.000, 14:35:11.977, 1553970911977
222, -29642.46, 0.00, 0.00, 0.00, 0.00, 0.00, 0.00, -7690.21, 0.000, 0.000, 0.000, 14:35:11.977, 1553970911977
223, -29636.98, 0.00, 0.00, 0.00, 0.00, 0.00, 0.00, -7686.18, 0.000, 0.000, 0.000, 14:35:11.977, 1553970911977
224, -29674.22, 0.00, 0.00, 0.00, 0.00, 0.00, 0.00, -7679.03, 0.000, 0.000, 0.000, 14:35:11.977, 1553970911977
225, -29686.31, 0.00, 0.00, 0.00, 0.00, 0.00, 0.00, -7690.74, 0.000, 0.000, 0.000, 14:35:11.977, 1553970911977
226, -29648.09, 0.00, 0.00, 0.00, 0.00, 0.00, 0.00, -7692.98, 0.000, 0.000, 0.000, 14:35:11.977, 1553970911977
227, -29639.35, 0.00, 0.00, 0.00, 0.00, 0.00, 0.00, -7689.25, 0.000, 0.000, 0.000, 14:35:11.978, 1553970911978
228, -29676.01, 0.00, 0.00, 0.00, 0.00, 0.00, 0.00, -7682.54, 0.078, 0.102, -1.020, 14:35:11.978, 1553970911978
229, -29701.76, 0.00, 0.00, 0.00, 0.00, 0.00, 0.00, -7692.60, 0.000, 0.000, 0.000, 14:35:11.978, 1553970911978
230, -29664.79, 0.00, 0.00, 0.00, 0.00, 0.00, 0.00, -7693.83, 0.000, 0.000, 0.000, 14:35:11.978, 1553970911978
231, -29641.97, 0.00, 0.00, 0.00, 0.00, 0.00, 0.00, -7694.03, 0.000, 0.000, 0.000, 14:35:11.978, 1553970911978
232, -29664.52, 0.00, 0.00, 0.00, 0.00, 0.00, 0.00, -7679.50, 0.000, 0.000, 0.000, 14:35:11.978, 1553970911978
233, -29684.37, 0.00, 0.00, 0.00, 0.00, 0.00, 0.00, -7675.54, 0.000, 0.000, 0.000, 14:35:11.978, 1553970911978
234, -29650.86, 0.00, 0.00, 0.00, 0.00, 0.00, 0.00, -7674.16, 0.000, 0.000, 0.000, 14:35:11.978, 1553970911978
235, -29633.88, 0.00, 0.00, 0.00, 0.00, 0.00, 0.00, -7688.93, 0.000, 0.000, 0.000, 14:35:11.978, 1553970911978
236, -29657.59, 0.00, 0.00, 0.00, 0.00, 0.00, 0.00, -7687.30, 0.000, 0.000, 0.000, 14:35:11.978, 1553970911978
237, -29694.89, 0.00, 0.00, 0.00, 0.00, 0.00, 0.00, -7689.25, 0.000, 0.000, 0.000, 14:35:11.978, 1553970911978
238, -29669.12, 0.00, 0.00, 0.00, 0.00, 0.00, 0.00, -7687.52, 0.080, 0.102, -1.020, 14:35:11.978, 1553970911978
239, -29642.75, 0.00, 0.00, 0.00, 0.00, 0.00, 0.00, -7695.95, 0.000, 0.000, 0.000, 14:35:11.978, 1553970911978
240, -29660.96, 0.00, 0.00, 0.00, 0.00, 0.00, 0.00, -7695.33, 0.000, 0.000, 0.000, 14:35:11.978, 1553970911978
241, -29696.17, 0.00, 0.00, 0.00, 0.00, 0.00, 0.00, -7684.13, 0.000, 0.000, 0.000, 14:35:11.978, 1553970911978
242, -29678.80, 0.00, 0.00, 0.00, 0.00, 0.00, 0.00, -7682.27, 0.000, 0.000, 0.000, 14:35:11.978, 1553970911978
243, -29650.55, 0.00, 0.00, 0.00, 0.00, 0.00, 0.00, -7692.93, 0.000, 0.000, 0.000, 14:35:11.978, 1553970911978
244, -29659.87, 0.00, 0.00, 0.00, 0.00, 0.00, 0.00, -7699.37, 0.000, 0.000, 0.000, 14:35:11.978, 1553970911978
245, -29692.73, 0.00, 0.00, 0.00, 0.00, 0.00, 0.00, -7689.92, 0.000, 0.000, 0.000, 14:35:11.978, 1553970911978
246, -29693.76, 0.00, 0.00, 0.00, 0.00, 0.00, 0.00, -7690.27, 0.000, 0.000, 0.000, 14:35:11.978, 1553970911978
247, -29649.65, 0.00, 0.00, 0.00, 0.00, 0.00, 0.00, -7693.07, 0.000, 0.000, 0.000, 14:35:11.978, 1553970911978
248, -29646.32, 0.00, 0.00, 0.00, 0.00, 0.00, 0.00, -7693.09, 0.082, 0.104, -1.020, 14:35:11.978, 1553970911978
249, -29681.60, 0.00, 0.00, 0.00, 0.00, 0.00, 0.00, -7680.82, 0.000, 0.000, 0.000, 14:35:11.978, 1553970911978
250, -29690.74, 0.00, 0.00, 0.00, 0.00, 0.00, 0.00, -7681.00, 0.000, 0.000, 0.000, 14:35:11.978, 1553970911978
251, -29658.28, 0.00, 0.00, 0.00, 0.00, 0.00, 0.00, -7686.94, 0.000, 0.000, 0.000, 14:35:11.979, 1553970911979
252, -29640.83, 0.00, 0.00, 0.00, 0.00, 0.00, 0.00, -7694.95, 0.000, 0.000, 0.000, 14:35:11.979, 1553970911979
253, -29671.78, 0.00, 0.00, 0.00, 0.00, 0.00, 0.00, -7686.68, 0.000, 0.000, 0.000, 14:35:11.979, 1553970911979
254, -29695.34, 0.00, 0.00, 0.00, 0.00, 0.00, 0.00, -7687.93, 0.000, 0.000, 0.000, 14:35:11.979, 1553970911979
255, -29657.32, 0.00, 0.00, 0.00, 0.00, 0.00, 0.00, -7692.35, 0.000, 0.000, 0.000, 14:35:11.979, 1553970911979
0, -29644.27, 0.00, 0.00, 0.00, 0.00, 0.00, 0.00, -7701.43, 0.000, 0.000, 0.000, 14:35:11.979, 1553970911979
1, -29671.11, 0.00, 0.00, 0.00, 0.00, 0.00, 0.00, -7692.96, 0.000, 0.000, 0.000, 14:35:11.979, 1553970911979
2, -29696.33, 0.00, 0.00, 0.00, 0.00, 0.00, 0.00, -7684.57, 0.078, 0.098, -1.020, 14:35:11.979, 1553970911979
3, -29662.80, 0.00, 0.00, 0.00, 0.00, 0.00, 0.00, -7679.19, 0.000, 0.000, 0.000, 14:35:11.980, 1553970911980
4, -29639.96, 0.00, 0.00, 0.00, 0.00, 0.00, 0.00, -7686.47, 0.000, 0.000, 0.000, 14:35:11.980, 1553970911980
5, -29656.99, 0.00, 0.00, 0.00, 0.00, 0.00, 0.00, -7675.14, 0.000, 0.000, 0.000, 14:35:11.980, 1553970911980
6, -29693.96, 0.00, 0.00, 0.00, 0.00, 0.00, 0.00, -7675.95, 0.000, 0.000, 0.000, 14:35:11.980, 1553970911980
7, -29688.68, 0.00, 0.00, 0.00, 0.00, 0.00, 0.00, -7691.44, 0.000, 0.000, 0.000, 14:35:11.980, 1553970911980
8, -29660.41, 0.00, 0.00, 0.00, 0.00, 0.00, 0.00, -7700.98, 0.000, 0.000, 0.000, 14:35:11.980, 1553970911980
9, -29664.61, 0.00, 0.00, 0.00, 0.00, 0.00, 0.00, -7691.39, 0.000, 0.000, 0.000, 14:35:11.980, 1553970911980
10, -29694.52, 0.00, 0.00, 0.00, 0.00, 0.00, 0.00, -7680.82, 0.000, 0.000, 0.000, 14:35:11.980, 1553970911980
11, -29688.59, 0.00, 0.00, 0.00, 0.00, 0.00, 0.00, -7686.21, 0.072, 0.096, -1.024, 14:35:11.980, 1553970911980
12, -29648.72, 0.00, 0.00, 0.00, 0.00, 0.00, 0.00, -7687.19, 0.000, 0.000, 0.000, 14:35:11.980, 1553970911980
13, -29653.01, 0.00, 0.00, 0.00, 0.00, 0.00, 0.00, -7688.53, 0.000, 0.000, 0.000, 14:35:11.980, 1553970911980
14, -29678.27, 0.00, 0.00, 0.00, 0.00, 0.00, 0.00, -7676.91, 0.000, 0.000, 0.000, 14:35:11.980, 1553970911980
15, -29678.62, 0.00, 0.00, 0.00, 0.00, 0.00, 0.00, -7675.75, 0.000, 0.000, 0.000, 14:35:11.980, 1553970911980
16, -29650.68, 0.00, 0.00, 0.00, 0.00, 0.00, 0.00, -7688.89, 0.000, 0.000, 0.000, 14:35:11.980, 1553970911980
17, -29653.30, 0.00, 0.00, 0.00, 0.00, 0.00, 0.00, -7695.03, 0.000, 0.000, 0.000, 14:35:11.980, 1553970911980
18, -29683.99, 0.00, 0.00, 0.00, 0.00, 0.00, 0.00, -7683.48, 0.000, 0.000, 0.000, 14:35:11.980, 1553970911980
19, -29699.23, 0.00, 0.00, 0.00, 0.00, 0.00, 0.00, -7691.03, 0.000, 0.000, 0.000, 14:35:11.980, 1553970911980
20, -29661.70, 0.00, 0.00, 0.00, 0.00, 0.00, 0.00, -7693.90, 0.000, 0.000, 0.000, 14:35:11.980, 1553970911980
21, -29641.25, 0.00, 0.00, 0.00, 0.00, 0.00, 0.00, -7693.07, 0.070, 0.096, -1.024, 14:35:11.980, 1553970911980
22, -29659.60, 0.00, 0.00, 0.00, 0.00, 0.00, 0.00, -7671.59, 0.000, 0.000, 0.000, 14:35:11.980, 1553970911980
23, -29686.54, 0.00, 0.00, 0.00, 0.00, 0.00, 0.00, -7677.76, 0.000, 0.000, 0.000, 14:35:11.981, 1553970911981
24, -29650.37, 0.00, 0.00, 0.00, 0.00, 0.00, 0.00, -7675.68, 0.000, 0.000, 0.000, 14:35:11.981, 1553970911981
25, -29629.90, 0.00, 0.00, 0.00, 0.00, 0.00, 0.00, -7676.73, 0.000, 0.000, 0.000, 14:35:11.981, 1553970911981
26, -29670.91, 0.00, 0.00, 0.00, 0.00, 0.00, 0.00, -7678.00, 0.000, 0.000, 0.000, 14:35:11.981, 1553970911981
27, -29693.60, 0.00, 0.00, 0.00, 0.00, 0.00, 0.00, -7677.56, 0.000, 0.000, 0.000, 14:35:11.981, 1553970911981
28, -29660.03, 0.00, 0.00, 0.00, 0.00, 0.00, 0.00, -7675.05, 0.000, 0.000, 0.000, 14:35:11.981, 1553970911981
29, -29635.78, 0.00, 0.00, 0.00, 0.00, 0.00, 0.00, -7685.78, 0.000, 0.000, 0.000, 14:35:11.981, 1553970911981
30, -29655.38, 0.00, 0.00, 0.00, 0.00, 0.00, 0.00, -7674.38, 0.000, 0.000, 0.000, 14:35:11.981, 1553970911981
31, -29688.37, 0.00, 0.00, 0.00, 0.00, 0.00, 0.00, -7669.60, 0.076, 0.102, -1.024, 14:35:11.981, 1553970911981
32, -29675.76, 0.00, 0.00, 0.00, 0.00, 0.00, 0.00, -7677.18, 0.000, 0.000, 0.000, 14:35:11.981, 1553970911981
33, -29638.03, 0.00, 0.00, 0.00, 0.00, 0.00, 0.00, -7682.65, 0.000, 0.000, 0.000, 14:35:11.981, 1553970911981
34, -29641.14, 0.00, 0.00, 0.00, 0.00, 0.00, 0.00, -7670.38, 0.000, 0.000, 0.000, 14:35:11.981, 1553970911981
35, -29674.22, 0.00, 0.00, 0.00, 0.00, 0.00, 0.00, -7659.74, 0.000, 0.000, 0.000, 14:35:11.981, 1553970911981
36, -29672.65, 0.00, 0.00, 0.00, 0.00, 0.00, 0.00, -7666.45, 0.000, 0.000, 0.000, 14:35:11.981, 1553970911981
37, -29636.65, 0.00, 0.00, 0.00, 0.00, 0.00, 0.00, -7675.03, 0.000, 0.000, 0.000, 14:35:11.981, 1553970911981
38, -29642.35, 0.00, 0.00, 0.00, 0.00, 0.00, 0.00, -7679.21, 0.000, 0.000, 0.000, 14:35:11.982, 1553970911982
39, -29687.27, 0.00, 0.00, 0.00, 0.00, 0.00, 0.00, -7674.45, 0.000, 0.000, 0.000, 14:35:11.982, 1553970911982
40, -29692.19, 0.00, 0.00, 0.00, 0.00, 0.00, 0.00, -7678.65, 0.000, 0.000, 0.000, 14:35:11.982, 1553970911982
41, -29640.58, 0.00, 0.00, 0.00, 0.00, 0.00, 0.00, -7674.47, 0.078, 0.100, -1.028, 14:35:11.982, 1553970911982
42, -29635.69, 0.00, 0.00, 0.00, 0.00, 0.00, 0.00, -7681.94, 0.000, 0.000, 0.000, 14:35:11.982, 1553970911982
43, -29661.30, 0.00, 0.00, 0.00, 0.00, 0.00, 0.00, -7663.50, 0.000, 0.000, 0.000, 14:35:11.982, 1553970911982
44, -29680.97, 0.00, 0.00, 0.00, 0.00, 0.00, 0.00, -7665.91, 0.000, 0.000, 0.000, 14:35:11.982, 1553970911982
45, -29639.71, 0.00, 0.00, 0.00, 0.00, 0.00, 0.00, -7663.21, 0.000, 0.000, 0.000, 14:35:11.982, 1553970911982
46, -29634.25, 0.00, 0.00, 0.00, 0.00, 0.00, 0.00, -7670.47, 0.000, 0.000, 0.000, 14:35:11.982, 1553970911982
47, -29666.73, 0.00, 0.00, 0.00, 0.00, 0.00, 0.00, -7660.95, 0.000, 0.000, 0.000, 14:35:11.982, 1553970911982
48, -29684.14, 0.00, 0.00, 0.00, 0.00, 0.00, 0.00, -7656.37, 0.000, 0.000, 0.000, 14:35:11.982, 1553970911982
49, -29653.50, 0.00, 0.00, 0.00, 0.00, 0.00, 0.00, -7655.18, 0.000, 0.000, 0.000, 14:35:11.982, 1553970911982
50, -29639.33, 0.00, 0.00, 0.00, 0.00, 0.00, 0.00, -7667.21, 0.000, 0.000, 0.000, 14:35:11.982, 1553970911982
51, -29660.81, 0.00, 0.00, 0.00, 0.00, 0.00, 0.00, -7661.42, 0.078, 0.100, -1.026, 14:35:11.982, 1553970911982
52, -29690.63, 0.00, 0.00, 0.00, 0.00, 0.00, 0.00, -7658.20, 0.000, 0.000, 0.000, 14:35:11.982, 1553970911982
53, -29666.98, 0.00, 0.00, 0.00, 0.00, 0.00, 0.00, -7663.30, 0.000, 0.000, 0.000, 14:35:12.455, 1553970912455
54, -29637.07, 0.00, 0.00, 0.00, 0.00, 0.00, 0.00, -7672.06, 0.000, 0.000, 0.000, 14:35:12.455, 1553970912455
55, -29651.53, 0.00, 0.00, 0.00, 0.00, 0.00, 0.00, -7663.76, 0.000, 0.000, 0.000, 14:35:12.455, 1553970912455
56, -29687.83, 0.00, 0.00, 0.00, 0.00, 0.00, 0.00, -7663.41, 0.000, 0.000, 0.000, 14:35:12.455, 1553970912455
57, -29668.41, 0.00, 0.00, 0.00, 0.00, 0.00, 0.00, -7659.03, 0.000, 0.000, 0.000, 14:35:12.455, 1553970912455
58, -29631.42, 0.00, 0.00, 0.00, 0.00, 0.00, 0.00, -7660.52, 0.000, 0.000, 0.000, 14:35:12.455, 1553970912455
59, -29634.32, 0.00, 0.00, 0.00, 0.00, 0.00, 0.00, -7654.76, 0.000, 0.000, 0.000, 14:35:12.455, 1553970912455
