%OpenBCI Raw EEG Data
%Number of channels = 8
%Sample Rate = 250.0 Hz
%First Column = SampleIndex
%Last Column = Timestamp 
%Other Columns = EEG data in microvolts followed by Accel Data (in G) interleaved with Aux Data
3, -30783.09, 0.00, 0.00, 0.00, 0.00, 0.00, 0.00, -9883.92, 0.000, 0.000, 0.000, 14:43:19.274, 1553971399274
5, -30749.52, 0.00, 0.00, 0.00, 0.00, 0.00, 0.00, -9907.32, 0.000, 0.000, 0.000, 14:43:19.274, 1553971399274
6, -30744.55, 0.00, 0.00, 0.00, 0.00, 0.00, 0.00, -9904.15, 0.000, 0.000, 0.000, 14:43:19.274, 1553971399274
7, -30775.13, 0.00, 0.00, 0.00, 0.00, 0.00, 0.00, -9899.56, 0.000, 0.000, 0.000, 14:43:19.274, 1553971399274
8, -30770.48, 0.00, 0.00, 0.00, 0.00, 0.00, 0.00, -9884.66, 0.000, 0.000, 0.000, 14:43:19.274, 1553971399274
9, -30740.00, 0.00, 0.00, 0.00, 0.00, 0.00, 0.00, -9897.78, 0.000, 0.000, 0.000, 14:43:19.274, 1553971399274
10, -30770.24, 0.00, 0.00, 0.00, 0.00, 0.00, 0.00, -9937.88, 0.000, 0.000, 0.000, 14:43:19.275, 1553971399275
11, -30807.56, 0.00, 0.00, 0.00, 0.00, 0.00, 0.00, -9933.25, 0.034, 0.090, -1.036, 14:43:19.275, 1553971399275
12, -30826.32, 0.00, 0.00, 0.00, 0.00, 0.00, 0.00, -9942.84, 0.000, 0.000, 0.000, 14:43:19.275, 1553971399275
13, -30768.05, 0.00, 0.00, 0.00, 0.00, 0.00, 0.00, -9925.56, 0.000, 0.000, 0.000, 14:43:19.275, 1553971399275
14, -30758.73, 0.00, 0.00, 0.00, 0.00, 0.00, 0.00, -9930.86, 0.000, 0.000, 0.000, 14:43:19.275, 1553971399275
15, -30782.29, 0.00, 0.00, 0.00, 0.00, 0.00, 0.00, -9915.75, 0.000, 0.000, 0.000, 14:43:19.275, 1553971399275
16, -30805.11, 0.00, 0.00, 0.00, 0.00, 0.00, 0.00, -9908.84, 0.000, 0.000, 0.000, 14:43:19.275, 1553971399275
17, -30762.12, 0.00, 0.00, 0.00, 0.00, 0.00, 0.00, -9909.78, 0.000, 0.000, 0.000, 14:43:19.275, 1553971399275
18, -30744.20, 0.00, 0.00, 0.00, 0.00, 0.00, 0.00, -9921.13, 0.000, 0.000, 0.000, 14:43:19.275, 1553971399275
19, -30794.00, 0.00, 0.00, 0.00, 0.00, 0.00, 0.00, -9930.86, 0.000, 0.000, 0.000, 14:43:19.275, 1553971399275
20, -30811.65, 0.00, 0.00, 0.00, 0.00, 0.00, 0.00, -9911.03, 0.000, 0.000, 0.000, 14:43:19.275, 1553971399275
21, -30765.77, 0.00, 0.00, 0.00, 0.00, 0.00, 0.00, -9913.29, 0.044, 0.086, -1.028, 14:43:19.275, 1553971399275
22, -30728.22, 0.00, 0.00, 0.00, 0.00, 0.00, 0.00, -9909.06, 0.000, 0.000, 0.000, 14:43:19.275, 1553971399275
23, -30762.64, 0.00, 0.00, 0.00, 0.00, 0.00, 0.00, -9897.33, 0.000, 0.000, 0.000, 14:43:19.275, 1553971399275
24, -30855.98, 0.00, 0.00, 0.00, 0.00, 0.00, 0.00, -9953.32, 0.000, 0.000, 0.000, 14:43:19.275, 1553971399275
25, -30798.83, 0.00, 0.00, 0.00, 0.00, 0.00, 0.00, -9922.99, 0.000, 0.000, 0.000, 14:43:19.275, 1553971399275
26, -30730.43, 0.00, 0.00, 0.00, 0.00, 0.00, 0.00, -9884.48, 0.000, 0.000, 0.000, 14:43:19.275, 1553971399275
27, -30738.25, 0.00, 0.00, 0.00, 0.00, 0.00, 0.00, -9899.70, 0.000, 0.000, 0.000, 14:43:19.276, 1553971399276
28, -30776.67, 0.00, 0.00, 0.00, 0.00, 0.00, 0.00, -9901.87, 0.000, 0.000, 0.000, 14:43:19.276, 1553971399276
29, -30776.32, 0.00, 0.00, 0.00, 0.00, 0.00, 0.00, -9886.87, 0.000, 0.000, 0.000, 14:43:19.276, 1553971399276
30, -30746.86, 0.00, 0.00, 0.00, 0.00, 0.00, 0.00, -9904.21, 0.046, 0.084, -1.032, 14:43:19.276, 1553971399276
31, -30718.96, 0.00, 0.00, 0.00, 0.00, 0.00, 0.00, -9890.49, 0.000, 0.000, 0.000, 14:43:19.276, 1553971399276
32, -30772.18, 0.00, 0.00, 0.00, 0.00, 0.00, 0.00, -9888.37, 0.000, 0.000, 0.000, 14:43:19.276, 1553971399276
33, -30769.68, 0.00, 0.00, 0.00, 0.00, 0.00, 0.00, -9865.28, 0.000, 0.000, 0.000, 14:43:19.276, 1553971399276
34, -30689.48, 0.00, 0.00, 0.00, 0.00, 0.00, 0.00, -9851.51, 0.000, 0.000, 0.000, 14:43:19.278, 1553971399278
35, -30727.28, 0.00, 0.00, 0.00, 0.00, 0.00, 0.00, -9906.20, 0.000, 0.000, 0.000, 14:43:19.278, 1553971399278
36, -30774.98, 0.00, 0.00, 0.00, 0.00, 0.00, 0.00, -9901.31, 0.000, 0.000, 0.000, 14:43:19.278, 1553971399278
37, -30794.24, 0.00, 0.00, 0.00, 0.00, 0.00, 0.00, -9920.58, 0.000, 0.000, 0.000, 14:43:19.279, 1553971399279
38, -30712.03, 0.00, 0.00, 0.00, 0.00, 0.00, 0.00, -9843.55, 0.000, 0.000, 0.000, 14:43:19.279, 1553971399279
39, -30677.03, 0.00, 0.00, 0.00, 0.00, 0.00, 0.00, -9849.65, 0.000, 0.000, 0.000, 14:43:19.279, 1553971399279
40, -30739.37, 0.00, 0.00, 0.00, 0.00, 0.00, 0.00, -9880.63, 0.044, 0.084, -1.034, 14:43:19.279, 1553971399279
41, -30768.07, 0.00, 0.00, 0.00, 0.00, 0.00, 0.00, -9877.73, 0.000, 0.000, 0.000, 14:43:19.279, 1553971399279
42, -30728.48, 0.00, 0.00, 0.00, 0.00, 0.00, 0.00, -9871.11, 0.000, 0.000, 0.000, 14:43:19.279, 1553971399279
43, -30680.43, 0.00, 0.00, 0.00, 0.00, 0.00, 0.00, -9856.81, 0.000, 0.000, 0.000, 14:43:19.279, 1553971399279
44, -30718.36, 0.00, 0.00, 0.00, 0.00, 0.00, 0.00, -9861.19, 0.000, 0.000, 0.000, 14:43:19.279, 1553971399279
45, -30761.61, 0.00, 0.00, 0.00, 0.00, 0.00, 0.00, -9859.80, 0.000, 0.000, 0.000, 14:43:19.279, 1553971399279
46, -30719.86, 0.00, 0.00, 0.00, 0.00, 0.00, 0.00, -9867.65, 0.000, 0.000, 0.000, 14:43:19.279, 1553971399279
47, -30718.09, 0.00, 0.00, 0.00, 0.00, 0.00, 0.00, -9900.24, 0.000, 0.000, 0.000, 14:43:19.279, 1553971399279
48, -30740.06, 0.00, 0.00, 0.00, 0.00, 0.00, 0.00, -9903.70, 0.000, 0.000, 0.000, 14:43:19.279, 1553971399279
49, -30779.85, 0.00, 0.00, 0.00, 0.00, 0.00, 0.00, -9901.96, 0.000, 0.000, 0.000, 14:43:19.279, 1553971399279
50, -30749.85, 0.00, 0.00, 0.00, 0.00, 0.00, 0.00, -9878.55, 0.042, 0.078, -1.034, 14:43:19.279, 1553971399279
51, -30675.22, 0.00, 0.00, 0.00, 0.00, 0.00, 0.00, -9867.87, 0.000, 0.000, 0.000, 14:43:19.279, 1553971399279
52, -30718.18, 0.00, 0.00, 0.00, 0.00, 0.00, 0.00, -9893.04, 0.000, 0.000, 0.000, 14:43:19.279, 1553971399279
53, -30760.45, 0.00, 0.00, 0.00, 0.00, 0.00, 0.00, -9878.58, 0.000, 0.000, 0.000, 14:43:19.279, 1553971399279
54, -30725.80, 0.00, 0.00, 0.00, 0.00, 0.00, 0.00, -9857.50, 0.000, 0.000, 0.000, 14:43:19.280, 1553971399280
55, -30679.06, 0.00, 0.00, 0.00, 0.00, 0.00, 0.00, -9855.69, 0.000, 0.000, 0.000, 14:43:19.280, 1553971399280
56, -30700.81, 0.00, 0.00, 0.00, 0.00, 0.00, 0.00, -9873.70, 0.000, 0.000, 0.000, 14:43:19.280, 1553971399280
57, -30734.59, 0.00, 0.00, 0.00, 0.00, 0.00, 0.00, -9852.67, 0.000, 0.000, 0.000, 14:43:19.280, 1553971399280
58, -30748.20, 0.00, 0.00, 0.00, 0.00, 0.00, 0.00, -9857.70, 0.000, 0.000, 0.000, 14:43:19.280, 1553971399280
59, -30713.67, 0.00, 0.00, 0.00, 0.00, 0.00, 0.00, -9870.06, 0.000, 0.000, 0.000, 14:43:19.280, 1553971399280
60, -30683.69, 0.00, 0.00, 0.00, 0.00, 0.00, 0.00, -9852.00, 0.040, 0.076, -1.034, 14:43:19.280, 1553971399280
61, -30722.87, 0.00, 0.00, 0.00, 0.00, 0.00, 0.00, -9847.13, 0.000, 0.000, 0.000, 14:43:19.280, 1553971399280
62, -30727.97, 0.00, 0.00, 0.00, 0.00, 0.00, 0.00, -9834.75, 0.000, 0.000, 0.000, 14:43:19.280, 1553971399280
63, -30681.23, 0.00, 0.00, 0.00, 0.00, 0.00, 0.00, -9830.59, 0.000, 0.000, 0.000, 14:43:19.280, 1553971399280
64, -30663.20, 0.00, 0.00, 0.00, 0.00, 0.00, 0.00, -9838.43, 0.000, 0.000, 0.000, 14:43:19.280, 1553971399280
65, -30705.53, 0.00, 0.00, 0.00, 0.00, 0.00, 0.00, -9844.29, 0.000, 0.000, 0.000, 14:43:19.283, 1553971399283
66, -30740.64, 0.00, 0.00, 0.00, 0.00, 0.00, 0.00, -9848.51, 0.000, 0.000, 0.000, 14:43:19.283, 1553971399283
67, -30702.33, 0.00, 0.00, 0.00, 0.00, 0.00, 0.00, -9850.66, 0.000, 0.000, 0.000, 14:43:19.284, 1553971399284
68, -30664.13, 0.00, 0.00, 0.00, 0.00, 0.00, 0.00, -9845.81, 0.000, 0.000, 0.000, 14:43:19.284, 1553971399284
69, -30695.29, 0.00, 0.00, 0.00, 0.00, 0.00, 0.00, -9847.37, 0.000, 0.000, 0.000, 14:43:19.284, 1553971399284
70, -30721.60, 0.00, 0.00, 0.00, 0.00, 0.00, 0.00, -9831.10, 0.036, 0.070, -1.032, 14:43:19.284, 1553971399284
71, -30698.35, 0.00, 0.00, 0.00, 0.00, 0.00, 0.00, -9831.68, 0.000, 0.000, 0.000, 14:43:19.284, 1553971399284
72, -30671.93, 0.00, 0.00, 0.00, 0.00, 0.00, 0.00, -9846.66, 0.000, 0.000, 0.000, 14:43:19.284, 1553971399284
73, -30701.33, 0.00, 0.00, 0.00, 0.00, 0.00, 0.00, -9854.86, 0.000, 0.000, 0.000, 14:43:19.284, 1553971399284
74, -30743.75, 0.00, 0.00, 0.00, 0.00, 0.00, 0.00, -9849.47, 0.000, 0.000, 0.000, 14:43:19.284, 1553971399284
75, -30717.53, 0.00, 0.00, 0.00, 0.00, 0.00, 0.00, -9836.94, 0.000, 0.000, 0.000, 14:43:19.284, 1553971399284
76, -30675.40, 0.00, 0.00, 0.00, 0.00, 0.00, 0.00, -9838.39, 0.000, 0.000, 0.000, 14:43:19.284, 1553971399284
77, -30700.43, 0.00, 0.00, 0.00, 0.00, 0.00, 0.00, -9862.75, 0.000, 0.000, 0.000, 14:43:19.284, 1553971399284
78, -30745.52, 0.00, 0.00, 0.00, 0.00, 0.00, 0.00, -9863.51, 0.000, 0.000, 0.000, 14:43:19.284, 1553971399284
79, -30725.38, 0.00, 0.00, 0.00, 0.00, 0.00, 0.00, -9844.42, 0.000, 0.000, 0.000, 14:43:19.284, 1553971399284
80, -30686.31, 0.00, 0.00, 0.00, 0.00, 0.00, 0.00, -9852.78, 0.040, 0.074, -1.034, 14:43:19.284, 1553971399284
81, -30708.61, 0.00, 0.00, 0.00, 0.00, 0.00, 0.00, -9872.41, 0.000, 0.000, 0.000, 14:43:19.285, 1553971399285
82, -30741.83, 0.00, 0.00, 0.00, 0.00, 0.00, 0.00, -9860.63, 0.000, 0.000, 0.000, 14:43:19.285, 1553971399285
83, -30745.25, 0.00, 0.00, 0.00, 0.00, 0.00, 0.00, -9852.72, 0.000, 0.000, 0.000, 14:43:19.285, 1553971399285
84, -30695.36, 0.00, 0.00, 0.00, 0.00, 0.00, 0.00, -9846.77, 0.000, 0.000, 0.000, 14:43:19.285, 1553971399285
85, -30694.91, 0.00, 0.00, 0.00, 0.00, 0.00, 0.00, -9863.74, 0.000, 0.000, 0.000, 14:43:19.285, 1553971399285
86, -30741.27, 0.00, 0.00, 0.00, 0.00, 0.00, 0.00, -9864.03, 0.000, 0.000, 0.000, 14:43:19.285, 1553971399285
87, -30736.04, 0.00, 0.00, 0.00, 0.00, 0.00, 0.00, -9834.01, 0.000, 0.000, 0.000, 14:43:19.285, 1553971399285
88, -30691.25, 0.00, 0.00, 0.00, 0.00, 0.00, 0.00, -9835.66, 0.000, 0.000, 0.000, 14:43:19.285, 1553971399285
89, -30673.23, 0.00, 0.00, 0.00, 0.00, 0.00, 0.00, -9850.88, 0.036, 0.074, -1.036, 14:43:19.285, 1553971399285
90, -30724.17, 0.00, 0.00, 0.00, 0.00, 0.00, 0.00, -9865.21, 0.000, 0.000, 0.000, 14:43:19.285, 1553971399285
91, -30752.91, 0.00, 0.00, 0.00, 0.00, 0.00, 0.00, -9861.63, 0.000, 0.000, 0.000, 14:43:19.285, 1553971399285
92, -30717.80, 0.00, 0.00, 0.00, 0.00, 0.00, 0.00, -9855.46, 0.000, 0.000, 0.000, 14:43:19.285, 1553971399285
93, -30689.55, 0.00, 0.00, 0.00, 0.00, 0.00, 0.00, -9860.96, 0.000, 0.000, 0.000, 14:43:19.285, 1553971399285
94, -30713.38, 0.00, 0.00, 0.00, 0.00, 0.00, 0.00, -9859.42, 0.000, 0.000, 0.000, 14:43:19.285, 1553971399285
95, -30735.64, 0.00, 0.00, 0.00, 0.00, 0.00, 0.00, -9841.92, 0.000, 0.000, 0.000, 14:43:19.285, 1553971399285
96, -30707.21, 0.00, 0.00, 0.00, 0.00, 0.00, 0.00, -9836.31, 0.000, 0.000, 0.000, 14:43:19.287, 1553971399287
97, -30688.92, 0.00, 0.00, 0.00, 0.00, 0.00, 0.00, -9863.20, 0.000, 0.000, 0.000, 14:43:19.287, 1553971399287
98, -30725.22, 0.00, 0.00, 0.00, 0.00, 0.00, 0.00, -9880.86, 0.000, 0.000, 0.000, 14:43:19.287, 1553971399287
99, -30760.78, 0.00, 0.00, 0.00, 0.00, 0.00, 0.00, -9865.14, 0.042, 0.070, -1.026, 14:43:19.287, 1553971399287
100, -30734.72, 0.00, 0.00, 0.00, 0.00, 0.00, 0.00, -9855.31, 0.000, 0.000, 0.000, 14:43:19.287, 1553971399287
101, -30699.38, 0.00, 0.00, 0.00, 0.00, 0.00, 0.00, -9866.22, 0.000, 0.000, 0.000, 14:43:19.287, 1553971399287
102, -30707.54, 0.00, 0.00, 0.00, 0.00, 0.00, 0.00, -9865.66, 0.000, 0.000, 0.000, 14:43:19.287, 1553971399287
103, -30741.34, 0.00, 0.00, 0.00, 0.00, 0.00, 0.00, -9857.43, 0.000, 0.000, 0.000, 14:43:19.287, 1553971399287
104, -30737.74, 0.00, 0.00, 0.00, 0.00, 0.00, 0.00, -9860.05, 0.000, 0.000, 0.000, 14:43:19.287, 1553971399287
105, -30707.99, 0.00, 0.00, 0.00, 0.00, 0.00, 0.00, -9877.33, 0.000, 0.000, 0.000, 14:43:19.287, 1553971399287
106, -30694.29, 0.00, 0.00, 0.00, 0.00, 0.00, 0.00, -9872.65, 0.000, 0.000, 0.000, 14:43:19.287, 1553971399287
107, -30735.03, 0.00, 0.00, 0.00, 0.00, 0.00, 0.00, -9859.44, 0.000, 0.000, 0.000, 14:43:19.287, 1553971399287
108, -30751.73, 0.00, 0.00, 0.00, 0.00, 0.00, 0.00, -9862.48, 0.000, 0.000, 0.000, 14:43:19.287, 1553971399287
109, -30702.11, 0.00, 0.00, 0.00, 0.00, 0.00, 0.00, -9855.26, 0.040, 0.072, -1.024, 14:43:19.287, 1553971399287
110, -30677.37, 0.00, 0.00, 0.00, 0.00, 0.00, 0.00, -9852.87, 0.000, 0.000, 0.000, 14:43:19.287, 1553971399287
111, -30728.86, 0.00, 0.00, 0.00, 0.00, 0.00, 0.00, -9856.11, 0.000, 0.000, 0.000, 14:43:19.288, 1553971399288
112, -30752.83, 0.00, 0.00, 0.00, 0.00, 0.00, 0.00, -9857.45, 0.000, 0.000, 0.000, 14:43:19.288, 1553971399288
113, -30712.95, 0.00, 0.00, 0.00, 0.00, 0.00, 0.00, -9860.02, 0.000, 0.000, 0.000, 14:43:19.288, 1553971399288
114, -30701.66, 0.00, 0.00, 0.00, 0.00, 0.00, 0.00, -9876.27, 0.000, 0.000, 0.000, 14:43:19.288, 1553971399288
115, -30727.81, 0.00, 0.00, 0.00, 0.00, 0.00, 0.00, -9866.35, 0.000, 0.000, 0.000, 14:43:19.288, 1553971399288
116, -30749.23, 0.00, 0.00, 0.00, 0.00, 0.00, 0.00, -9851.24, 0.000, 0.000, 0.000, 14:43:19.288, 1553971399288
117, -30697.59, 0.00, 0.00, 0.00, 0.00, 0.00, 0.00, -9833.92, 0.000, 0.000, 0.000, 14:43:19.288, 1553971399288
118, -30687.22, 0.00, 0.00, 0.00, 0.00, 0.00, 0.00, -9860.38, 0.000, 0.000, 0.000, 14:43:19.288, 1553971399288
119, -30717.80, 0.00, 0.00, 0.00, 0.00, 0.00, 0.00, -9874.11, 0.044, 0.076, -1.026, 14:43:19.288, 1553971399288
120, -30753.12, 0.00, 0.00, 0.00, 0.00, 0.00, 0.00, -9860.05, 0.000, 0.000, 0.000, 14:43:19.288, 1553971399288
121, -30726.41, 0.00, 0.00, 0.00, 0.00, 0.00, 0.00, -9846.26, 0.000, 0.000, 0.000, 14:43:19.288, 1553971399288
122, -30692.61, 0.00, 0.00, 0.00, 0.00, 0.00, 0.00, -9858.75, 0.000, 0.000, 0.000, 14:43:19.288, 1553971399288
123, -30708.77, 0.00, 0.00, 0.00, 0.00, 0.00, 0.00, -9861.86, 0.000, 0.000, 0.000, 14:43:19.756, 1553971399756
124, -30749.05, 0.00, 0.00, 0.00, 0.00, 0.00, 0.00, -9860.85, 0.000, 0.000, 0.000, 14:43:19.756, 1553971399756
125, -30740.91, 0.00, 0.00, 0.00, 0.00, 0.00, 0.00, -9865.57, 0.000, 0.000, 0.000, 14:43:19.756, 1553971399756
126, -30704.70, 0.00, 0.00, 0.00, 0.00, 0.00, 0.00, -9868.47, 0.000, 0.000, 0.000, 14:43:19.756, 1553971399756
127, -30722.83, 0.00, 0.00, 0.00, 0.00, 0.00, 0.00, -9882.73, 0.000, 0.000, 0.000, 14:43:19.756, 1553971399756
128, -30761.14, 0.00, 0.00, 0.00, 0.00, 0.00, 0.00, -9875.51, 0.000, 0.000, 0.000, 14:43:19.756, 1553971399756
129, -30756.22, 0.00, 0.00, 0.00, 0.00, 0.00, 0.00, -9869.30, 0.042, 0.078, -1.028, 14:43:19.756, 1553971399756
130, -30676.92, 0.00, 0.00, 0.00, 0.00, 0.00, 0.00, -9832.89, 0.000, 0.000, 0.000, 14:43:19.756, 1553971399756
131, -30664.22, 0.00, 0.00, 0.00, 0.00, 0.00, 0.00, -9833.90, 0.000, 0.000, 0.000, 14:43:19.756, 1553971399756
132, -30726.92, 0.00, 0.00, 0.00, 0.00, 0.00, 0.00, -9850.70, 0.000, 0.000, 0.000, 14:43:19.757, 1553971399757
133, -30730.43, 0.00, 0.00, 0.00, 0.00, 0.00, 0.00, -9841.07, 0.000, 0.000, 0.000, 14:43:19.757, 1553971399757
134, -30707.18, 0.00, 0.00, 0.00, 0.00, 0.00, 0.00, -9857.07, 0.000, 0.000, 0.000, 14:43:19.757, 1553971399757
135, -30721.31, 0.00, 0.00, 0.00, 0.00, 0.00, 0.00, -9883.49, 0.000, 0.000, 0.000, 14:43:19.757, 1553971399757
136, -30729.13, 0.00, 0.00, 0.00, 0.00, 0.00, 0.00, -9872.45, 0.000, 0.000, 0.000, 14:43:19.757, 1553971399757
137, -30740.22, 0.00, 0.00, 0.00, 0.00, 0.00, 0.00, -9859.44, 0.000, 0.000, 0.000, 14:43:19.757, 1553971399757
138, -30689.41, 0.00, 0.00, 0.00, 0.00, 0.00, 0.00, -9833.52, 0.000, 0.000, 0.000, 14:43:19.757, 1553971399757
139, -30662.10, 0.00, 0.00, 0.00, 0.00, 0.00, 0.00, -9835.08, 0.042, 0.080, -1.022, 14:43:19.757, 1553971399757
140, -30707.14, 0.00, 0.00, 0.00, 0.00, 0.00, 0.00, -9845.97, 0.000, 0.000, 0.000, 14:43:19.757, 1553971399757
141, -30739.17, 0.00, 0.00, 0.00, 0.00, 0.00, 0.00, -9841.72, 0.000, 0.000, 0.000, 14:43:19.757, 1553971399757
142, -30702.78, 0.00, 0.00, 0.00, 0.00, 0.00, 0.00, -9835.88, 0.000, 0.000, 0.000, 14:43:19.757, 1553971399757
143, -30670.93, 0.00, 0.00, 0.00, 0.00, 0.00, 0.00, -9837.54, 0.000, 0.000, 0.000, 14:43:19.757, 1553971399757
144, -30717.38, 0.00, 0.00, 0.00, 0.00, 0.00, 0.00, -9857.23, 0.000, 0.000, 0.000, 14:43:19.757, 1553971399757
145, -30770.57, 0.00, 0.00, 0.00, 0.00, 0.00, 0.00, -9870.17, 0.000, 0.000, 0.000, 14:43:19.757, 1553971399757
146, -30739.46, 0.00, 0.00, 0.00, 0.00, 0.00, 0.00, -9860.81, 0.000, 0.000, 0.000, 14:43:19.757, 1553971399757
147, -30697.84, 0.00, 0.00, 0.00, 0.00, 0.00, 0.00, -9864.52, 0.000, 0.000, 0.000, 14:43:19.757, 1553971399757
148, -30708.66, 0.00, 0.00, 0.00, 0.00, 0.00, 0.00, -9862.15, 0.000, 0.000, 0.000, 14:43:19.757, 1553971399757
149, -30726.23, 0.00, 0.00, 0.00, 0.00, 0.00, 0.00, -9829.54, 0.050, 0.078, -1.024, 14:43:19.757, 1553971399757
150, -30721.94, 0.00, 0.00, 0.00, 0.00, 0.00, 0.00, -9833.54, 0.000, 0.000, 0.000, 14:43:19.757, 1553971399757
151, -30686.60, 0.00, 0.00, 0.00, 0.00, 0.00, 0.00, -9842.21, 0.000, 0.000, 0.000, 14:43:19.757, 1553971399757
152, -30694.69, 0.00, 0.00, 0.00, 0.00, 0.00, 0.00, -9856.47, 0.000, 0.000, 0.000, 14:43:19.757, 1553971399757
153, -30753.12, 0.00, 0.00, 0.00, 0.00, 0.00, 0.00, -9868.12, 0.000, 0.000, 0.000, 14:43:19.757, 1553971399757
154, -30755.33, 0.00, 0.00, 0.00, 0.00, 0.00, 0.00, -9871.87, 0.000, 0.000, 0.000, 14:43:19.758, 1553971399758
155, -30712.62, 0.00, 0.00, 0.00, 0.00, 0.00, 0.00, -9868.27, 0.000, 0.000, 0.000, 14:43:19.758, 1553971399758
156, -30719.10, 0.00, 0.00, 0.00, 0.00, 0.00, 0.00, -9883.61, 0.000, 0.000, 0.000, 14:43:19.758, 1553971399758
157, -30747.08, 0.00, 0.00, 0.00, 0.00, 0.00, 0.00, -9866.15, 0.000, 0.000, 0.000, 14:43:19.759, 1553971399759
158, -30756.27, 0.00, 0.00, 0.00, 0.00, 0.00, 0.00, -9852.36, 0.048, 0.086, -1.030, 14:43:19.759, 1553971399759
159, -30710.18, 0.00, 0.00, 0.00, 0.00, 0.00, 0.00, -9848.92, 0.000, 0.000, 0.000, 14:43:19.759, 1553971399759
160, -30680.81, 0.00, 0.00, 0.00, 0.00, 0.00, 0.00, -9846.90, 0.000, 0.000, 0.000, 14:43:19.759, 1553971399759
161, -30740.17, 0.00, 0.00, 0.00, 0.00, 0.00, 0.00, -9865.63, 0.000, 0.000, 0.000, 14:43:19.759, 1553971399759
162, -30760.89, 0.00, 0.00, 0.00, 0.00, 0.00, 0.00, -9856.81, 0.000, 0.000, 0.000, 14:43:19.759, 1553971399759
163, -30691.67, 0.00, 0.00, 0.00, 0.00, 0.00, 0.00, -9825.58, 0.000, 0.000, 0.000, 14:43:19.759, 1553971399759
164, -30657.94, 0.00, 0.00, 0.00, 0.00, 0.00, 0.00, -9823.12, 0.000, 0.000, 0.000, 14:43:19.759, 1553971399759
165, -30718.92, 0.00, 0.00, 0.00, 0.00, 0.00, 0.00, -9855.15, 0.000, 0.000, 0.000, 14:43:19.759, 1553971399759
166, -30745.63, 0.00, 0.00, 0.00, 0.00, 0.00, 0.00, -9844.89, 0.000, 0.000, 0.000, 14:43:19.759, 1553971399759
167, -30701.88, 0.00, 0.00, 0.00, 0.00, 0.00, 0.00, -9828.38, 0.000, 0.000, 0.000, 14:43:19.759, 1553971399759
168, -30675.96, 0.00, 0.00, 0.00, 0.00, 0.00, 0.00, -9853.45, 0.040, 0.082, -1.026, 14:43:19.759, 1553971399759
169, -30715.74, 0.00, 0.00, 0.00, 0.00, 0.00, 0.00, -9878.26, 0.000, 0.000, 0.000, 14:43:19.759, 1553971399759
170, -30756.13, 0.00, 0.00, 0.00, 0.00, 0.00, 0.00, -9865.68, 0.000, 0.000, 0.000, 14:43:19.759, 1553971399759
171, -30720.48, 0.00, 0.00, 0.00, 0.00, 0.00, 0.00, -9847.71, 0.000, 0.000, 0.000, 14:43:19.759, 1553971399759
172, -30682.55, 0.00, 0.00, 0.00, 0.00, 0.00, 0.00, -9863.91, 0.000, 0.000, 0.000, 14:43:19.759, 1553971399759
173, -30711.79, 0.00, 0.00, 0.00, 0.00, 0.00, 0.00, -9884.25, 0.000, 0.000, 0.000, 14:43:19.759, 1553971399759
174, -30764.94, 0.00, 0.00, 0.00, 0.00, 0.00, 0.00, -9886.47, 0.000, 0.000, 0.000, 14:43:19.759, 1553971399759
175, -30754.64, 0.00, 0.00, 0.00, 0.00, 0.00, 0.00, -9877.64, 0.000, 0.000, 0.000, 14:43:19.759, 1553971399759
176, -30717.98, 0.00, 0.00, 0.00, 0.00, 0.00, 0.00, -9895.50, 0.000, 0.000, 0.000, 14:43:19.759, 1553971399759
177, -30727.10, 0.00, 0.00, 0.00, 0.00, 0.00, 0.00, -9903.70, 0.000, 0.000, 0.000, 14:43:19.759, 1553971399759
178, -30756.25, 0.00, 0.00, 0.00, 0.00, 0.00, 0.00, -9877.59, 0.040, 0.084, -1.030, 14:43:19.759, 1553971399759
179, -30767.20, 0.00, 0.00, 0.00, 0.00, 0.00, 0.00, -9878.42, 0.000, 0.000, 0.000, 14:43:19.759, 1553971399759
180, -30704.50, 0.00, 0.00, 0.00, 0.00, 0.00, 0.00, -9869.35, 0.000, 0.000, 0.000, 14:43:19.759, 1553971399759
181, -30684.43, 0.00, 0.00, 0.00, 0.00, 0.00, 0.00, -9868.99, 0.000, 0.000, 0.000, 14:43:19.760, 1553971399760
182, -30750.99, 0.00, 0.00, 0.00, 0.00, 0.00, 0.00, -9887.61, 0.000, 0.000, 0.000, 14:43:19.760, 1553971399760
183, -30760.63, 0.00, 0.00, 0.00, 0.00, 0.00, 0.00, -9881.39, 0.000, 0.000, 0.000, 14:43:19.760, 1553971399760
184, -30695.25, 0.00, 0.00, 0.00, 0.00, 0.00, 0.00, -9856.58, 0.000, 0.000, 0.000, 14:43:19.760, 1553971399760
185, -30688.41, 0.00, 0.00, 0.00, 0.00, 0.00, 0.00, -9870.71, 0.000, 0.000, 0.000, 14:43:19.760, 1553971399760
186, -30751.42, 0.00, 0.00, 0.00, 0.00, 0.00, 0.00, -9893.33, 0.000, 0.000, 0.000, 14:43:19.760, 1553971399760
187, -30783.20, 0.00, 0.00, 0.00, 0.00, 0.00, 0.00, -9897.08, 0.000, 0.000, 0.000, 14:43:19.760, 1553971399760
188, -30724.53, 0.00, 0.00, 0.00, 0.00, 0.00, 0.00, -9879.16, 0.042, 0.080, -1.028, 14:43:19.760, 1553971399760
189, -30687.67, 0.00, 0.00, 0.00, 0.00, 0.00, 0.00, -9877.17, 0.000, 0.000, 0.000, 14:43:19.760, 1553971399760
190, -30720.44, 0.00, 0.00, 0.00, 0.00, 0.00, 0.00, -9876.03, 0.000, 0.000, 0.000, 14:43:19.760, 1553971399760
191, -30748.11, 0.00, 0.00, 0.00, 0.00, 0.00, 0.00, -9867.07, 0.000, 0.000, 0.000, 14:43:19.760, 1553971399760
192, -30704.68, 0.00, 0.00, 0.00, 0.00, 0.00, 0.00, -9850.64, 0.000, 0.000, 0.000, 14:43:19.760, 1553971399760
193, -30677.79, 0.00, 0.00, 0.00, 0.00, 0.00, 0.00, -9876.14, 0.000, 0.000, 0.000, 14:43:19.760, 1553971399760
194, -30715.81, 0.00, 0.00, 0.00, 0.00, 0.00, 0.00, -9885.55, 0.000, 0.000, 0.000, 14:43:19.761, 1553971399761
195, -30760.18, 0.00, 0.00, 0.00, 0.00, 0.00, 0.00, -9889.57, 0.000, 0.000, 0.000, 14:43:19.761, 1553971399761
196, -30726.79, 0.00, 0.00, 0.00, 0.00, 0.00, 0.00, -9908.04, 0.000, 0.000, 0.000, 14:43:19.761, 1553971399761
197, -30680.16, 0.00, 0.00, 0.00, 0.00, 0.00, 0.00, -9871.45, 0.000, 0.000, 0.000, 14:43:19.761, 1553971399761
198, -30670.77, 0.00, 0.00, 0.00, 0.00, 0.00, 0.00, -9811.21, 0.044, 0.082, -1.034, 14:43:19.761, 1553971399761
199, -30718.98, 0.00, 0.00, 0.00, 0.00, 0.00, 0.00, -9832.06, 0.000, 0.000, 0.000, 14:43:19.761, 1553971399761
200, -30723.48, 0.00, 0.00, 0.00, 0.00, 0.00, 0.00, -9852.85, 0.000, 0.000, 0.000, 14:43:19.761, 1553971399761
201, -30679.65, 0.00, 0.00, 0.00, 0.00, 0.00, 0.00, -9847.84, 0.000, 0.000, 0.000, 14:43:19.761, 1553971399761
202, -30692.99, 0.00, 0.00, 0.00, 0.00, 0.00, 0.00, -9862.89, 0.000, 0.000, 0.000, 14:43:19.761, 1553971399761
203, -30742.07, 0.00, 0.00, 0.00, 0.00, 0.00, 0.00, -9861.28, 0.000, 0.000, 0.000, 14:43:19.761, 1553971399761
204, -30743.53, 0.00, 0.00, 0.00, 0.00, 0.00, 0.00, -9854.24, 0.000, 0.000, 0.000, 14:43:19.761, 1553971399761
205, -30696.48, 0.00, 0.00, 0.00, 0.00, 0.00, 0.00, -9851.35, 0.000, 0.000, 0.000, 14:43:19.761, 1553971399761
206, -30682.89, 0.00, 0.00, 0.00, 0.00, 0.00, 0.00, -9847.22, 0.000, 0.000, 0.000, 14:43:19.761, 1553971399761
207, -30720.37, 0.00, 0.00, 0.00, 0.00, 0.00, 0.00, -9838.28, 0.000, 0.000, 0.000, 14:43:19.761, 1553971399761
208, -30737.47, 0.00, 0.00, 0.00, 0.00, 0.00, 0.00, -9842.48, 0.042, 0.084, -1.032, 14:43:19.761, 1553971399761
209, -30711.56, 0.00, 0.00, 0.00, 0.00, 0.00, 0.00, -9862.80, 0.000, 0.000, 0.000, 14:43:19.761, 1553971399761
210, -30697.59, 0.00, 0.00, 0.00, 0.00, 0.00, 0.00, -9879.27, 0.000, 0.000, 0.000, 14:43:19.761, 1553971399761
211, -30727.48, 0.00, 0.00, 0.00, 0.00, 0.00, 0.00, -9875.31, 0.000, 0.000, 0.000, 14:43:19.761, 1553971399761
212, -30754.30, 0.00, 0.00, 0.00, 0.00, 0.00, 0.00, -9865.81, 0.000, 0.000, 0.000, 14:43:19.761, 1553971399761
213, -30722.38, 0.00, 0.00, 0.00, 0.00, 0.00, 0.00, -9863.96, 0.000, 0.000, 0.000, 14:43:19.761, 1553971399761
214, -30674.66, 0.00, 0.00, 0.00, 0.00, 0.00, 0.00, -9853.95, 0.000, 0.000, 0.000, 14:43:19.761, 1553971399761
215, -30717.78, 0.00, 0.00, 0.00, 0.00, 0.00, 0.00, -9881.53, 0.000, 0.000, 0.000, 14:43:19.761, 1553971399761
216, -30749.12, 0.00, 0.00, 0.00, 0.00, 0.00, 0.00, -9870.60, 0.000, 0.000, 0.000, 14:43:19.762, 1553971399762
217, -30720.84, 0.00, 0.00, 0.00, 0.00, 0.00, 0.00, -9836.60, 0.042, 0.080, -1.026, 14:43:19.762, 1553971399762
218, -30679.00, 0.00, 0.00, 0.00, 0.00, 0.00, 0.00, -9845.63, 0.000, 0.000, 0.000, 14:43:19.762, 1553971399762
219, -30729.15, 0.00, 0.00, 0.00, 0.00, 0.00, 0.00, -9912.33, 0.000, 0.000, 0.000, 14:43:19.762, 1553971399762
220, -30754.81, 0.00, 0.00, 0.00, 0.00, 0.00, 0.00, -9874.69, 0.000, 0.000, 0.000, 14:43:19.762, 1553971399762
221, -30698.38, 0.00, 0.00, 0.00, 0.00, 0.00, 0.00, -9805.87, 0.000, 0.000, 0.000, 14:43:19.762, 1553971399762
222, -30639.90, 0.00, 0.00, 0.00, 0.00, 0.00, 0.00, -9797.60, 0.000, 0.000, 0.000, 14:43:19.762, 1553971399762
223, -30685.30, 0.00, 0.00, 0.00, 0.00, 0.00, 0.00, -9849.38, 0.000, 0.000, 0.000, 14:43:19.762, 1553971399762
224, -30743.01, 0.00, 0.00, 0.00, 0.00, 0.00, 0.00, -9871.42, 0.000, 0.000, 0.000, 14:43:19.762, 1553971399762
225, -30742.92, 0.00, 0.00, 0.00, 0.00, 0.00, 0.00, -9874.87, 0.000, 0.000, 0.000, 14:43:19.762, 1553971399762
226, -30678.89, 0.00, 0.00, 0.00, 0.00, 0.00, 0.00, -9834.66, 0.000, 0.000, 0.000, 14:43:19.762, 1553971399762
227, -30679.36, 0.00, 0.00, 0.00, 0.00, 0.00, 0.00, -9842.41, 0.040, 0.080, -1.028, 14:43:19.762, 1553971399762
228, -30731.12, 0.00, 0.00, 0.00, 0.00, 0.00, 0.00, -9846.61, 0.000, 0.000, 0.000, 14:43:19.762, 1553971399762
229, -30750.57, 0.00, 0.00, 0.00, 0.00, 0.00, 0.00, -9856.83, 0.000, 0.000, 0.000, 14:43:19.762, 1553971399762
230, -30703.27, 0.00, 0.00, 0.00, 0.00, 0.00, 0.00, -9867.89, 0.000, 0.000, 0.000, 14:43:19.762, 1553971399762
231, -30679.82, 0.00, 0.00, 0.00, 0.00, 0.00, 0.00, -9872.47, 0.000, 0.000, 0.000, 14:43:19.762, 1553971399762
232, -30719.79, 0.00, 0.00, 0.00, 0.00, 0.00, 0.00, -9849.68, 0.000, 0.000, 0.000, 14:43:19.763, 1553971399763
233, -30732.31, 0.00, 0.00, 0.00, 0.00, 0.00, 0.00, -9827.57, 0.000, 0.000, 0.000, 14:43:19.763, 1553971399763
234, -30691.74, 0.00, 0.00, 0.00, 0.00, 0.00, 0.00, -9835.01, 0.000, 0.000, 0.000, 14:43:19.763, 1553971399763
235, -30667.58, 0.00, 0.00, 0.00, 0.00, 0.00, 0.00, -9841.27, 0.000, 0.000, 0.000, 14:43:19.763, 1553971399763
236, -30721.35, 0.00, 0.00, 0.00, 0.00, 0.00, 0.00, -9861.72, 0.000, 0.000, 0.000, 14:43:19.763, 1553971399763
237, -30741.96, 0.00, 0.00, 0.00, 0.00, 0.00, 0.00, -9856.47, 0.050, 0.074, -1.020, 14:43:19.763, 1553971399763
238, -30694.31, 0.00, 0.00, 0.00, 0.00, 0.00, 0.00, -9830.92, 0.000, 0.000, 0.000, 14:43:19.763, 1553971399763
239, -30663.89, 0.00, 0.00, 0.00, 0.00, 0.00, 0.00, -9823.37, 0.000, 0.000, 0.000, 14:43:19.763, 1553971399763
240, -30704.50, 0.00, 0.00, 0.00, 0.00, 0.00, 0.00, -9847.11, 0.000, 0.000, 0.000, 14:43:19.763, 1553971399763
241, -30741.85, 0.00, 0.00, 0.00, 0.00, 0.00, 0.00, -9851.53, 0.000, 0.000, 0.000, 14:43:19.763, 1553971399763
242, -30719.90, 0.00, 0.00, 0.00, 0.00, 0.00, 0.00, -9861.01, 0.000, 0.000, 0.000, 14:43:19.763, 1553971399763
243, -30689.64, 0.00, 0.00, 0.00, 0.00, 0.00, 0.00, -9863.65, 0.000, 0.000, 0.000, 14:43:20.235, 1553971400235
244, -30710.04, 0.00, 0.00, 0.00, 0.00, 0.00, 0.00, -9854.19, 0.000, 0.000, 0.000, 14:43:20.235, 1553971400235
245, -30729.78, 0.00, 0.00, 0.00, 0.00, 0.00, 0.00, -9832.67, 0.000, 0.000, 0.000, 14:43:20.235, 1553971400235
246, -30704.75, 0.00, 0.00, 0.00, 0.00, 0.00, 0.00, -9819.08, 0.000, 0.000, 0.000, 14:43:20.235, 1553971400235
247, -30663.78, 0.00, 0.00, 0.00, 0.00, 0.00, 0.00, -9827.93, 0.050, 0.070, -1.026, 14:43:20.235, 1553971400235
248, -30681.50, 0.00, 0.00, 0.00, 0.00, 0.00, 0.00, -9853.03, 0.000, 0.000, 0.000, 14:43:20.235, 1553971400235
249, -30734.07, 0.00, 0.00, 0.00, 0.00, 0.00, 0.00, -9857.48, 0.000, 0.000, 0.000, 14:43:20.235, 1553971400235
250, -30727.66, 0.00, 0.00, 0.00, 0.00, 0.00, 0.00, -9831.39, 0.000, 0.000, 0.000, 14:43:20.235, 1553971400235
251, -30660.71, 0.00, 0.00, 0.00, 0.00, 0.00, 0.00, -9825.89, 0.000, 0.000, 0.000, 14:43:20.235, 1553971400235
252, -30668.87, 0.00, 0.00, 0.00, 0.00, 0.00, 0.00, -9821.31, 0.000, 0.000, 0.000, 14:43:20.235, 1553971400235
253, -30733.63, 0.00, 0.00, 0.00, 0.00, 0.00, 0.00, -9853.34, 0.000, 0.000, 0.000, 14:43:20.235, 1553971400235
254, -30737.76, 0.00, 0.00, 0.00, 0.00, 0.00, 0.00, -9847.60, 0.000, 0.000, 0.000, 14:43:20.235, 1553971400235
255, -30691.56, 0.00, 0.00, 0.00, 0.00, 0.00, 0.00, -9846.41, 0.000, 0.000, 0.000, 14:43:20.235, 1553971400235
0, -30675.13, 0.00, 0.00, 0.00, 0.00, 0.00, 0.00, -9840.71, 0.000, 0.000, 0.000, 14:43:20.235, 1553971400235
1, -30692.05, 0.00, 0.00, 0.00, 0.00, 0.00, 0.00, -9824.08, 0.044, 0.082, -1.024, 14:43:20.235, 1553971400235
2, -30712.35, 0.00, 0.00, 0.00, 0.00, 0.00, 0.00, -9815.86, 0.000, 0.000, 0.000, 14:43:20.236, 1553971400236
3, -30670.19, 0.00, 0.00, 0.00, 0.00, 0.00, 0.00, -9819.95, 0.000, 0.000, 0.000, 14:43:20.236, 1553971400236
4, -30657.90, 0.00, 0.00, 0.00, 0.00, 0.00, 0.00, -9845.07, 0.000, 0.000, 0.000, 14:43:20.236, 1553971400236
5, -30725.40, 0.00, 0.00, 0.00, 0.00, 0.00, 0.00, -9881.91, 0.000, 0.000, 0.000, 14:43:20.236, 1553971400236
6, -30758.79, 0.00, 0.00, 0.00, 0.00, 0.00, 0.00, -9877.28, 0.000, 0.000, 0.000, 14:43:20.236, 1553971400236
7, -30703.83, 0.00, 0.00, 0.00, 0.00, 0.00, 0.00, -9852.67, 0.000, 0.000, 0.000, 14:43:20.236, 1553971400236
8, -30663.35, 0.00, 0.00, 0.00, 0.00, 0.00, 0.00, -9850.95, 0.000, 0.000, 0.000, 14:43:20.236, 1553971400236
9, -30689.99, 0.00, 0.00, 0.00, 0.00, 0.00, 0.00, -9848.71, 0.000, 0.000, 0.000, 14:43:20.236, 1553971400236
10, -30732.33, 0.00, 0.00, 0.00, 0.00, 0.00, 0.00, -9853.86, 0.000, 0.000, 0.000, 14:43:20.236, 1553971400236
11, -30716.57, 0.00, 0.00, 0.00, 0.00, 0.00, 0.00, -9866.66, 0.048, 0.086, -1.032, 14:43:20.236, 1553971400236
12, -30677.50, 0.00, 0.00, 0.00, 0.00, 0.00, 0.00, -9862.51, 0.000, 0.000, 0.000, 14:43:20.236, 1553971400236
13, -30693.12, 0.00, 0.00, 0.00, 0.00, 0.00, 0.00, -9871.25, 0.000, 0.000, 0.000, 14:43:20.236, 1553971400236
14, -30721.42, 0.00, 0.00, 0.00, 0.00, 0.00, 0.00, -9860.85, 0.000, 0.000, 0.000, 14:43:20.236, 1553971400236
15, -30711.54, 0.00, 0.00, 0.00, 0.00, 0.00, 0.00, -9850.66, 0.000, 0.000, 0.000, 14:43:20.236, 1553971400236
16, -30685.64, 0.00, 0.00, 0.00, 0.00, 0.00, 0.00, -9877.39, 0.000, 0.000, 0.000, 14:43:20.236, 1553971400236
17, -30692.88, 0.00, 0.00, 0.00, 0.00, 0.00, 0.00, -9883.14, 0.000, 0.000, 0.000, 14:43:20.236, 1553971400236
18, -30715.10, 0.00, 0.00, 0.00, 0.00, 0.00, 0.00, -9853.41, 0.000, 0.000, 0.000, 14:43:20.237, 1553971400237
19, -30715.83, 0.00, 0.00, 0.00, 0.00, 0.00, 0.00, -9846.41, 0.000, 0.000, 0.000, 14:43:20.237, 1553971400237
20, -30672.22, 0.00, 0.00, 0.00, 0.00, 0.00, 0.00, -9848.67, 0.000, 0.000, 0.000, 14:43:20.237, 1553971400237
21, -30678.35, 0.00, 0.00, 0.00, 0.00, 0.00, 0.00, -9864.92, 0.044, 0.090, -1.034, 14:43:20.237, 1553971400237
22, -30731.05, 0.00, 0.00, 0.00, 0.00, 0.00, 0.00, -9874.87, 0.000, 0.000, 0.000, 14:43:20.237, 1553971400237
23, -30729.20, 0.00, 0.00, 0.00, 0.00, 0.00, 0.00, -9853.36, 0.000, 0.000, 0.000, 14:43:20.237, 1553971400237
24, -30674.55, 0.00, 0.00, 0.00, 0.00, 0.00, 0.00, -9841.00, 0.000, 0.000, 0.000, 14:43:20.237, 1553971400237
25, -30662.90, 0.00, 0.00, 0.00, 0.00, 0.00, 0.00, -9857.92, 0.000, 0.000, 0.000, 14:43:20.237, 1553971400237
26, -30714.83, 0.00, 0.00, 0.00, 0.00, 0.00, 0.00, -9867.96, 0.000, 0.000, 0.000, 14:43:20.237, 1553971400237
27, -30741.11, 0.00, 0.00, 0.00, 0.00, 0.00, 0.00, -9864.88, 0.000, 0.000, 0.000, 14:43:20.237, 1553971400237
28, -30699.52, 0.00, 0.00, 0.00, 0.00, 0.00, 0.00, -9861.34, 0.000, 0.000, 0.000, 14:43:20.237, 1553971400237
29, -30680.90, 0.00, 0.00, 0.00, 0.00, 0.00, 0.00, -9872.45, 0.000, 0.000, 0.000, 14:43:20.237, 1553971400237
30, -30726.63, 0.00, 0.00, 0.00, 0.00, 0.00, 0.00, -9882.29, 0.052, 0.082, -1.028, 14:43:20.237, 1553971400237
31, -30753.36, 0.00, 0.00, 0.00, 0.00, 0.00, 0.00, -9875.11, 0.000, 0.000, 0.000, 14:43:20.238, 1553971400238
32, -30701.60, 0.00, 0.00, 0.00, 0.00, 0.00, 0.00, -9850.17, 0.000, 0.000, 0.000, 14:43:20.238, 1553971400238
33, -30651.79, 0.00, 0.00, 0.00, 0.00, 0.00, 0.00, -9837.85, 0.000, 0.000, 0.000, 14:43:20.238, 1553971400238
34, -30677.19, 0.00, 0.00, 0.00, 0.00, 0.00, 0.00, -9839.39, 0.000, 0.000, 0.000, 14:43:20.238, 1553971400238
35, -30731.75, 0.00, 0.00, 0.00, 0.00, 0.00, 0.00, -9850.39, 0.000, 0.000, 0.000, 14:43:20.238, 1553971400238
36, -30721.89, 0.00, 0.00, 0.00, 0.00, 0.00, 0.00, -9865.39, 0.000, 0.000, 0.000, 14:43:20.238, 1553971400238
37, -30681.34, 0.00, 0.00, 0.00, 0.00, 0.00, 0.00, -9869.99, 0.000, 0.000, 0.000, 14:43:20.238, 1553971400238
38, -30707.52, 0.00, 0.00, 0.00, 0.00, 0.00, 0.00, -9883.40, 0.000, 0.000, 0.000, 14:43:20.238, 1553971400238
39, -30750.01, 0.00, 0.00, 0.00, 0.00, 0.00, 0.00, -9875.87, 0.000, 0.000, 0.000, 14:43:20.238, 1553971400238
40, -30743.01, 0.00, 0.00, 0.00, 0.00, 0.00, 0.00, -9870.73, 0.052, 0.074, -1.032, 14:43:20.238, 1553971400238
41, -30692.54, 0.00, 0.00, 0.00, 0.00, 0.00, 0.00, -9872.47, 0.000, 0.000, 0.000, 14:43:20.238, 1553971400238
42, -30698.27, 0.00, 0.00, 0.00, 0.00, 0.00, 0.00, -9884.99, 0.000, 0.000, 0.000, 14:43:20.238, 1553971400238
43, -30756.65, 0.00, 0.00, 0.00, 0.00, 0.00, 0.00, -9892.99, 0.000, 0.000, 0.000, 14:43:20.238, 1553971400238
44, -30755.26, 0.00, 0.00, 0.00, 0.00, 0.00, 0.00, -9886.60, 0.000, 0.000, 0.000, 14:43:20.238, 1553971400238
45, -30703.90, 0.00, 0.00, 0.00, 0.00, 0.00, 0.00, -9882.71, 0.000, 0.000, 0.000, 14:43:20.238, 1553971400238
46, -30694.06, 0.00, 0.00, 0.00, 0.00, 0.00, 0.00, -9886.78, 0.000, 0.000, 0.000, 14:43:20.238, 1553971400238
47, -30763.24, 0.00, 0.00, 0.00, 0.00, 0.00, 0.00, -9908.21, 0.000, 0.000, 0.000, 14:43:20.238, 1553971400238
48, -30762.21, 0.00, 0.00, 0.00, 0.00, 0.00, 0.00, -9888.88, 0.000, 0.000, 0.000, 14:43:20.238, 1553971400238
49, -30709.96, 0.00, 0.00, 0.00, 0.00, 0.00, 0.00, -9879.52, 0.000, 0.000, 0.000, 14:43:20.239, 1553971400239
50, -30706.65, 0.00, 0.00, 0.00, 0.00, 0.00, 0.00, -9899.90, 0.054, 0.080, -1.038, 14:43:20.239, 1553971400239
51, -30749.90, 0.00, 0.00, 0.00, 0.00, 0.00, 0.00, -9906.47, 0.000, 0.000, 0.000, 14:43:20.239, 1553971400239
52, -30767.67, 0.00, 0.00, 0.00, 0.00, 0.00, 0.00, -9892.57, 0.000, 0.000, 0.000, 14:43:20.239, 1553971400239
53, -30737.76, 0.00, 0.00, 0.00, 0.00, 0.00, 0.00, -9899.36, 0.000, 0.000, 0.000, 14:43:20.239, 1553971400239
54, -30730.50, 0.00, 0.00, 0.00, 0.00, 0.00, 0.00, -9924.98, 0.000, 0.000, 0.000, 14:43:20.239, 1553971400239
55, -30755.48, 0.00, 0.00, 0.00, 0.00, 0.00, 0.00, -9920.06, 0.000, 0.000, 0.000, 14:43:20.239, 1553971400239
56, -30771.96, 0.00, 0.00, 0.00, 0.00, 0.00, 0.00, -9894.71, 0.000, 0.000, 0.000, 14:43:20.239, 1553971400239
57, -30742.30, 0.00, 0.00, 0.00, 0.00, 0.00, 0.00, -9888.57, 0.000, 0.000, 0.000, 14:43:20.239, 1553971400239
58, -30710.09, 0.00, 0.00, 0.00, 0.00, 0.00, 0.00, -9899.77, 0.000, 0.000, 0.000, 14:43:20.240, 1553971400240
59, -30729.02, 0.00, 0.00, 0.00, 0.00, 0.00, 0.00, -9897.62, 0.000, 0.000, 0.000, 14:43:20.240, 1553971400240
60, -30781.05, 0.00, 0.00, 0.00, 0.00, 0.00, 0.00, -9903.92, 0.040, 0.078, -1.030, 14:43:20.240, 1553971400240
61, -30757.50, 0.00, 0.00, 0.00, 0.00, 0.00, 0.00, -9896.70, 0.000, 0.000, 0.000, 14:43:20.240, 1553971400240
62, -30716.91, 0.00, 0.00, 0.00, 0.00, 0.00, 0.00, -9904.71, 0.000, 0.000, 0.000, 14:43:20.240, 1553971400240
63, -30732.48, 0.00, 0.00, 0.00, 0.00, 0.00, 0.00, -9914.32, 0.000, 0.000, 0.000, 14:43:20.240, 1553971400240
64, -30760.22, 0.00, 0.00, 0.00, 0.00, 0.00, 0.00, -9891.85, 0.000, 0.000, 0.000, 14:43:20.240, 1553971400240
65, -30752.83, 0.00, 0.00, 0.00, 0.00, 0.00, 0.00, -9886.13, 0.000, 0.000, 0.000, 14:43:20.241, 1553971400241
66, -30740.00, 0.00, 0.00, 0.00, 0.00, 0.00, 0.00, -9922.07, 0.000, 0.000, 0.000, 14:43:20.241, 1553971400241
67, -30736.91, 0.00, 0.00, 0.00, 0.00, 0.00, 0.00, -9920.84, 0.000, 0.000, 0.000, 14:43:20.241, 1553971400241
68, -30769.75, 0.00, 0.00, 0.00, 0.00, 0.00, 0.00, -9907.54, 0.000, 0.000, 0.000, 14:43:20.241, 1553971400241
69, -30777.44, 0.00, 0.00, 0.00, 0.00, 0.00, 0.00, -9911.34, 0.000, 0.000, 0.000, 14:43:20.241, 1553971400241
70, -30721.27, 0.00, 0.00, 0.00, 0.00, 0.00, 0.00, -9898.74, 0.032, 0.082, -1.020, 14:43:20.241, 1553971400241
71, -30720.24, 0.00, 0.00, 0.00, 0.00, 0.00, 0.00, -9915.66, 0.000, 0.000, 0.000, 14:43:20.241, 1553971400241
72, -30770.62, 0.00, 0.00, 0.00, 0.00, 0.00, 0.00, -9918.50, 0.000, 0.000, 0.000, 14:43:20.241, 1553971400241
73, -30771.49, 0.00, 0.00, 0.00, 0.00, 0.00, 0.00, -9893.69, 0.000, 0.000, 0.000, 14:43:20.241, 1553971400241
74, -30726.56, 0.00, 0.00, 0.00, 0.00, 0.00, 0.00, -9889.46, 0.000, 0.000, 0.000, 14:43:20.241, 1553971400241
75, -30735.59, 0.00, 0.00, 0.00, 0.00, 0.00, 0.00, -9925.76, 0.000, 0.000, 0.000, 14:43:20.241, 1553971400241
76, -30793.37, 0.00, 0.00, 0.00, 0.00, 0.00, 0.00, -9945.23, 0.000, 0.000, 0.000, 14:43:20.241, 1553971400241
77, -30829.67, 0.00, 0.00, 0.00, 0.00, 0.00, 0.00, -9948.34, 0.000, 0.000, 0.000, 14:43:20.241, 1553971400241
78, -30781.70, 0.00, 0.00, 0.00, 0.00, 0.00, 0.00, -9936.38, 0.000, 0.000, 0.000, 14:43:20.241, 1553971400241
79, -30744.73, 0.00, 0.00, 0.00, 0.00, 0.00, 0.00, -9933.14, 0.000, 0.000, 0.000, 14:43:20.241, 1553971400241
80, -30773.68, 0.00, 0.00, 0.00, 0.00, 0.00, 0.00, -9928.44, 0.032, 0.070, -1.032, 14:43:20.242, 1553971400242
81, -30806.54, 0.00, 0.00, 0.00, 0.00, 0.00, 0.00, -9921.49, 0.000, 0.000, 0.000, 14:43:20.242, 1553971400242
82, -30768.96, 0.00, 0.00, 0.00, 0.00, 0.00, 0.00, -9910.12, 0.000, 0.000, 0.000, 14:43:20.242, 1553971400242
83, -30735.19, 0.00, 0.00, 0.00, 0.00, 0.00, 0.00, -9922.23, 0.000, 0.000, 0.000, 14:43:20.242, 1553971400242
84, -30772.79, 0.00, 0.00, 0.00, 0.00, 0.00, 0.00, -9939.60, 0.000, 0.000, 0.000, 14:43:20.242, 1553971400242
85, -30818.45, 0.00, 0.00, 0.00, 0.00, 0.00, 0.00, -9936.27, 0.000, 0.000, 0.000, 14:43:20.242, 1553971400242
86, -30789.79, 0.00, 0.00, 0.00, 0.00, 0.00, 0.00, -9920.24, 0.000, 0.000, 0.000, 14:43:20.242, 1553971400242
87, -30750.63, 0.00, 0.00, 0.00, 0.00, 0.00, 0.00, -9928.89, 0.000, 0.000, 0.000, 14:43:20.242, 1553971400242
88, -30759.98, 0.00, 0.00, 0.00, 0.00, 0.00, 0.00, -9932.80, 0.000, 0.000, 0.000, 14:43:20.242, 1553971400242
89, -30803.77, 0.00, 0.00, 0.00, 0.00, 0.00, 0.00, -9926.21, 0.000, 0.000, 0.000, 14:43:20.242, 1553971400242
90, -30797.04, 0.00, 0.00, 0.00, 0.00, 0.00, 0.00, -9918.68, 0.034, 0.080, -1.030, 14:43:20.242, 1553971400242
91, -30755.42, 0.00, 0.00, 0.00, 0.00, 0.00, 0.00, -9927.01, 0.000, 0.000, 0.000, 14:43:20.242, 1553971400242
92, -30764.43, 0.00, 0.00, 0.00, 0.00, 0.00, 0.00, -9941.36, 0.000, 0.000, 0.000, 14:43:20.242, 1553971400242
93, -30809.55, 0.00, 0.00, 0.00, 0.00, 0.00, 0.00, -9934.43, 0.000, 0.000, 0.000, 14:43:20.242, 1553971400242
94, -30805.15, 0.00, 0.00, 0.00, 0.00, 0.00, 0.00, -9916.17, 0.000, 0.000, 0.000, 14:43:20.242, 1553971400242
95, -30765.90, 0.00, 0.00, 0.00, 0.00, 0.00, 0.00, -9918.50, 0.000, 0.000, 0.000, 14:43:20.242, 1553971400242
96, -30762.08, 0.00, 0.00, 0.00, 0.00, 0.00, 0.00, -9930.90, 0.000, 0.000, 0.000, 14:43:20.243, 1553971400243
97, -30804.53, 0.00, 0.00, 0.00, 0.00, 0.00, 0.00, -9932.47, 0.000, 0.000, 0.000, 14:43:20.243, 1553971400243
98, -30815.19, 0.00, 0.00, 0.00, 0.00, 0.00, 0.00, -9920.33, 0.000, 0.000, 0.000, 14:43:20.243, 1553971400243
99, -30784.99, 0.00, 0.00, 0.00, 0.00, 0.00, 0.00, -9933.27, 0.028, 0.082, -1.030, 14:43:20.243, 1553971400243
100, -30765.88, 0.00, 0.00, 0.00, 0.00, 0.00, 0.00, -9952.96, 0.000, 0.000, 0.000, 14:43:20.243, 1553971400243
101, -30805.15, 0.00, 0.00, 0.00, 0.00, 0.00, 0.00, -9955.65, 0.000, 0.000, 0.000, 14:43:20.243, 1553971400243
102, -30837.45, 0.00, 0.00, 0.00, 0.00, 0.00, 0.00, -9951.02, 0.000, 0.000, 0.000, 14:43:20.243, 1553971400243
103, -30785.37, 0.00, 0.00, 0.00, 0.00, 0.00, 0.00, -9931.89, 0.000, 0.000, 0.000, 14:43:20.243, 1553971400243
104, -30762.19, 0.00, 0.00, 0.00, 0.00, 0.00, 0.00, -9943.55, 0.000, 0.000, 0.000, 14:43:20.243, 1553971400243
105, -30787.49, 0.00, 0.00, 0.00, 0.00, 0.00, 0.00, -9941.85, 0.000, 0.000, 0.000, 14:43:20.243, 1553971400243
106, -30818.32, 0.00, 0.00, 0.00, 0.00, 0.00, 0.00, -9931.97, 0.000, 0.000, 0.000, 14:43:20.243, 1553971400243
107, -30817.82, 0.00, 0.00, 0.00, 0.00, 0.00, 0.00, -9948.40, 0.000, 0.000, 0.000, 14:43:20.243, 1553971400243
108, -30788.50, 0.00, 0.00, 0.00, 0.00, 0.00, 0.00, -9961.55, 0.000, 0.000, 0.000, 14:43:20.716, 1553971400716
109, -30845.36, 0.00, 0.00, 0.00, 0.00, 0.00, 0.00, -9972.90, 0.036, 0.082, -1.028, 14:43:20.716, 1553971400716
110, -30865.57, 0.00, 0.00, 0.00, 0.00, 0.00, 0.00, -9990.25, 0.000, 0.000, 0.000, 14:43:20.716, 1553971400716
111, -30830.54, 0.00, 0.00, 0.00, 0.00, 0.00, 0.00, -9977.97, 0.000, 0.000, 0.000, 14:43:20.717, 1553971400717
112, -30792.97, 0.00, 0.00, 0.00, 0.00, 0.00, 0.00, -9969.01, 0.000, 0.000, 0.000, 14:43:20.717, 1553971400717
113, -30787.83, 0.00, 0.00, 0.00, 0.00, 0.00, 0.00, -9954.95, 0.000, 0.000, 0.000, 14:43:20.717, 1553971400717
114, -30854.86, 0.00, 0.00, 0.00, 0.00, 0.00, 0.00, -9966.35, 0.000, 0.000, 0.000, 14:43:20.717, 1553971400717
115, -30813.82, 0.00, 0.00, 0.00, 0.00, 0.00, 0.00, -9934.37, 0.000, 0.000, 0.000, 14:43:20.717, 1553971400717
116, -30784.54, 0.00, 0.00, 0.00, 0.00, 0.00, 0.00, -9971.49, 0.000, 0.000, 0.000, 14:43:20.717, 1553971400717
117, -30769.90, 0.00, 0.00, 0.00, 0.00, 0.00, 0.00, -9982.78, 0.000, 0.000, 0.000, 14:43:20.717, 1553971400717
118, -30811.65, 0.00, 0.00, 0.00, 0.00, 0.00, 0.00, -9992.39, 0.000, 0.000, 0.000, 14:43:20.717, 1553971400717
119, -30799.76, 0.00, 0.00, 0.00, 0.00, 0.00, 0.00, -9915.95, 0.038, 0.074, -1.030, 14:43:20.717, 1553971400717
120, -30783.63, 0.00, 0.00, 0.00, 0.00, 0.00, 0.00, -9935.51, 0.000, 0.000, 0.000, 14:43:20.717, 1553971400717
121, -30790.00, 0.00, 0.00, 0.00, 0.00, 0.00, 0.00, -9986.00, 0.000, 0.000, 0.000, 14:43:20.717, 1553971400717
122, -30831.73, 0.00, 0.00, 0.00, 0.00, 0.00, 0.00, -9997.47, 0.000, 0.000, 0.000, 14:43:20.717, 1553971400717
123, -30829.94, 0.00, 0.00, 0.00, 0.00, 0.00, 0.00, -10002.29, 0.000, 0.000, 0.000, 14:43:20.717, 1553971400717
124, -30757.54, 0.00, 0.00, 0.00, 0.00, 0.00, 0.00, -9886.76, 0.000, 0.000, 0.000, 14:43:20.717, 1553971400717
125, -30750.34, 0.00, 0.00, 0.00, 0.00, 0.00, 0.00, -9909.96, 0.000, 0.000, 0.000, 14:43:20.718, 1553971400718
126, -30800.23, 0.00, 0.00, 0.00, 0.00, 0.00, 0.00, -9941.41, 0.000, 0.000, 0.000, 14:43:20.718, 1553971400718
127, -30840.36, 0.00, 0.00, 0.00, 0.00, 0.00, 0.00, -9956.00, 0.000, 0.000, 0.000, 14:43:20.718, 1553971400718
128, -30839.71, 0.00, 0.00, 0.00, 0.00, 0.00, 0.00, -10016.44, 0.000, 0.000, 0.000, 14:43:20.718, 1553971400718
129, -30751.35, 0.00, 0.00, 0.00, 0.00, 0.00, 0.00, -9997.64, 0.060, 0.060, -1.028, 14:43:20.718, 1553971400718
130, -30776.05, 0.00, 0.00, 0.00, 0.00, 0.00, 0.00, -9928.85, 0.000, 0.000, 0.000, 14:43:20.718, 1553971400718
131, -30803.85, 0.00, 0.00, 0.00, 0.00, 0.00, 0.00, -9880.72, 0.000, 0.000, 0.000, 14:43:20.718, 1553971400718
132, -30797.71, 0.00, 0.00, 0.00, 0.00, 0.00, 0.00, -9917.96, 0.000, 0.000, 0.000, 14:43:20.718, 1553971400718
133, -30755.13, 0.00, 0.00, 0.00, 0.00, 0.00, 0.00, -9938.30, 0.000, 0.000, 0.000, 14:43:20.718, 1553971400718
134, -30759.26, 0.00, 0.00, 0.00, 0.00, 0.00, 0.00, -9921.92, 0.000, 0.000, 0.000, 14:43:20.718, 1553971400718
135, -30823.99, 0.00, 0.00, 0.00, 0.00, 0.00, 0.00, -9942.88, 0.000, 0.000, 0.000, 14:43:20.718, 1553971400718
136, -30850.99, 0.00, 0.00, 0.00, 0.00, 0.00, 0.00, -9959.76, 0.000, 0.000, 0.000, 14:43:20.718, 1553971400718
137, -30785.55, 0.00, 0.00, 0.00, 0.00, 0.00, 0.00, -9938.14, 0.000, 0.000, 0.000, 14:43:20.718, 1553971400718
138, -30765.83, 0.00, 0.00, 0.00, 0.00, 0.00, 0.00, -9938.03, 0.000, 0.000, 0.000, 14:43:20.718, 1553971400718
139, -30803.70, 0.00, 0.00, 0.00, 0.00, 0.00, 0.00, -9928.96, 0.062, 0.072, -1.024, 14:43:20.719, 1553971400719
140, -30821.65, 0.00, 0.00, 0.00, 0.00, 0.00, 0.00, -9937.94, 0.000, 0.000, 0.000, 14:43:20.719, 1553971400719
141, -30771.80, 0.00, 0.00, 0.00, 0.00, 0.00, 0.00, -9949.41, 0.000, 0.000, 0.000, 14:43:20.719, 1553971400719
142, -30769.01, 0.00, 0.00, 0.00, 0.00, 0.00, 0.00, -9954.15, 0.000, 0.000, 0.000, 14:43:20.719, 1553971400719
143, -30805.06, 0.00, 0.00, 0.00, 0.00, 0.00, 0.00, -9948.38, 0.000, 0.000, 0.000, 14:43:20.720, 1553971400720
144, -30811.37, 0.00, 0.00, 0.00, 0.00, 0.00, 0.00, -9928.38, 0.000, 0.000, 0.000, 14:43:20.720, 1553971400720
145, -30774.46, 0.00, 0.00, 0.00, 0.00, 0.00, 0.00, -9945.41, 0.000, 0.000, 0.000, 14:43:20.720, 1553971400720
146, -30756.78, 0.00, 0.00, 0.00, 0.00, 0.00, 0.00, -9981.51, 0.000, 0.000, 0.000, 14:43:20.720, 1553971400720
147, -30776.67, 0.00, 0.00, 0.00, 0.00, 0.00, 0.00, -9923.97, 0.000, 0.000, 0.000, 14:43:20.720, 1553971400720
148, -30828.64, 0.00, 0.00, 0.00, 0.00, 0.00, 0.00, -9948.65, 0.000, 0.000, 0.000, 14:43:20.720, 1553971400720
149, -30795.99, 0.00, 0.00, 0.00, 0.00, 0.00, 0.00, -9951.87, 0.056, 0.076, -1.034, 14:43:20.720, 1553971400720
150, -30709.44, 0.00, 0.00, 0.00, 0.00, 0.00, 0.00, -9911.86, 0.000, 0.000, 0.000, 14:43:20.720, 1553971400720
151, -30768.34, 0.00, 0.00, 0.00, 0.00, 0.00, 0.00, -9934.17, 0.000, 0.000, 0.000, 14:43:20.720, 1553971400720
152, -30801.75, 0.00, 0.00, 0.00, 0.00, 0.00, 0.00, -9931.59, 0.000, 0.000, 0.000, 14:43:20.720, 1553971400720
153, -30754.35, 0.00, 0.00, 0.00, 0.00, 0.00, 0.00, -9918.47, 0.000, 0.000, 0.000, 14:43:20.720, 1553971400720
154, -30739.88, 0.00, 0.00, 0.00, 0.00, 0.00, 0.00, -9934.48, 0.000, 0.000, 0.000, 14:43:20.720, 1553971400720
155, -30776.61, 0.00, 0.00, 0.00, 0.00, 0.00, 0.00, -9948.43, 0.000, 0.000, 0.000, 14:43:20.720, 1553971400720
156, -30800.68, 0.00, 0.00, 0.00, 0.00, 0.00, 0.00, -9935.75, 0.000, 0.000, 0.000, 14:43:20.720, 1553971400720
157, -30780.92, 0.00, 0.00, 0.00, 0.00, 0.00, 0.00, -9923.19, 0.000, 0.000, 0.000, 14:43:20.721, 1553971400721
158, -30728.30, 0.00, 0.00, 0.00, 0.00, 0.00, 0.00, -9922.77, 0.060, 0.082, -1.032, 14:43:20.721, 1553971400721
159, -30745.23, 0.00, 0.00, 0.00, 0.00, 0.00, 0.00, -9931.24, 0.000, 0.000, 0.000, 14:43:20.721, 1553971400721
160, -30799.14, 0.00, 0.00, 0.00, 0.00, 0.00, 0.00, -9935.55, 0.000, 0.000, 0.000, 14:43:20.721, 1553971400721
161, -30775.76, 0.00, 0.00, 0.00, 0.00, 0.00, 0.00, -9908.33, 0.000, 0.000, 0.000, 14:43:20.721, 1553971400721
162, -30728.69, 0.00, 0.00, 0.00, 0.00, 0.00, 0.00, -9907.61, 0.000, 0.000, 0.000, 14:43:20.721, 1553971400721
163, -30749.54, 0.00, 0.00, 0.00, 0.00, 0.00, 0.00, -9936.33, 0.000, 0.000, 0.000, 14:43:20.721, 1553971400721
164, -30793.24, 0.00, 0.00, 0.00, 0.00, 0.00, 0.00, -9937.03, 0.000, 0.000, 0.000, 14:43:20.721, 1553971400721
165, -30789.71, 0.00, 0.00, 0.00, 0.00, 0.00, 0.00, -9924.00, 0.000, 0.000, 0.000, 14:43:20.721, 1553971400721
166, -30750.19, 0.00, 0.00, 0.00, 0.00, 0.00, 0.00, -9930.70, 0.000, 0.000, 0.000, 14:43:20.721, 1553971400721
167, -30741.38, 0.00, 0.00, 0.00, 0.00, 0.00, 0.00, -9931.57, 0.000, 0.000, 0.000, 14:43:20.721, 1553971400721
168, -30796.21, 0.00, 0.00, 0.00, 0.00, 0.00, 0.00, -9932.51, 0.056, 0.080, -1.026, 14:43:20.721, 1553971400721
169, -30797.08, 0.00, 0.00, 0.00, 0.00, 0.00, 0.00, -9916.33, 0.000, 0.000, 0.000, 14:43:20.721, 1553971400721
170, -30739.30, 0.00, 0.00, 0.00, 0.00, 0.00, 0.00, -9912.48, 0.000, 0.000, 0.000, 14:43:20.722, 1553971400722
171, -30736.80, 0.00, 0.00, 0.00, 0.00, 0.00, 0.00, -9934.05, 0.000, 0.000, 0.000, 14:43:20.722, 1553971400722
172, -30777.81, 0.00, 0.00, 0.00, 0.00, 0.00, 0.00, -9927.82, 0.000, 0.000, 0.000, 14:43:20.722, 1553971400722
173, -30809.93, 0.00, 0.00, 0.00, 0.00, 0.00, 0.00, -9929.18, 0.000, 0.000, 0.000, 14:43:20.722, 1553971400722
174, -30789.35, 0.00, 0.00, 0.00, 0.00, 0.00, 0.00, -9948.20, 0.000, 0.000, 0.000, 14:43:20.722, 1553971400722
175, -30786.31, 0.00, 0.00, 0.00, 0.00, 0.00, 0.00, -9960.63, 0.000, 0.000, 0.000, 14:43:20.722, 1553971400722
176, -30796.50, 0.00, 0.00, 0.00, 0.00, 0.00, 0.00, -9941.05, 0.000, 0.000, 0.000, 14:43:20.722, 1553971400722
177, -30805.40, 0.00, 0.00, 0.00, 0.00, 0.00, 0.00, -9924.35, 0.000, 0.000, 0.000, 14:43:20.722, 1553971400722
178, -30779.07, 0.00, 0.00, 0.00, 0.00, 0.00, 0.00, -9933.96, 0.042, 0.072, -0.984, 14:43:20.722, 1553971400722
179, -30741.67, 0.00, 0.00, 0.00, 0.00, 0.00, 0.00, -9927.86, 0.000, 0.000, 0.000, 14:43:20.722, 1553971400722
180, -30746.59, 0.00, 0.00, 0.00, 0.00, 0.00, 0.00, -9912.24, 0.000, 0.000, 0.000, 14:43:20.722, 1553971400722
181, -30792.46, 0.00, 0.00, 0.00, 0.00, 0.00, 0.00, -9909.11, 0.000, 0.000, 0.000, 14:43:20.722, 1553971400722
182, -30777.77, 0.00, 0.00, 0.00, 0.00, 0.00, 0.00, -9908.62, 0.000, 0.000, 0.000, 14:43:20.722, 1553971400722
183, -30736.13, 0.00, 0.00, 0.00, 0.00, 0.00, 0.00, -9926.05, 0.000, 0.000, 0.000, 14:43:20.722, 1553971400722
184, -30741.96, 0.00, 0.00, 0.00, 0.00, 0.00, 0.00, -9927.39, 0.000, 0.000, 0.000, 14:43:20.723, 1553971400723
185, -30774.57, 0.00, 0.00, 0.00, 0.00, 0.00, 0.00, -9904.53, 0.000, 0.000, 0.000, 14:43:20.723, 1553971400723
186, -30798.98, 0.00, 0.00, 0.00, 0.00, 0.00, 0.00, -9920.44, 0.000, 0.000, 0.000, 14:43:20.723, 1553971400723
187, -30751.13, 0.00, 0.00, 0.00, 0.00, 0.00, 0.00, -9926.61, 0.000, 0.000, 0.000, 14:43:20.723, 1553971400723
188, -30741.49, 0.00, 0.00, 0.00, 0.00, 0.00, 0.00, -9924.08, 0.108, 0.052, -1.054, 14:43:20.723, 1553971400723
189, -30785.48, 0.00, 0.00, 0.00, 0.00, 0.00, 0.00, -9921.13, 0.000, 0.000, 0.000, 14:43:20.723, 1553971400723
190, -30799.67, 0.00, 0.00, 0.00, 0.00, 0.00, 0.00, -9918.41, 0.000, 0.000, 0.000, 14:43:20.723, 1553971400723
191, -30766.42, 0.00, 0.00, 0.00, 0.00, 0.00, 0.00, -9929.81, 0.000, 0.000, 0.000, 14:43:20.723, 1553971400723
192, -30757.99, 0.00, 0.00, 0.00, 0.00, 0.00, 0.00, -9936.00, 0.000, 0.000, 0.000, 14:43:20.723, 1553971400723
193, -30795.74, 0.00, 0.00, 0.00, 0.00, 0.00, 0.00, -9927.01, 0.000, 0.000, 0.000, 14:43:20.723, 1553971400723
194, -30795.72, 0.00, 0.00, 0.00, 0.00, 0.00, 0.00, -9914.70, 0.000, 0.000, 0.000, 14:43:20.723, 1553971400723
195, -30787.61, 0.00, 0.00, 0.00, 0.00, 0.00, 0.00, -9934.90, 0.000, 0.000, 0.000, 14:43:20.723, 1553971400723
196, -30781.62, 0.00, 0.00, 0.00, 0.00, 0.00, 0.00, -9951.00, 0.000, 0.000, 0.000, 14:43:20.723, 1553971400723
197, -30789.19, 0.00, 0.00, 0.00, 0.00, 0.00, 0.00, -9933.00, 0.000, 0.000, 0.000, 14:43:20.723, 1553971400723
198, -30792.81, 0.00, 0.00, 0.00, 0.00, 0.00, 0.00, -9914.92, 0.072, 0.106, -1.062, 14:43:20.723, 1553971400723
199, -30756.13, 0.00, 0.00, 0.00, 0.00, 0.00, 0.00, -9912.13, 0.000, 0.000, 0.000, 14:43:20.723, 1553971400723
200, -30748.60, 0.00, 0.00, 0.00, 0.00, 0.00, 0.00, -9935.71, 0.000, 0.000, 0.000, 14:43:20.724, 1553971400724
201, -30777.93, 0.00, 0.00, 0.00, 0.00, 0.00, 0.00, -9939.13, 0.000, 0.000, 0.000, 14:43:20.724, 1553971400724
202, -30810.38, 0.00, 0.00, 0.00, 0.00, 0.00, 0.00, -9930.97, 0.000, 0.000, 0.000, 14:43:20.724, 1553971400724
203, -30786.17, 0.00, 0.00, 0.00, 0.00, 0.00, 0.00, -9927.62, 0.000, 0.000, 0.000, 14:43:20.724, 1553971400724
204, -30748.27, 0.00, 0.00, 0.00, 0.00, 0.00, 0.00, -9930.01, 0.000, 0.000, 0.000, 14:43:20.724, 1553971400724
205, -30766.19, 0.00, 0.00, 0.00, 0.00, 0.00, 0.00, -9932.74, 0.000, 0.000, 0.000, 14:43:20.724, 1553971400724
206, -30815.25, 0.00, 0.00, 0.00, 0.00, 0.00, 0.00, -9932.27, 0.000, 0.000, 0.000, 14:43:20.724, 1553971400724
207, -30796.48, 0.00, 0.00, 0.00, 0.00, 0.00, 0.00, -9922.59, 0.000, 0.000, 0.000, 14:43:20.724, 1553971400724
208, -30744.44, 0.00, 0.00, 0.00, 0.00, 0.00, 0.00, -9921.40, 0.014, 0.038, -0.880, 14:43:20.724, 1553971400724
209, -30762.17, 0.00, 0.00, 0.00, 0.00, 0.00, 0.00, -9932.27, 0.000, 0.000, 0.000, 14:43:20.724, 1553971400724
210, -30813.26, 0.00, 0.00, 0.00, 0.00, 0.00, 0.00, -9933.96, 0.000, 0.000, 0.000, 14:43:20.724, 1553971400724
211, -30796.63, 0.00, 0.00, 0.00, 0.00, 0.00, 0.00, -9917.45, 0.000, 0.000, 0.000, 14:43:20.724, 1553971400724
212, -30762.97, 0.00, 0.00, 0.00, 0.00, 0.00, 0.00, -9927.88, 0.000, 0.000, 0.000, 14:43:20.724, 1553971400724
213, -30768.29, 0.00, 0.00, 0.00, 0.00, 0.00, 0.00, -9948.09, 0.000, 0.000, 0.000, 14:43:20.724, 1553971400724
214, -30812.06, 0.00, 0.00, 0.00, 0.00, 0.00, 0.00, -9952.54, 0.000, 0.000, 0.000, 14:43:20.725, 1553971400725
215, -30810.34, 0.00, 0.00, 0.00, 0.00, 0.00, 0.00, -9926.83, 0.000, 0.000, 0.000, 14:43:20.725, 1553971400725
216, -30752.71, 0.00, 0.00, 0.00, 0.00, 0.00, 0.00, -9908.10, 0.000, 0.000, 0.000, 14:43:20.725, 1553971400725
217, -30744.91, 0.00, 0.00, 0.00, 0.00, 0.00, 0.00, -9922.25, 0.000, 0.000, 0.000, 14:43:20.725, 1553971400725
218, -30799.18, 0.00, 0.00, 0.00, 0.00, 0.00, 0.00, -9940.00, 0.026, 0.064, -0.966, 14:43:20.725, 1553971400725
219, -30817.04, 0.00, 0.00, 0.00, 0.00, 0.00, 0.00, -9935.71, 0.000, 0.000, 0.000, 14:43:20.725, 1553971400725
220, -30772.41, 0.00, 0.00, 0.00, 0.00, 0.00, 0.00, -9924.51, 0.000, 0.000, 0.000, 14:43:20.725, 1553971400725
221, -30758.23, 0.00, 0.00, 0.00, 0.00, 0.00, 0.00, -9935.10, 0.000, 0.000, 0.000, 14:43:20.726, 1553971400726
222, -30801.20, 0.00, 0.00, 0.00, 0.00, 0.00, 0.00, -9943.98, 0.000, 0.000, 0.000, 14:43:20.726, 1553971400726
223, -30829.02, 0.00, 0.00, 0.00, 0.00, 0.00, 0.00, -9935.17, 0.000, 0.000, 0.000, 14:43:20.726, 1553971400726
224, -30800.28, 0.00, 0.00, 0.00, 0.00, 0.00, 0.00, -9936.11, 0.000, 0.000, 0.000, 14:43:20.726, 1553971400726
225, -30769.54, 0.00, 0.00, 0.00, 0.00, 0.00, 0.00, -9944.34, 0.000, 0.000, 0.000, 14:43:20.726, 1553971400726
226, -30791.14, 0.00, 0.00, 0.00, 0.00, 0.00, 0.00, -9952.47, 0.000, 0.000, 0.000, 14:43:20.726, 1553971400726
227, -30806.80, 0.00, 0.00, 0.00, 0.00, 0.00, 0.00, -9926.21, 0.032, 0.078, -0.988, 14:43:20.726, 1553971400726
228, -30774.53, 0.00, 0.00, 0.00, 0.00, 0.00, 0.00, -9902.31, 0.000, 0.000, 0.000, 14:43:21.194, 1553971401194
229, -30738.83, 0.00, 0.00, 0.00, 0.00, 0.00, 0.00, -9905.33, 0.000, 0.000, 0.000, 14:43:21.194, 1553971401194
230, -30764.09, 0.00, 0.00, 0.00, 0.00, 0.00, 0.00, -9915.95, 0.000, 0.000, 0.000, 14:43:21.194, 1553971401194
231, -30805.53, 0.00, 0.00, 0.00, 0.00, 0.00, 0.00, -9912.69, 0.000, 0.000, 0.000, 14:43:21.194, 1553971401194
232, -30782.73, 0.00, 0.00, 0.00, 0.00, 0.00, 0.00, -9898.29, 0.000, 0.000, 0.000, 14:43:21.194, 1553971401194
233, -30741.92, 0.00, 0.00, 0.00, 0.00, 0.00, 0.00, -9897.67, 0.000, 0.000, 0.000, 14:43:21.194, 1553971401194
234, -30739.68, 0.00, 0.00, 0.00, 0.00, 0.00, 0.00, -9894.98, 0.000, 0.000, 0.000, 14:43:21.194, 1553971401194
235, -30771.06, 0.00, 0.00, 0.00, 0.00, 0.00, 0.00, -9883.96, 0.000, 0.000, 0.000, 14:43:21.194, 1553971401194
236, -30765.74, 0.00, 0.00, 0.00, 0.00, 0.00, 0.00, -9866.26, 0.000, 0.000, 0.000, 14:43:21.195, 1553971401195
237, -30716.53, 0.00, 0.00, 0.00, 0.00, 0.00, 0.00, -9859.56, 0.032, 0.086, -1.010, 14:43:21.195, 1553971401195
238, -30710.96, 0.00, 0.00, 0.00, 0.00, 0.00, 0.00, -9861.41, 0.000, 0.000, 0.000, 14:43:21.195, 1553971401195
239, -30765.14, 0.00, 0.00, 0.00, 0.00, 0.00, 0.00, -9874.37, 0.000, 0.000, 0.000, 14:43:21.195, 1553971401195
240, -30776.05, 0.00, 0.00, 0.00, 0.00, 0.00, 0.00, -9875.16, 0.000, 0.000, 0.000, 14:43:21.195, 1553971401195
241, -30721.67, 0.00, 0.00, 0.00, 0.00, 0.00, 0.00, -9856.92, 0.000, 0.000, 0.000, 14:43:21.195, 1553971401195
242, -30702.67, 0.00, 0.00, 0.00, 0.00, 0.00, 0.00, -9862.62, 0.000, 0.000, 0.000, 14:43:21.195, 1553971401195
243, -30740.15, 0.00, 0.00, 0.00, 0.00, 0.00, 0.00, -9859.11, 0.000, 0.000, 0.000, 14:43:21.195, 1553971401195
244, -30757.27, 0.00, 0.00, 0.00, 0.00, 0.00, 0.00, -9854.06, 0.000, 0.000, 0.000, 14:43:21.195, 1553971401195
245, -30724.95, 0.00, 0.00, 0.00, 0.00, 0.00, 0.00, -9855.04, 0.000, 0.000, 0.000, 14:43:21.195, 1553971401195
246, -30691.16, 0.00, 0.00, 0.00, 0.00, 0.00, 0.00, -9850.75, 0.000, 0.000, 0.000, 14:43:21.195, 1553971401195
247, -30724.75, 0.00, 0.00, 0.00, 0.00, 0.00, 0.00, -9848.67, 0.034, 0.080, -1.016, 14:43:21.195, 1553971401195
248, -30762.32, 0.00, 0.00, 0.00, 0.00, 0.00, 0.00, -9843.42, 0.000, 0.000, 0.000, 14:43:21.195, 1553971401195
249, -30725.45, 0.00, 0.00, 0.00, 0.00, 0.00, 0.00, -9846.86, 0.000, 0.000, 0.000, 14:43:21.195, 1553971401195
250, -30703.90, 0.00, 0.00, 0.00, 0.00, 0.00, 0.00, -9861.52, 0.000, 0.000, 0.000, 14:43:21.195, 1553971401195
251, -30730.61, 0.00, 0.00, 0.00, 0.00, 0.00, 0.00, -9859.82, 0.000, 0.000, 0.000, 14:43:21.195, 1553971401195
252, -30761.74, 0.00, 0.00, 0.00, 0.00, 0.00, 0.00, -9858.28, 0.000, 0.000, 0.000, 14:43:21.195, 1553971401195
253, -30737.20, 0.00, 0.00, 0.00, 0.00, 0.00, 0.00, -9840.22, 0.000, 0.000, 0.000, 14:43:21.195, 1553971401195
254, -30704.41, 0.00, 0.00, 0.00, 0.00, 0.00, 0.00, -9840.69, 0.000, 0.000, 0.000, 14:43:21.195, 1553971401195
255, -30724.86, 0.00, 0.00, 0.00, 0.00, 0.00, 0.00, -9854.24, 0.000, 0.000, 0.000, 14:43:21.195, 1553971401195
0, -30766.59, 0.00, 0.00, 0.00, 0.00, 0.00, 0.00, -9851.84, 0.000, 0.000, 0.000, 14:43:21.195, 1553971401195
1, -30760.71, 0.00, 0.00, 0.00, 0.00, 0.00, 0.00, -9847.44, 0.052, 0.078, -1.014, 14:43:21.195, 1553971401195
2, -30716.10, 0.00, 0.00, 0.00, 0.00, 0.00, 0.00, -9856.14, 0.000, 0.000, 0.000, 14:43:21.195, 1553971401195
3, -30716.10, 0.00, 0.00, 0.00, 0.00, 0.00, 0.00, -9864.83, 0.000, 0.000, 0.000, 14:43:21.196, 1553971401196
4, -30756.38, 0.00, 0.00, 0.00, 0.00, 0.00, 0.00, -9856.43, 0.000, 0.000, 0.000, 14:43:21.196, 1553971401196
5, -30753.14, 0.00, 0.00, 0.00, 0.00, 0.00, 0.00, -9846.93, 0.000, 0.000, 0.000, 14:43:21.196, 1553971401196
6, -30715.50, 0.00, 0.00, 0.00, 0.00, 0.00, 0.00, -9855.91, 0.000, 0.000, 0.000, 14:43:21.196, 1553971401196
7, -30711.29, 0.00, 0.00, 0.00, 0.00, 0.00, 0.00, -9867.20, 0.000, 0.000, 0.000, 14:43:21.196, 1553971401196
8, -30757.14, 0.00, 0.00, 0.00, 0.00, 0.00, 0.00, -9868.29, 0.000, 0.000, 0.000, 14:43:21.196, 1553971401196
9, -30770.62, 0.00, 0.00, 0.00, 0.00, 0.00, 0.00, -9860.78, 0.000, 0.000, 0.000, 14:43:21.196, 1553971401196
10, -30725.31, 0.00, 0.00, 0.00, 0.00, 0.00, 0.00, -9857.43, 0.000, 0.000, 0.000, 14:43:21.196, 1553971401196
11, -30720.21, 0.00, 0.00, 0.00, 0.00, 0.00, 0.00, -9876.30, 0.054, 0.092, -1.018, 14:43:21.196, 1553971401196
12, -30773.39, 0.00, 0.00, 0.00, 0.00, 0.00, 0.00, -9891.14, 0.000, 0.000, 0.000, 14:43:21.196, 1553971401196
13, -30792.70, 0.00, 0.00, 0.00, 0.00, 0.00, 0.00, -9883.16, 0.000, 0.000, 0.000, 14:43:21.196, 1553971401196
14, -30732.73, 0.00, 0.00, 0.00, 0.00, 0.00, 0.00, -9861.48, 0.000, 0.000, 0.000, 14:43:21.196, 1553971401196
15, -30705.30, 0.00, 0.00, 0.00, 0.00, 0.00, 0.00, -9870.22, 0.000, 0.000, 0.000, 14:43:21.196, 1553971401196
16, -30746.14, 0.00, 0.00, 0.00, 0.00, 0.00, 0.00, -9879.63, 0.000, 0.000, 0.000, 14:43:21.197, 1553971401197
17, -30774.64, 0.00, 0.00, 0.00, 0.00, 0.00, 0.00, -9869.08, 0.000, 0.000, 0.000, 14:43:21.197, 1553971401197
18, -30744.55, 0.00, 0.00, 0.00, 0.00, 0.00, 0.00, -9858.73, 0.000, 0.000, 0.000, 14:43:21.197, 1553971401197
19, -30702.49, 0.00, 0.00, 0.00, 0.00, 0.00, 0.00, -9865.03, 0.000, 0.000, 0.000, 14:43:21.197, 1553971401197
20, -30727.70, 0.00, 0.00, 0.00, 0.00, 0.00, 0.00, -9871.11, 0.000, 0.000, 0.000, 14:43:21.197, 1553971401197
21, -30762.71, 0.00, 0.00, 0.00, 0.00, 0.00, 0.00, -9860.72, 0.048, 0.096, -1.026, 14:43:21.197, 1553971401197
22, -30740.15, 0.00, 0.00, 0.00, 0.00, 0.00, 0.00, -9853.59, 0.000, 0.000, 0.000, 14:43:21.197, 1553971401197
23, -30710.80, 0.00, 0.00, 0.00, 0.00, 0.00, 0.00, -9861.90, 0.000, 0.000, 0.000, 14:43:21.197, 1553971401197
24, -30728.82, 0.00, 0.00, 0.00, 0.00, 0.00, 0.00, -9882.17, 0.000, 0.000, 0.000, 14:43:21.197, 1553971401197
25, -30767.26, 0.00, 0.00, 0.00, 0.00, 0.00, 0.00, -9873.37, 0.000, 0.000, 0.000, 14:43:21.197, 1553971401197
26, -30763.44, 0.00, 0.00, 0.00, 0.00, 0.00, 0.00, -9871.11, 0.000, 0.000, 0.000, 14:43:21.197, 1553971401197
27, -30721.94, 0.00, 0.00, 0.00, 0.00, 0.00, 0.00, -9879.16, 0.000, 0.000, 0.000, 14:43:21.197, 1553971401197
28, -30719.23, 0.00, 0.00, 0.00, 0.00, 0.00, 0.00, -9880.95, 0.000, 0.000, 0.000, 14:43:21.197, 1553971401197
29, -30760.83, 0.00, 0.00, 0.00, 0.00, 0.00, 0.00, -9874.96, 0.000, 0.000, 0.000, 14:43:21.197, 1553971401197
30, -30763.62, 0.00, 0.00, 0.00, 0.00, 0.00, 0.00, -9873.41, 0.000, 0.000, 0.000, 14:43:21.198, 1553971401198
31, -30726.18, 0.00, 0.00, 0.00, 0.00, 0.00, 0.00, -9881.97, 0.046, 0.086, -1.026, 14:43:21.198, 1553971401198
32, -30723.37, 0.00, 0.00, 0.00, 0.00, 0.00, 0.00, -9892.05, 0.000, 0.000, 0.000, 14:43:21.198, 1553971401198
33, -30770.24, 0.00, 0.00, 0.00, 0.00, 0.00, 0.00, -9897.29, 0.000, 0.000, 0.000, 14:43:21.198, 1553971401198
34, -30784.50, 0.00, 0.00, 0.00, 0.00, 0.00, 0.00, -9888.95, 0.000, 0.000, 0.000, 14:43:21.198, 1553971401198
35, -30735.73, 0.00, 0.00, 0.00, 0.00, 0.00, 0.00, -9877.50, 0.000, 0.000, 0.000, 14:43:21.198, 1553971401198
36, -30721.38, 0.00, 0.00, 0.00, 0.00, 0.00, 0.00, -9883.78, 0.000, 0.000, 0.000, 14:43:21.198, 1553971401198
37, -30760.89, 0.00, 0.00, 0.00, 0.00, 0.00, 0.00, -9885.15, 0.000, 0.000, 0.000, 14:43:21.198, 1553971401198
38, -30786.22, 0.00, 0.00, 0.00, 0.00, 0.00, 0.00, -9878.53, 0.000, 0.000, 0.000, 14:43:21.198, 1553971401198
39, -30749.18, 0.00, 0.00, 0.00, 0.00, 0.00, 0.00, -9876.05, 0.000, 0.000, 0.000, 14:43:21.198, 1553971401198
40, -30715.56, 0.00, 0.00, 0.00, 0.00, 0.00, 0.00, -9884.50, 0.046, 0.070, -1.022, 14:43:21.199, 1553971401199
41, -30740.35, 0.00, 0.00, 0.00, 0.00, 0.00, 0.00, -9886.65, 0.000, 0.000, 0.000, 14:43:21.199, 1553971401199
42, -30780.38, 0.00, 0.00, 0.00, 0.00, 0.00, 0.00, -9882.69, 0.000, 0.000, 0.000, 14:43:21.199, 1553971401199
43, -30741.94, 0.00, 0.00, 0.00, 0.00, 0.00, 0.00, -9865.66, 0.000, 0.000, 0.000, 14:43:21.199, 1553971401199
44, -30699.11, 0.00, 0.00, 0.00, 0.00, 0.00, 0.00, -9869.21, 0.000, 0.000, 0.000, 14:43:21.199, 1553971401199
45, -30728.28, 0.00, 0.00, 0.00, 0.00, 0.00, 0.00, -9881.17, 0.000, 0.000, 0.000, 14:43:21.199, 1553971401199
46, -30768.00, 0.00, 0.00, 0.00, 0.00, 0.00, 0.00, -9874.64, 0.000, 0.000, 0.000, 14:43:21.199, 1553971401199
47, -30740.51, 0.00, 0.00, 0.00, 0.00, 0.00, 0.00, -9861.72, 0.000, 0.000, 0.000, 14:43:21.199, 1553971401199
48, -30705.82, 0.00, 0.00, 0.00, 0.00, 0.00, 0.00, -9875.69, 0.000, 0.000, 0.000, 14:43:21.199, 1553971401199
49, -30725.96, 0.00, 0.00, 0.00, 0.00, 0.00, 0.00, -9889.01, 0.000, 0.000, 0.000, 14:43:21.199, 1553971401199
50, -30765.37, 0.00, 0.00, 0.00, 0.00, 0.00, 0.00, -9882.24, 0.054, 0.088, -1.020, 14:43:21.199, 1553971401199
51, -30752.06, 0.00, 0.00, 0.00, 0.00, 0.00, 0.00, -9867.20, 0.000, 0.000, 0.000, 14:43:21.199, 1553971401199
52, -30704.57, 0.00, 0.00, 0.00, 0.00, 0.00, 0.00, -9864.52, 0.000, 0.000, 0.000, 14:43:21.199, 1553971401199
53, -30707.32, 0.00, 0.00, 0.00, 0.00, 0.00, 0.00, -9872.47, 0.000, 0.000, 0.000, 14:43:21.199, 1553971401199
54, -30752.38, 0.00, 0.00, 0.00, 0.00, 0.00, 0.00, -9875.56, 0.000, 0.000, 0.000, 14:43:21.199, 1553971401199
55, -30752.65, 0.00, 0.00, 0.00, 0.00, 0.00, 0.00, -9865.52, 0.000, 0.000, 0.000, 14:43:21.199, 1553971401199
56, -30714.98, 0.00, 0.00, 0.00, 0.00, 0.00, 0.00, -9870.89, 0.000, 0.000, 0.000, 14:43:21.199, 1553971401199
57, -30710.31, 0.00, 0.00, 0.00, 0.00, 0.00, 0.00, -9886.76, 0.000, 0.000, 0.000, 14:43:21.199, 1553971401199
58, -30765.72, 0.00, 0.00, 0.00, 0.00, 0.00, 0.00, -9897.06, 0.000, 0.000, 0.000, 14:43:21.199, 1553971401199
59, -30778.57, 0.00, 0.00, 0.00, 0.00, 0.00, 0.00, -9888.39, 0.000, 0.000, 0.000, 14:43:21.199, 1553971401199
60, -30733.69, 0.00, 0.00, 0.00, 0.00, 0.00, 0.00, -9884.66, 0.050, 0.090, -1.026, 14:43:21.200, 1553971401200
61, -30721.35, 0.00, 0.00, 0.00, 0.00, 0.00, 0.00, -9907.08, 0.000, 0.000, 0.000, 14:43:21.200, 1553971401200
62, -30761.16, 0.00, 0.00, 0.00, 0.00, 0.00, 0.00, -9905.73, 0.000, 0.000, 0.000, 14:43:21.200, 1553971401200
63, -30774.82, 0.00, 0.00, 0.00, 0.00, 0.00, 0.00, -9875.40, 0.000, 0.000, 0.000, 14:43:21.200, 1553971401200
64, -30742.21, 0.00, 0.00, 0.00, 0.00, 0.00, 0.00, -9879.20, 0.000, 0.000, 0.000, 14:43:21.200, 1553971401200
65, -30704.70, 0.00, 0.00, 0.00, 0.00, 0.00, 0.00, -9883.49, 0.000, 0.000, 0.000, 14:43:21.200, 1553971401200
66, -30734.97, 0.00, 0.00, 0.00, 0.00, 0.00, 0.00, -9883.54, 0.000, 0.000, 0.000, 14:43:21.200, 1553971401200
67, -30769.84, 0.00, 0.00, 0.00, 0.00, 0.00, 0.00, -9871.92, 0.000, 0.000, 0.000, 14:43:21.200, 1553971401200
68, -30736.78, 0.00, 0.00, 0.00, 0.00, 0.00, 0.00, -9861.81, 0.000, 0.000, 0.000, 14:43:21.201, 1553971401201
69, -30701.55, 0.00, 0.00, 0.00, 0.00, 0.00, 0.00, -9873.79, 0.000, 0.000, 0.000, 14:43:21.201, 1553971401201
70, -30728.62, 0.00, 0.00, 0.00, 0.00, 0.00, 0.00, -9881.01, 0.048, 0.094, -1.020, 14:43:21.201, 1553971401201
71, -30770.35, 0.00, 0.00, 0.00, 0.00, 0.00, 0.00, -9872.61, 0.000, 0.000, 0.000, 14:43:21.201, 1553971401201
72, -30743.19, 0.00, 0.00, 0.00, 0.00, 0.00, 0.00, -9856.81, 0.000, 0.000, 0.000, 14:43:21.201, 1553971401201
73, -30700.77, 0.00, 0.00, 0.00, 0.00, 0.00, 0.00, -9867.56, 0.000, 0.000, 0.000, 14:43:21.201, 1553971401201
74, -30723.07, 0.00, 0.00, 0.00, 0.00, 0.00, 0.00, -9886.24, 0.000, 0.000, 0.000, 14:43:21.201, 1553971401201
75, -30763.15, 0.00, 0.00, 0.00, 0.00, 0.00, 0.00, -9877.71, 0.000, 0.000, 0.000, 14:43:21.201, 1553971401201
76, -30760.96, 0.00, 0.00, 0.00, 0.00, 0.00, 0.00, -9876.86, 0.000, 0.000, 0.000, 14:43:21.201, 1553971401201
77, -30704.88, 0.00, 0.00, 0.00, 0.00, 0.00, 0.00, -9869.84, 0.000, 0.000, 0.000, 14:43:21.201, 1553971401201
78, -30708.59, 0.00, 0.00, 0.00, 0.00, 0.00, 0.00, -9881.93, 0.000, 0.000, 0.000, 14:43:21.201, 1553971401201
79, -30761.10, 0.00, 0.00, 0.00, 0.00, 0.00, 0.00, -9886.65, 0.000, 0.000, 0.000, 14:43:21.201, 1553971401201
80, -30767.13, 0.00, 0.00, 0.00, 0.00, 0.00, 0.00, -9879.52, 0.044, 0.090, -1.022, 14:43:21.201, 1553971401201
81, -30715.81, 0.00, 0.00, 0.00, 0.00, 0.00, 0.00, -9873.66, 0.000, 0.000, 0.000, 14:43:21.201, 1553971401201
82, -30718.02, 0.00, 0.00, 0.00, 0.00, 0.00, 0.00, -9896.15, 0.000, 0.000, 0.000, 14:43:21.201, 1553971401201
83, -30760.71, 0.00, 0.00, 0.00, 0.00, 0.00, 0.00, -9896.03, 0.000, 0.000, 0.000, 14:43:21.201, 1553971401201
84, -30770.84, 0.00, 0.00, 0.00, 0.00, 0.00, 0.00, -9881.62, 0.000, 0.000, 0.000, 14:43:21.201, 1553971401201
85, -30736.53, 0.00, 0.00, 0.00, 0.00, 0.00, 0.00, -9887.41, 0.000, 0.000, 0.000, 14:43:21.201, 1553971401201
86, -30712.77, 0.00, 0.00, 0.00, 0.00, 0.00, 0.00, -9898.16, 0.000, 0.000, 0.000, 14:43:21.201, 1553971401201
87, -30761.05, 0.00, 0.00, 0.00, 0.00, 0.00, 0.00, -9906.90, 0.000, 0.000, 0.000, 14:43:21.202, 1553971401202
88, -30785.71, 0.00, 0.00, 0.00, 0.00, 0.00, 0.00, -9898.04, 0.000, 0.000, 0.000, 14:43:21.202, 1553971401202
89, -30745.52, 0.00, 0.00, 0.00, 0.00, 0.00, 0.00, -9886.02, 0.000, 0.000, 0.000, 14:43:21.202, 1553971401202
90, -30726.09, 0.00, 0.00, 0.00, 0.00, 0.00, 0.00, -9897.37, 0.040, 0.090, -1.024, 14:43:21.202, 1553971401202
91, -30759.69, 0.00, 0.00, 0.00, 0.00, 0.00, 0.00, -9911.93, 0.000, 0.000, 0.000, 14:43:21.202, 1553971401202
92, -30795.34, 0.00, 0.00, 0.00, 0.00, 0.00, 0.00, -9906.72, 0.000, 0.000, 0.000, 14:43:21.675, 1553971401675
93, -30768.90, 0.00, 0.00, 0.00, 0.00, 0.00, 0.00, -9900.95, 0.000, 0.000, 0.000, 14:43:21.675, 1553971401675
94, -30726.85, 0.00, 0.00, 0.00, 0.00, 0.00, 0.00, -9899.36, 0.000, 0.000, 0.000, 14:43:21.675, 1553971401675
95, -30741.16, 0.00, 0.00, 0.00, 0.00, 0.00, 0.00, -9899.41, 0.000, 0.000, 0.000, 14:43:21.675, 1553971401675
96, -30792.25, 0.00, 0.00, 0.00, 0.00, 0.00, 0.00, -9909.60, 0.000, 0.000, 0.000, 14:43:21.675, 1553971401675
97, -30776.54, 0.00, 0.00, 0.00, 0.00, 0.00, 0.00, -9906.16, 0.000, 0.000, 0.000, 14:43:21.675, 1553971401675
98, -30723.59, 0.00, 0.00, 0.00, 0.00, 0.00, 0.00, -9890.96, 0.000, 0.000, 0.000, 14:43:21.675, 1553971401675
99, -30729.76, 0.00, 0.00, 0.00, 0.00, 0.00, 0.00, -9898.29, 0.036, 0.092, -1.018, 14:43:21.675, 1553971401675
100, -30784.43, 0.00, 0.00, 0.00, 0.00, 0.00, 0.00, -9905.38, 0.000, 0.000, 0.000, 14:43:21.675, 1553971401675
101, -30787.85, 0.00, 0.00, 0.00, 0.00, 0.00, 0.00, -9901.73, 0.000, 0.000, 0.000, 14:43:21.675, 1553971401675
102, -30735.95, 0.00, 0.00, 0.00, 0.00, 0.00, 0.00, -9899.56, 0.000, 0.000, 0.000, 14:43:21.675, 1553971401675
103, -30736.82, 0.00, 0.00, 0.00, 0.00, 0.00, 0.00, -9912.48, 0.000, 0.000, 0.000, 14:43:21.675, 1553971401675
104, -30798.24, 0.00, 0.00, 0.00, 0.00, 0.00, 0.00, -9931.46, 0.000, 0.000, 0.000, 14:43:21.675, 1553971401675
105, -30801.46, 0.00, 0.00, 0.00, 0.00, 0.00, 0.00, -9919.79, 0.000, 0.000, 0.000, 14:43:21.675, 1553971401675
106, -30760.40, 0.00, 0.00, 0.00, 0.00, 0.00, 0.00, -9917.04, 0.000, 0.000, 0.000, 14:43:21.675, 1553971401675
107, -30742.97, 0.00, 0.00, 0.00, 0.00, 0.00, 0.00, -9920.89, 0.000, 0.000, 0.000, 14:43:21.676, 1553971401676
108, -30786.69, 0.00, 0.00, 0.00, 0.00, 0.00, 0.00, -9922.86, 0.000, 0.000, 0.000, 14:43:21.676, 1553971401676
109, -30804.75, 0.00, 0.00, 0.00, 0.00, 0.00, 0.00, -9912.19, 0.038, 0.086, -1.022, 14:43:21.676, 1553971401676
110, -30759.93, 0.00, 0.00, 0.00, 0.00, 0.00, 0.00, -9904.46, 0.000, 0.000, 0.000, 14:43:21.676, 1553971401676
111, -30737.25, 0.00, 0.00, 0.00, 0.00, 0.00, 0.00, -9915.08, 0.000, 0.000, 0.000, 14:43:21.676, 1553971401676
112, -30774.48, 0.00, 0.00, 0.00, 0.00, 0.00, 0.00, -9923.48, 0.000, 0.000, 0.000, 14:43:21.676, 1553971401676
113, -30807.72, 0.00, 0.00, 0.00, 0.00, 0.00, 0.00, -9917.85, 0.000, 0.000, 0.000, 14:43:21.676, 1553971401676
114, -30774.55, 0.00, 0.00, 0.00, 0.00, 0.00, 0.00, -9907.50, 0.000, 0.000, 0.000, 14:43:21.676, 1553971401676
115, -30732.06, 0.00, 0.00, 0.00, 0.00, 0.00, 0.00, -9906.34, 0.000, 0.000, 0.000, 14:43:21.676, 1553971401676
116, -30760.69, 0.00, 0.00, 0.00, 0.00, 0.00, 0.00, -9909.82, 0.000, 0.000, 0.000, 14:43:21.676, 1553971401676
117, -30804.59, 0.00, 0.00, 0.00, 0.00, 0.00, 0.00, -9909.69, 0.000, 0.000, 0.000, 14:43:21.676, 1553971401676
118, -30778.93, 0.00, 0.00, 0.00, 0.00, 0.00, 0.00, -9902.87, 0.000, 0.000, 0.000, 14:43:21.676, 1553971401676
119, -30732.22, 0.00, 0.00, 0.00, 0.00, 0.00, 0.00, -9904.28, 0.050, 0.084, -1.020, 14:43:21.676, 1553971401676
120, -30755.42, 0.00, 0.00, 0.00, 0.00, 0.00, 0.00, -9915.59, 0.000, 0.000, 0.000, 14:43:21.676, 1553971401676
121, -30800.01, 0.00, 0.00, 0.00, 0.00, 0.00, 0.00, -9910.36, 0.000, 0.000, 0.000, 14:43:21.676, 1553971401676
122, -30788.50, 0.00, 0.00, 0.00, 0.00, 0.00, 0.00, -9906.54, 0.000, 0.000, 0.000, 14:43:21.676, 1553971401676
123, -30747.91, 0.00, 0.00, 0.00, 0.00, 0.00, 0.00, -9906.99, 0.000, 0.000, 0.000, 14:43:21.677, 1553971401677
124, -30759.22, 0.00, 0.00, 0.00, 0.00, 0.00, 0.00, -9914.09, 0.000, 0.000, 0.000, 14:43:21.677, 1553971401677
125, -30805.96, 0.00, 0.00, 0.00, 0.00, 0.00, 0.00, -9923.71, 0.000, 0.000, 0.000, 14:43:21.677, 1553971401677
126, -30794.58, 0.00, 0.00, 0.00, 0.00, 0.00, 0.00, -9905.00, 0.000, 0.000, 0.000, 14:43:21.677, 1553971401677
127, -30742.97, 0.00, 0.00, 0.00, 0.00, 0.00, 0.00, -9898.31, 0.000, 0.000, 0.000, 14:43:21.677, 1553971401677
128, -30746.10, 0.00, 0.00, 0.00, 0.00, 0.00, 0.00, -9911.77, 0.000, 0.000, 0.000, 14:43:21.677, 1553971401677
129, -30780.01, 0.00, 0.00, 0.00, 0.00, 0.00, 0.00, -9904.35, 0.044, 0.084, -1.030, 14:43:21.677, 1553971401677
130, -30781.21, 0.00, 0.00, 0.00, 0.00, 0.00, 0.00, -9889.80, 0.000, 0.000, 0.000, 14:43:21.677, 1553971401677
131, -30747.95, 0.00, 0.00, 0.00, 0.00, 0.00, 0.00, -9888.99, 0.000, 0.000, 0.000, 14:43:21.678, 1553971401678
132, -30738.54, 0.00, 0.00, 0.00, 0.00, 0.00, 0.00, -9905.56, 0.000, 0.000, 0.000, 14:43:21.678, 1553971401678
133, -30780.41, 0.00, 0.00, 0.00, 0.00, 0.00, 0.00, -9907.12, 0.000, 0.000, 0.000, 14:43:21.678, 1553971401678
134, -30793.21, 0.00, 0.00, 0.00, 0.00, 0.00, 0.00, -9892.37, 0.000, 0.000, 0.000, 14:43:21.678, 1553971401678
135, -30751.35, 0.00, 0.00, 0.00, 0.00, 0.00, 0.00, -9886.60, 0.000, 0.000, 0.000, 14:43:21.678, 1553971401678
136, -30732.37, 0.00, 0.00, 0.00, 0.00, 0.00, 0.00, -9892.81, 0.000, 0.000, 0.000, 14:43:21.678, 1553971401678
137, -30766.59, 0.00, 0.00, 0.00, 0.00, 0.00, 0.00, -9892.26, 0.000, 0.000, 0.000, 14:43:21.678, 1553971401678
138, -30803.59, 0.00, 0.00, 0.00, 0.00, 0.00, 0.00, -9889.62, 0.000, 0.000, 0.000, 14:43:21.678, 1553971401678
139, -30771.87, 0.00, 0.00, 0.00, 0.00, 0.00, 0.00, -9895.38, 0.038, 0.078, -1.032, 14:43:21.678, 1553971401678
140, -30729.38, 0.00, 0.00, 0.00, 0.00, 0.00, 0.00, -9894.87, 0.000, 0.000, 0.000, 14:43:21.678, 1553971401678
141, -30751.10, 0.00, 0.00, 0.00, 0.00, 0.00, 0.00, -9894.60, 0.000, 0.000, 0.000, 14:43:21.678, 1553971401678
142, -30786.31, 0.00, 0.00, 0.00, 0.00, 0.00, 0.00, -9882.96, 0.000, 0.000, 0.000, 14:43:21.678, 1553971401678
143, -30752.24, 0.00, 0.00, 0.00, 0.00, 0.00, 0.00, -9868.63, 0.000, 0.000, 0.000, 14:43:21.678, 1553971401678
144, -30712.77, 0.00, 0.00, 0.00, 0.00, 0.00, 0.00, -9875.25, 0.000, 0.000, 0.000, 14:43:21.678, 1553971401678
145, -30729.22, 0.00, 0.00, 0.00, 0.00, 0.00, 0.00, -9881.93, 0.000, 0.000, 0.000, 14:43:21.679, 1553971401679
146, -30776.29, 0.00, 0.00, 0.00, 0.00, 0.00, 0.00, -9880.61, 0.000, 0.000, 0.000, 14:43:21.679, 1553971401679
147, -30770.35, 0.00, 0.00, 0.00, 0.00, 0.00, 0.00, -9878.78, 0.000, 0.000, 0.000, 14:43:21.679, 1553971401679
148, -30723.16, 0.00, 0.00, 0.00, 0.00, 0.00, 0.00, -9884.43, 0.000, 0.000, 0.000, 14:43:21.679, 1553971401679
149, -30730.38, 0.00, 0.00, 0.00, 0.00, 0.00, 0.00, -9896.66, 0.024, 0.078, -1.018, 14:43:21.679, 1553971401679
150, -30772.92, 0.00, 0.00, 0.00, 0.00, 0.00, 0.00, -9890.20, 0.000, 0.000, 0.000, 14:43:21.679, 1553971401679
151, -30771.87, 0.00, 0.00, 0.00, 0.00, 0.00, 0.00, -9876.95, 0.000, 0.000, 0.000, 14:43:21.679, 1553971401679
152, -30732.48, 0.00, 0.00, 0.00, 0.00, 0.00, 0.00, -9886.38, 0.000, 0.000, 0.000, 14:43:21.679, 1553971401679
153, -30717.60, 0.00, 0.00, 0.00, 0.00, 0.00, 0.00, -9887.56, 0.000, 0.000, 0.000, 14:43:21.679, 1553971401679
154, -30764.72, 0.00, 0.00, 0.00, 0.00, 0.00, 0.00, -9885.44, 0.000, 0.000, 0.000, 14:43:21.680, 1553971401680
155, -30787.78, 0.00, 0.00, 0.00, 0.00, 0.00, 0.00, -9879.67, 0.000, 0.000, 0.000, 14:43:21.680, 1553971401680
156, -30746.48, 0.00, 0.00, 0.00, 0.00, 0.00, 0.00, -9883.96, 0.000, 0.000, 0.000, 14:43:21.680, 1553971401680
157, -30723.28, 0.00, 0.00, 0.00, 0.00, 0.00, 0.00, -9886.20, 0.000, 0.000, 0.000, 14:43:21.680, 1553971401680
158, -30772.88, 0.00, 0.00, 0.00, 0.00, 0.00, 0.00, -9895.65, 0.000, 0.000, 0.000, 14:43:21.680, 1553971401680
159, -30799.65, 0.00, 0.00, 0.00, 0.00, 0.00, 0.00, -9896.91, 0.028, 0.080, -1.032, 14:43:21.680, 1553971401680
160, -30761.72, 0.00, 0.00, 0.00, 0.00, 0.00, 0.00, -9896.95, 0.000, 0.000, 0.000, 14:43:21.680, 1553971401680
161, -30731.52, 0.00, 0.00, 0.00, 0.00, 0.00, 0.00, -9904.88, 0.000, 0.000, 0.000, 14:43:21.680, 1553971401680
162, -30770.93, 0.00, 0.00, 0.00, 0.00, 0.00, 0.00, -9908.17, 0.000, 0.000, 0.000, 14:43:21.680, 1553971401680
163, -30809.17, 0.00, 0.00, 0.00, 0.00, 0.00, 0.00, -9909.58, 0.000, 0.000, 0.000, 14:43:21.680, 1553971401680
164, -30764.58, 0.00, 0.00, 0.00, 0.00, 0.00, 0.00, -9891.81, 0.000, 0.000, 0.000, 14:43:21.680, 1553971401680
165, -30730.83, 0.00, 0.00, 0.00, 0.00, 0.00, 0.00, -9896.82, 0.000, 0.000, 0.000, 14:43:21.680, 1553971401680
166, -30759.66, 0.00, 0.00, 0.00, 0.00, 0.00, 0.00, -9907.88, 0.000, 0.000, 0.000, 14:43:21.680, 1553971401680
167, -30787.13, 0.00, 0.00, 0.00, 0.00, 0.00, 0.00, -9892.26, 0.000, 0.000, 0.000, 14:43:21.680, 1553971401680
168, -30760.00, 0.00, 0.00, 0.00, 0.00, 0.00, 0.00, -9876.07, 0.036, 0.086, -1.038, 14:43:21.681, 1553971401681
169, -30729.20, 0.00, 0.00, 0.00, 0.00, 0.00, 0.00, -9886.38, 0.000, 0.000, 0.000, 14:43:21.681, 1553971401681
170, -30759.55, 0.00, 0.00, 0.00, 0.00, 0.00, 0.00, -9911.68, 0.000, 0.000, 0.000, 14:43:21.681, 1553971401681
171, -30793.06, 0.00, 0.00, 0.00, 0.00, 0.00, 0.00, -9905.78, 0.000, 0.000, 0.000, 14:43:21.681, 1553971401681
172, -30773.32, 0.00, 0.00, 0.00, 0.00, 0.00, 0.00, -9888.70, 0.000, 0.000, 0.000, 14:43:21.681, 1553971401681
173, -30737.98, 0.00, 0.00, 0.00, 0.00, 0.00, 0.00, -9900.10, 0.000, 0.000, 0.000, 14:43:21.681, 1553971401681
174, -30744.31, 0.00, 0.00, 0.00, 0.00, 0.00, 0.00, -9915.48, 0.000, 0.000, 0.000, 14:43:21.681, 1553971401681
175, -30789.68, 0.00, 0.00, 0.00, 0.00, 0.00, 0.00, -9909.87, 0.000, 0.000, 0.000, 14:43:21.681, 1553971401681
176, -30790.73, 0.00, 0.00, 0.00, 0.00, 0.00, 0.00, -9903.63, 0.000, 0.000, 0.000, 14:43:21.681, 1553971401681
177, -30742.99, 0.00, 0.00, 0.00, 0.00, 0.00, 0.00, -9901.82, 0.000, 0.000, 0.000, 14:43:21.681, 1553971401681
178, -30733.98, 0.00, 0.00, 0.00, 0.00, 0.00, 0.00, -9912.42, 0.036, 0.092, -1.058, 14:43:21.681, 1553971401681
179, -30781.99, 0.00, 0.00, 0.00, 0.00, 0.00, 0.00, -9918.68, 0.000, 0.000, 0.000, 14:43:21.681, 1553971401681
180, -30792.66, 0.00, 0.00, 0.00, 0.00, 0.00, 0.00, -9901.80, 0.000, 0.000, 0.000, 14:43:21.681, 1553971401681
181, -30748.18, 0.00, 0.00, 0.00, 0.00, 0.00, 0.00, -9896.50, 0.000, 0.000, 0.000, 14:43:21.681, 1553971401681
182, -30736.42, 0.00, 0.00, 0.00, 0.00, 0.00, 0.00, -9917.16, 0.000, 0.000, 0.000, 14:43:21.681, 1553971401681
183, -30780.92, 0.00, 0.00, 0.00, 0.00, 0.00, 0.00, -9921.96, 0.000, 0.000, 0.000, 14:43:21.681, 1553971401681
184, -30799.94, 0.00, 0.00, 0.00, 0.00, 0.00, 0.00, -9914.79, 0.000, 0.000, 0.000, 14:43:21.681, 1553971401681
185, -30770.77, 0.00, 0.00, 0.00, 0.00, 0.00, 0.00, -9918.72, 0.000, 0.000, 0.000, 14:43:21.682, 1553971401682
186, -30735.93, 0.00, 0.00, 0.00, 0.00, 0.00, 0.00, -9914.63, 0.000, 0.000, 0.000, 14:43:21.682, 1553971401682
187, -30778.82, 0.00, 0.00, 0.00, 0.00, 0.00, 0.00, -9922.30, 0.000, 0.000, 0.000, 14:43:21.682, 1553971401682
188, -30812.53, 0.00, 0.00, 0.00, 0.00, 0.00, 0.00, -9915.05, 0.032, 0.082, -1.028, 14:43:21.682, 1553971401682
189, -30763.98, 0.00, 0.00, 0.00, 0.00, 0.00, 0.00, -9891.32, 0.000, 0.000, 0.000, 14:43:21.682, 1553971401682
190, -30728.26, 0.00, 0.00, 0.00, 0.00, 0.00, 0.00, -9903.86, 0.000, 0.000, 0.000, 14:43:21.682, 1553971401682
191, -30765.99, 0.00, 0.00, 0.00, 0.00, 0.00, 0.00, -9920.13, 0.000, 0.000, 0.000, 14:43:21.682, 1553971401682
192, -30804.82, 0.00, 0.00, 0.00, 0.00, 0.00, 0.00, -9908.71, 0.000, 0.000, 0.000, 14:43:21.682, 1553971401682
193, -30762.44, 0.00, 0.00, 0.00, 0.00, 0.00, 0.00, -9884.59, 0.000, 0.000, 0.000, 14:43:21.682, 1553971401682
194, -30723.12, 0.00, 0.00, 0.00, 0.00, 0.00, 0.00, -9897.89, 0.000, 0.000, 0.000, 14:43:21.682, 1553971401682
195, -30733.04, 0.00, 0.00, 0.00, 0.00, 0.00, 0.00, -9897.17, 0.000, 0.000, 0.000, 14:43:21.683, 1553971401683
196, -30778.46, 0.00, 0.00, 0.00, 0.00, 0.00, 0.00, -9893.98, 0.000, 0.000, 0.000, 14:43:21.683, 1553971401683
197, -30777.99, 0.00, 0.00, 0.00, 0.00, 0.00, 0.00, -9893.42, 0.000, 0.000, 0.000, 14:43:21.683, 1553971401683
198, -30730.38, 0.00, 0.00, 0.00, 0.00, 0.00, 0.00, -9893.31, 0.044, 0.092, -1.040, 14:43:21.683, 1553971401683
199, -30726.43, 0.00, 0.00, 0.00, 0.00, 0.00, 0.00, -9893.19, 0.000, 0.000, 0.000, 14:43:21.683, 1553971401683
200, -30765.92, 0.00, 0.00, 0.00, 0.00, 0.00, 0.00, -9890.76, 0.000, 0.000, 0.000, 14:43:21.683, 1553971401683
201, -30781.46, 0.00, 0.00, 0.00, 0.00, 0.00, 0.00, -9890.29, 0.000, 0.000, 0.000, 14:43:21.683, 1553971401683
202, -30743.95, 0.00, 0.00, 0.00, 0.00, 0.00, 0.00, -9891.81, 0.000, 0.000, 0.000, 14:43:21.683, 1553971401683
203, -30718.47, 0.00, 0.00, 0.00, 0.00, 0.00, 0.00, -9893.93, 0.000, 0.000, 0.000, 14:43:21.683, 1553971401683
204, -30763.02, 0.00, 0.00, 0.00, 0.00, 0.00, 0.00, -9896.06, 0.000, 0.000, 0.000, 14:43:21.683, 1553971401683
205, -30772.29, 0.00, 0.00, 0.00, 0.00, 0.00, 0.00, -9885.26, 0.000, 0.000, 0.000, 14:43:21.683, 1553971401683
206, -30730.16, 0.00, 0.00, 0.00, 0.00, 0.00, 0.00, -9886.18, 0.000, 0.000, 0.000, 14:43:21.683, 1553971401683
207, -30702.06, 0.00, 0.00, 0.00, 0.00, 0.00, 0.00, -9888.05, 0.000, 0.000, 0.000, 14:43:21.683, 1553971401683
208, -30740.55, 0.00, 0.00, 0.00, 0.00, 0.00, 0.00, -9893.57, 0.046, 0.088, -1.040, 14:43:21.684, 1553971401684
209, -30770.28, 0.00, 0.00, 0.00, 0.00, 0.00, 0.00, -9886.09, 0.000, 0.000, 0.000, 14:43:21.684, 1553971401684
210, -30731.01, 0.00, 0.00, 0.00, 0.00, 0.00, 0.00, -9872.63, 0.000, 0.000, 0.000, 14:43:21.684, 1553971401684
211, -30705.10, 0.00, 0.00, 0.00, 0.00, 0.00, 0.00, -9883.81, 0.000, 0.000, 0.000, 14:43:21.684, 1553971401684
212, -30738.70, 0.00, 0.00, 0.00, 0.00, 0.00, 0.00, -9894.04, 0.000, 0.000, 0.000, 14:43:22.155, 1553971402155
213, -30772.79, 0.00, 0.00, 0.00, 0.00, 0.00, 0.00, -9886.15, 0.000, 0.000, 0.000, 14:43:22.155, 1553971402155
214, -30746.41, 0.00, 0.00, 0.00, 0.00, 0.00, 0.00, -9868.18, 0.000, 0.000, 0.000, 14:43:22.155, 1553971402155
215, -30701.66, 0.00, 0.00, 0.00, 0.00, 0.00, 0.00, -9866.64, 0.000, 0.000, 0.000, 14:43:22.156, 1553971402156
216, -30726.63, 0.00, 0.00, 0.00, 0.00, 0.00, 0.00, -9882.24, 0.000, 0.000, 0.000, 14:43:22.156, 1553971402156
217, -30778.60, 0.00, 0.00, 0.00, 0.00, 0.00, 0.00, -9890.36, 0.000, 0.000, 0.000, 14:43:22.156, 1553971402156
218, -30760.89, 0.00, 0.00, 0.00, 0.00, 0.00, 0.00, -9882.24, 0.048, 0.082, -1.038, 14:43:22.156, 1553971402156
219, -30710.69, 0.00, 0.00, 0.00, 0.00, 0.00, 0.00, -9880.01, 0.000, 0.000, 0.000, 14:43:22.156, 1553971402156
220, -30718.78, 0.00, 0.00, 0.00, 0.00, 0.00, 0.00, -9888.17, 0.000, 0.000, 0.000, 14:43:22.156, 1553971402156
221, -30761.95, 0.00, 0.00, 0.00, 0.00, 0.00, 0.00, -9885.68, 0.000, 0.000, 0.000, 14:43:22.156, 1553971402156
222, -30756.69, 0.00, 0.00, 0.00, 0.00, 0.00, 0.00, -9876.59, 0.000, 0.000, 0.000, 14:43:22.156, 1553971402156
223, -30710.76, 0.00, 0.00, 0.00, 0.00, 0.00, 0.00, -9874.49, 0.000, 0.000, 0.000, 14:43:22.156, 1553971402156
224, -30705.84, 0.00, 0.00, 0.00, 0.00, 0.00, 0.00, -9881.73, 0.000, 0.000, 0.000, 14:43:22.156, 1553971402156
225, -30764.38, 0.00, 0.00, 0.00, 0.00, 0.00, 0.00, -9890.16, 0.000, 0.000, 0.000, 14:43:22.156, 1553971402156
226, -30759.93, 0.00, 0.00, 0.00, 0.00, 0.00, 0.00, -9873.53, 0.000, 0.000, 0.000, 14:43:22.156, 1553971402156
227, -30723.10, 0.00, 0.00, 0.00, 0.00, 0.00, 0.00, -9874.02, 0.000, 0.000, 0.000, 14:43:22.156, 1553971402156
228, -30719.57, 0.00, 0.00, 0.00, 0.00, 0.00, 0.00, -9891.05, 0.044, 0.082, -1.034, 14:43:22.156, 1553971402156
229, -30757.68, 0.00, 0.00, 0.00, 0.00, 0.00, 0.00, -9892.48, 0.000, 0.000, 0.000, 14:43:22.156, 1553971402156
230, -30781.17, 0.00, 0.00, 0.00, 0.00, 0.00, 0.00, -9892.23, 0.000, 0.000, 0.000, 14:43:22.156, 1553971402156
231, -30735.75, 0.00, 0.00, 0.00, 0.00, 0.00, 0.00, -9880.75, 0.000, 0.000, 0.000, 14:43:22.156, 1553971402156
232, -30714.07, 0.00, 0.00, 0.00, 0.00, 0.00, 0.00, -9887.79, 0.000, 0.000, 0.000, 14:43:22.156, 1553971402156
233, -30742.57, 0.00, 0.00, 0.00, 0.00, 0.00, 0.00, -9887.83, 0.000, 0.000, 0.000, 14:43:22.156, 1553971402156
234, -30768.27, 0.00, 0.00, 0.00, 0.00, 0.00, 0.00, -9883.52, 0.000, 0.000, 0.000, 14:43:22.156, 1553971402156
235, -30740.60, 0.00, 0.00, 0.00, 0.00, 0.00, 0.00, -9879.56, 0.000, 0.000, 0.000, 14:43:22.157, 1553971402157
236, -30706.91, 0.00, 0.00, 0.00, 0.00, 0.00, 0.00, -9882.89, 0.000, 0.000, 0.000, 14:43:22.157, 1553971402157
237, -30740.11, 0.00, 0.00, 0.00, 0.00, 0.00, 0.00, -9893.06, 0.044, 0.086, -1.024, 14:43:22.157, 1553971402157
238, -30773.01, 0.00, 0.00, 0.00, 0.00, 0.00, 0.00, -9888.34, 0.000, 0.000, 0.000, 14:43:22.157, 1553971402157
239, -30747.97, 0.00, 0.00, 0.00, 0.00, 0.00, 0.00, -9878.89, 0.000, 0.000, 0.000, 14:43:22.157, 1553971402157
240, -30712.64, 0.00, 0.00, 0.00, 0.00, 0.00, 0.00, -9886.76, 0.000, 0.000, 0.000, 14:43:22.157, 1553971402157
241, -30733.29, 0.00, 0.00, 0.00, 0.00, 0.00, 0.00, -9895.81, 0.000, 0.000, 0.000, 14:43:22.157, 1553971402157
242, -30770.55, 0.00, 0.00, 0.00, 0.00, 0.00, 0.00, -9892.35, 0.000, 0.000, 0.000, 14:43:22.157, 1553971402157
243, -30752.78, 0.00, 0.00, 0.00, 0.00, 0.00, 0.00, -9883.65, 0.000, 0.000, 0.000, 14:43:22.158, 1553971402158
244, -30708.44, 0.00, 0.00, 0.00, 0.00, 0.00, 0.00, -9882.22, 0.000, 0.000, 0.000, 14:43:22.158, 1553971402158
245, -30713.44, 0.00, 0.00, 0.00, 0.00, 0.00, 0.00, -9887.85, 0.000, 0.000, 0.000, 14:43:22.158, 1553971402158
246, -30766.10, 0.00, 0.00, 0.00, 0.00, 0.00, 0.00, -9890.33, 0.000, 0.000, 0.000, 14:43:22.158, 1553971402158
247, -30765.81, 0.00, 0.00, 0.00, 0.00, 0.00, 0.00, -9883.32, 0.040, 0.078, -1.028, 14:43:22.158, 1553971402158
248, -30717.91, 0.00, 0.00, 0.00, 0.00, 0.00, 0.00, -9878.60, 0.000, 0.000, 0.000, 14:43:22.158, 1553971402158
249, -30709.89, 0.00, 0.00, 0.00, 0.00, 0.00, 0.00, -9885.06, 0.000, 0.000, 0.000, 14:43:22.158, 1553971402158
250, -30756.87, 0.00, 0.00, 0.00, 0.00, 0.00, 0.00, -9890.98, 0.000, 0.000, 0.000, 14:43:22.158, 1553971402158
251, -30761.63, 0.00, 0.00, 0.00, 0.00, 0.00, 0.00, -9879.72, 0.000, 0.000, 0.000, 14:43:22.158, 1553971402158
252, -30723.57, 0.00, 0.00, 0.00, 0.00, 0.00, 0.00, -9878.15, 0.000, 0.000, 0.000, 14:43:22.158, 1553971402158
253, -30713.02, 0.00, 0.00, 0.00, 0.00, 0.00, 0.00, -9892.88, 0.000, 0.000, 0.000, 14:43:22.158, 1553971402158
254, -30748.82, 0.00, 0.00, 0.00, 0.00, 0.00, 0.00, -9896.35, 0.000, 0.000, 0.000, 14:43:22.158, 1553971402158
255, -30769.92, 0.00, 0.00, 0.00, 0.00, 0.00, 0.00, -9880.63, 0.000, 0.000, 0.000, 14:43:22.158, 1553971402158
0, -30731.72, 0.00, 0.00, 0.00, 0.00, 0.00, 0.00, -9874.69, 0.000, 0.000, 0.000, 14:43:22.158, 1553971402158
1, -30712.73, 0.00, 0.00, 0.00, 0.00, 0.00, 0.00, -9887.56, 0.042, 0.080, -1.034, 14:43:22.158, 1553971402158
2, -30752.98, 0.00, 0.00, 0.00, 0.00, 0.00, 0.00, -9893.08, 0.000, 0.000, 0.000, 14:43:22.158, 1553971402158
3, -30775.20, 0.00, 0.00, 0.00, 0.00, 0.00, 0.00, -9883.07, 0.000, 0.000, 0.000, 14:43:22.158, 1553971402158
4, -30747.37, 0.00, 0.00, 0.00, 0.00, 0.00, 0.00, -9885.82, 0.000, 0.000, 0.000, 14:43:22.158, 1553971402158
5, -30714.67, 0.00, 0.00, 0.00, 0.00, 0.00, 0.00, -9891.96, 0.000, 0.000, 0.000, 14:43:22.158, 1553971402158
6, -30737.85, 0.00, 0.00, 0.00, 0.00, 0.00, 0.00, -9888.59, 0.000, 0.000, 0.000, 14:43:22.158, 1553971402158
7, -30778.93, 0.00, 0.00, 0.00, 0.00, 0.00, 0.00, -9885.89, 0.000, 0.000, 0.000, 14:43:22.158, 1553971402158
8, -30737.58, 0.00, 0.00, 0.00, 0.00, 0.00, 0.00, -9865.37, 0.000, 0.000, 0.000, 14:43:22.158, 1553971402158
9, -30697.93, 0.00, 0.00, 0.00, 0.00, 0.00, 0.00, -9867.94, 0.000, 0.000, 0.000, 14:43:22.158, 1553971402158
10, -30729.91, 0.00, 0.00, 0.00, 0.00, 0.00, 0.00, -9886.89, 0.000, 0.000, 0.000, 14:43:22.159, 1553971402159
11, -30767.29, 0.00, 0.00, 0.00, 0.00, 0.00, 0.00, -9880.68, 0.104, 0.106, -1.056, 14:43:22.159, 1553971402159
12, -30750.77, 0.00, 0.00, 0.00, 0.00, 0.00, 0.00, -9866.15, 0.000, 0.000, 0.000, 14:43:22.159, 1553971402159
13, -30709.55, 0.00, 0.00, 0.00, 0.00, 0.00, 0.00, -9874.98, 0.000, 0.000, 0.000, 14:43:22.159, 1553971402159
14, -30714.85, 0.00, 0.00, 0.00, 0.00, 0.00, 0.00, -9890.76, 0.000, 0.000, 0.000, 14:43:22.159, 1553971402159
15, -30766.24, 0.00, 0.00, 0.00, 0.00, 0.00, 0.00, -9889.75, 0.000, 0.000, 0.000, 14:43:22.159, 1553971402159
16, -30762.06, 0.00, 0.00, 0.00, 0.00, 0.00, 0.00, -9872.59, 0.000, 0.000, 0.000, 14:43:22.159, 1553971402159
17, -30717.93, 0.00, 0.00, 0.00, 0.00, 0.00, 0.00, -9870.28, 0.000, 0.000, 0.000, 14:43:22.159, 1553971402159
18, -30707.74, 0.00, 0.00, 0.00, 0.00, 0.00, 0.00, -9877.19, 0.000, 0.000, 0.000, 14:43:22.160, 1553971402160
19, -30744.02, 0.00, 0.00, 0.00, 0.00, 0.00, 0.00, -9873.19, 0.000, 0.000, 0.000, 14:43:22.160, 1553971402160
20, -30755.24, 0.00, 0.00, 0.00, 0.00, 0.00, 0.00, -9862.26, 0.000, 0.000, 0.000, 14:43:22.160, 1553971402160
21, -30709.33, 0.00, 0.00, 0.00, 0.00, 0.00, 0.00, -9853.01, 0.072, 0.098, -1.048, 14:43:22.160, 1553971402160
22, -30703.05, 0.00, 0.00, 0.00, 0.00, 0.00, 0.00, -9874.80, 0.000, 0.000, 0.000, 14:43:22.160, 1553971402160
23, -30752.69, 0.00, 0.00, 0.00, 0.00, 0.00, 0.00, -9887.83, 0.000, 0.000, 0.000, 14:43:22.160, 1553971402160
24, -30767.96, 0.00, 0.00, 0.00, 0.00, 0.00, 0.00, -9874.62, 0.000, 0.000, 0.000, 14:43:22.160, 1553971402160
25, -30733.20, 0.00, 0.00, 0.00, 0.00, 0.00, 0.00, -9872.70, 0.000, 0.000, 0.000, 14:43:22.160, 1553971402160
26, -30703.00, 0.00, 0.00, 0.00, 0.00, 0.00, 0.00, -9879.05, 0.000, 0.000, 0.000, 14:43:22.160, 1553971402160
27, -30735.35, 0.00, 0.00, 0.00, 0.00, 0.00, 0.00, -9888.32, 0.000, 0.000, 0.000, 14:43:22.161, 1553971402161
28, -30761.88, 0.00, 0.00, 0.00, 0.00, 0.00, 0.00, -9874.87, 0.000, 0.000, 0.000, 14:43:22.161, 1553971402161
29, -30730.79, 0.00, 0.00, 0.00, 0.00, 0.00, 0.00, -9867.56, 0.000, 0.000, 0.000, 14:43:22.161, 1553971402161
30, -30701.04, 0.00, 0.00, 0.00, 0.00, 0.00, 0.00, -9878.58, 0.000, 0.000, 0.000, 14:43:22.161, 1553971402161
31, -30731.70, 0.00, 0.00, 0.00, 0.00, 0.00, 0.00, -9885.84, 0.070, 0.094, -1.046, 14:43:22.161, 1553971402161
32, -30781.79, 0.00, 0.00, 0.00, 0.00, 0.00, 0.00, -9889.28, 0.000, 0.000, 0.000, 14:43:22.161, 1553971402161
33, -30740.64, 0.00, 0.00, 0.00, 0.00, 0.00, 0.00, -9870.73, 0.000, 0.000, 0.000, 14:43:22.161, 1553971402161
34, -30693.57, 0.00, 0.00, 0.00, 0.00, 0.00, 0.00, -9869.10, 0.000, 0.000, 0.000, 14:43:22.161, 1553971402161
35, -30702.33, 0.00, 0.00, 0.00, 0.00, 0.00, 0.00, -9865.55, 0.000, 0.000, 0.000, 14:43:22.161, 1553971402161
36, -30744.71, 0.00, 0.00, 0.00, 0.00, 0.00, 0.00, -9861.21, 0.000, 0.000, 0.000, 14:43:22.161, 1553971402161
37, -30750.72, 0.00, 0.00, 0.00, 0.00, 0.00, 0.00, -9866.66, 0.000, 0.000, 0.000, 14:43:22.161, 1553971402161
38, -30710.00, 0.00, 0.00, 0.00, 0.00, 0.00, 0.00, -9874.33, 0.000, 0.000, 0.000, 14:43:22.161, 1553971402161
39, -30710.33, 0.00, 0.00, 0.00, 0.00, 0.00, 0.00, -9881.64, 0.000, 0.000, 0.000, 14:43:22.161, 1553971402161
40, -30754.14, 0.00, 0.00, 0.00, 0.00, 0.00, 0.00, -9878.26, 0.052, 0.090, -1.038, 14:43:22.161, 1553971402161
41, -30757.83, 0.00, 0.00, 0.00, 0.00, 0.00, 0.00, -9867.38, 0.000, 0.000, 0.000, 14:43:22.161, 1553971402161
42, -30711.27, 0.00, 0.00, 0.00, 0.00, 0.00, 0.00, -9864.81, 0.000, 0.000, 0.000, 14:43:22.161, 1553971402161
43, -30702.94, 0.00, 0.00, 0.00, 0.00, 0.00, 0.00, -9873.03, 0.000, 0.000, 0.000, 14:43:22.161, 1553971402161
44, -30757.32, 0.00, 0.00, 0.00, 0.00, 0.00, 0.00, -9884.48, 0.000, 0.000, 0.000, 14:43:22.161, 1553971402161
45, -30772.03, 0.00, 0.00, 0.00, 0.00, 0.00, 0.00, -9874.37, 0.000, 0.000, 0.000, 14:43:22.161, 1553971402161
46, -30721.67, 0.00, 0.00, 0.00, 0.00, 0.00, 0.00, -9862.86, 0.000, 0.000, 0.000, 14:43:22.162, 1553971402162
47, -30694.87, 0.00, 0.00, 0.00, 0.00, 0.00, 0.00, -9867.69, 0.000, 0.000, 0.000, 14:43:22.162, 1553971402162
48, -30734.05, 0.00, 0.00, 0.00, 0.00, 0.00, 0.00, -9871.33, 0.000, 0.000, 0.000, 14:43:22.162, 1553971402162
49, -30760.58, 0.00, 0.00, 0.00, 0.00, 0.00, 0.00, -9869.66, 0.000, 0.000, 0.000, 14:43:22.162, 1553971402162
50, -30726.52, 0.00, 0.00, 0.00, 0.00, 0.00, 0.00, -9873.10, 0.050, 0.072, -1.024, 14:43:22.162, 1553971402162
51, -30704.97, 0.00, 0.00, 0.00, 0.00, 0.00, 0.00, -9882.35, 0.000, 0.000, 0.000, 14:43:22.162, 1553971402162
52, -30734.41, 0.00, 0.00, 0.00, 0.00, 0.00, 0.00, -9881.39, 0.000, 0.000, 0.000, 14:43:22.162, 1553971402162
53, -30768.29, 0.00, 0.00, 0.00, 0.00, 0.00, 0.00, -9878.26, 0.000, 0.000, 0.000, 14:43:22.162, 1553971402162
54, -30734.36, 0.00, 0.00, 0.00, 0.00, 0.00, 0.00, -9864.29, 0.000, 0.000, 0.000, 14:43:22.162, 1553971402162
55, -30699.56, 0.00, 0.00, 0.00, 0.00, 0.00, 0.00, -9871.09, 0.000, 0.000, 0.000, 14:43:22.163, 1553971402163
56, -30724.46, 0.00, 0.00, 0.00, 0.00, 0.00, 0.00, -9882.49, 0.000, 0.000, 0.000, 14:43:22.163, 1553971402163
57, -30764.76, 0.00, 0.00, 0.00, 0.00, 0.00, 0.00, -9878.26, 0.000, 0.000, 0.000, 14:43:22.163, 1553971402163
58, -30744.35, 0.00, 0.00, 0.00, 0.00, 0.00, 0.00, -9863.29, 0.000, 0.000, 0.000, 14:43:22.163, 1553971402163
59, -30708.66, 0.00, 0.00, 0.00, 0.00, 0.00, 0.00, -9866.39, 0.000, 0.000, 0.000, 14:43:22.163, 1553971402163
60, -30718.16, 0.00, 0.00, 0.00, 0.00, 0.00, 0.00, -9878.33, 0.048, 0.076, -1.022, 14:43:22.163, 1553971402163
61, -30760.16, 0.00, 0.00, 0.00, 0.00, 0.00, 0.00, -9878.22, 0.000, 0.000, 0.000, 14:43:22.163, 1553971402163
62, -30752.74, 0.00, 0.00, 0.00, 0.00, 0.00, 0.00, -9868.12, 0.000, 0.000, 0.000, 14:43:22.163, 1553971402163
63, -30707.29, 0.00, 0.00, 0.00, 0.00, 0.00, 0.00, -9867.83, 0.000, 0.000, 0.000, 14:43:22.163, 1553971402163
64, -30712.01, 0.00, 0.00, 0.00, 0.00, 0.00, 0.00, -9879.05, 0.000, 0.000, 0.000, 14:43:22.163, 1553971402163
65, -30756.65, 0.00, 0.00, 0.00, 0.00, 0.00, 0.00, -9875.38, 0.000, 0.000, 0.000, 14:43:22.163, 1553971402163
66, -30760.27, 0.00, 0.00, 0.00, 0.00, 0.00, 0.00, -9864.90, 0.000, 0.000, 0.000, 14:43:22.163, 1553971402163
67, -30716.79, 0.00, 0.00, 0.00, 0.00, 0.00, 0.00, -9860.81, 0.000, 0.000, 0.000, 14:43:22.163, 1553971402163
68, -30702.67, 0.00, 0.00, 0.00, 0.00, 0.00, 0.00, -9862.24, 0.000, 0.000, 0.000, 14:43:22.163, 1553971402163
69, -30746.84, 0.00, 0.00, 0.00, 0.00, 0.00, 0.00, -9869.84, 0.000, 0.000, 0.000, 14:43:22.163, 1553971402163
70, -30762.62, 0.00, 0.00, 0.00, 0.00, 0.00, 0.00, -9864.70, 0.052, 0.076, -1.022, 14:43:22.163, 1553971402163
71, -30730.21, 0.00, 0.00, 0.00, 0.00, 0.00, 0.00, -9868.45, 0.000, 0.000, 0.000, 14:43:22.163, 1553971402163
72, -30703.99, 0.00, 0.00, 0.00, 0.00, 0.00, 0.00, -9874.42, 0.000, 0.000, 0.000, 14:43:22.163, 1553971402163
73, -30735.57, 0.00, 0.00, 0.00, 0.00, 0.00, 0.00, -9878.08, 0.000, 0.000, 0.000, 14:43:22.163, 1553971402163
74, -30762.95, 0.00, 0.00, 0.00, 0.00, 0.00, 0.00, -9867.09, 0.000, 0.000, 0.000, 14:43:22.163, 1553971402163
75, -30733.89, 0.00, 0.00, 0.00, 0.00, 0.00, 0.00, -9865.21, 0.000, 0.000, 0.000, 14:43:22.163, 1553971402163
76, -30703.74, 0.00, 0.00, 0.00, 0.00, 0.00, 0.00, -9872.25, 0.000, 0.000, 0.000, 14:43:22.164, 1553971402164
77, -30732.60, 0.00, 0.00, 0.00, 0.00, 0.00, 0.00, -9872.85, 0.000, 0.000, 0.000, 14:43:22.636, 1553971402636
78, -30765.32, 0.00, 0.00, 0.00, 0.00, 0.00, 0.00, -9863.49, 0.000, 0.000, 0.000, 14:43:22.637, 1553971402637
79, -30741.43, 0.00, 0.00, 0.00, 0.00, 0.00, 0.00, -9861.48, 0.000, 0.000, 0.000, 14:43:22.637, 1553971402637
80, -30699.58, 0.00, 0.00, 0.00, 0.00, 0.00, 0.00, -9867.40, 0.050, 0.078, -1.024, 14:43:22.637, 1553971402637
81, -30727.41, 0.00, 0.00, 0.00, 0.00, 0.00, 0.00, -9876.36, 0.000, 0.000, 0.000, 14:43:22.637, 1553971402637
82, -30771.53, 0.00, 0.00, 0.00, 0.00, 0.00, 0.00, -9872.59, 0.000, 0.000, 0.000, 14:43:22.637, 1553971402637
83, -30756.33, 0.00, 0.00, 0.00, 0.00, 0.00, 0.00, -9865.55, 0.000, 0.000, 0.000, 14:43:22.637, 1553971402637
84, -30704.32, 0.00, 0.00, 0.00, 0.00, 0.00, 0.00, -9861.86, 0.000, 0.000, 0.000, 14:43:22.637, 1553971402637
85, -30716.24, 0.00, 0.00, 0.00, 0.00, 0.00, 0.00, -9871.92, 0.000, 0.000, 0.000, 14:43:22.637, 1553971402637
86, -30764.74, 0.00, 0.00, 0.00, 0.00, 0.00, 0.00, -9876.68, 0.000, 0.000, 0.000, 14:43:22.637, 1553971402637
87, -30755.11, 0.00, 0.00, 0.00, 0.00, 0.00, 0.00, -9864.94, 0.000, 0.000, 0.000, 14:43:22.637, 1553971402637
88, -30712.23, 0.00, 0.00, 0.00, 0.00, 0.00, 0.00, -9869.10, 0.000, 0.000, 0.000, 14:43:22.637, 1553971402637
89, -30704.90, 0.00, 0.00, 0.00, 0.00, 0.00, 0.00, -9875.80, 0.000, 0.000, 0.000, 14:43:22.637, 1553971402637
90, -30750.90, 0.00, 0.00, 0.00, 0.00, 0.00, 0.00, -9875.87, 0.050, 0.090, -1.020, 14:43:22.637, 1553971402637
91, -30764.36, 0.00, 0.00, 0.00, 0.00, 0.00, 0.00, -9871.25, 0.000, 0.000, 0.000, 14:43:22.637, 1553971402637
92, -30718.87, 0.00, 0.00, 0.00, 0.00, 0.00, 0.00, -9868.23, 0.000, 0.000, 0.000, 14:43:22.637, 1553971402637
93, -30707.34, 0.00, 0.00, 0.00, 0.00, 0.00, 0.00, -9875.80, 0.000, 0.000, 0.000, 14:43:22.637, 1553971402637
94, -30750.66, 0.00, 0.00, 0.00, 0.00, 0.00, 0.00, -9874.87, 0.000, 0.000, 0.000, 14:43:22.637, 1553971402637
95, -30770.08, 0.00, 0.00, 0.00, 0.00, 0.00, 0.00, -9866.35, 0.000, 0.000, 0.000, 14:43:22.637, 1553971402637
96, -30728.48, 0.00, 0.00, 0.00, 0.00, 0.00, 0.00, -9860.07, 0.000, 0.000, 0.000, 14:43:22.638, 1553971402638
97, -30703.79, 0.00, 0.00, 0.00, 0.00, 0.00, 0.00, -9865.55, 0.000, 0.000, 0.000, 14:43:22.638, 1553971402638
98, -30742.92, 0.00, 0.00, 0.00, 0.00, 0.00, 0.00, -9874.15, 0.000, 0.000, 0.000, 14:43:22.638, 1553971402638
99, -30775.83, 0.00, 0.00, 0.00, 0.00, 0.00, 0.00, -9862.08, 0.000, 0.000, 0.000, 14:43:22.638, 1553971402638
100, -30740.42, 0.00, 0.00, 0.00, 0.00, 0.00, 0.00, -9859.24, 0.054, 0.092, -1.022, 14:43:22.638, 1553971402638
101, -30712.10, 0.00, 0.00, 0.00, 0.00, 0.00, 0.00, -9874.04, 0.000, 0.000, 0.000, 14:43:22.638, 1553971402638
102, -30741.76, 0.00, 0.00, 0.00, 0.00, 0.00, 0.00, -9882.58, 0.000, 0.000, 0.000, 14:43:22.638, 1553971402638
103, -30770.28, 0.00, 0.00, 0.00, 0.00, 0.00, 0.00, -9869.86, 0.000, 0.000, 0.000, 14:43:22.638, 1553971402638
104, -30733.38, 0.00, 0.00, 0.00, 0.00, 0.00, 0.00, -9853.97, 0.000, 0.000, 0.000, 14:43:22.638, 1553971402638
105, -30692.41, 0.00, 0.00, 0.00, 0.00, 0.00, 0.00, -9858.95, 0.000, 0.000, 0.000, 14:43:22.638, 1553971402638
106, -30719.41, 0.00, 0.00, 0.00, 0.00, 0.00, 0.00, -9876.41, 0.000, 0.000, 0.000, 14:43:22.638, 1553971402638
107, -30766.84, 0.00, 0.00, 0.00, 0.00, 0.00, 0.00, -9881.24, 0.000, 0.000, 0.000, 14:43:22.638, 1553971402638
108, -30753.25, 0.00, 0.00, 0.00, 0.00, 0.00, 0.00, -9874.35, 0.000, 0.000, 0.000, 14:43:22.639, 1553971402639
109, -30718.61, 0.00, 0.00, 0.00, 0.00, 0.00, 0.00, -9888.79, 0.054, 0.080, -1.018, 14:43:22.639, 1553971402639
110, -30719.99, 0.00, 0.00, 0.00, 0.00, 0.00, 0.00, -9891.29, 0.000, 0.000, 0.000, 14:43:22.639, 1553971402639
111, -30768.67, 0.00, 0.00, 0.00, 0.00, 0.00, 0.00, -9886.98, 0.000, 0.000, 0.000, 14:43:22.639, 1553971402639
112, -30767.33, 0.00, 0.00, 0.00, 0.00, 0.00, 0.00, -9879.49, 0.000, 0.000, 0.000, 14:43:22.639, 1553971402639
113, -30723.57, 0.00, 0.00, 0.00, 0.00, 0.00, 0.00, -9882.91, 0.000, 0.000, 0.000, 14:43:22.639, 1553971402639
114, -30714.18, 0.00, 0.00, 0.00, 0.00, 0.00, 0.00, -9886.22, 0.000, 0.000, 0.000, 14:43:22.639, 1553971402639
115, -30754.97, 0.00, 0.00, 0.00, 0.00, 0.00, 0.00, -9880.59, 0.000, 0.000, 0.000, 14:43:22.639, 1553971402639
116, -30767.06, 0.00, 0.00, 0.00, 0.00, 0.00, 0.00, -9869.68, 0.000, 0.000, 0.000, 14:43:22.639, 1553971402639
117, -30721.40, 0.00, 0.00, 0.00, 0.00, 0.00, 0.00, -9868.65, 0.000, 0.000, 0.000, 14:43:22.639, 1553971402639
118, -30705.48, 0.00, 0.00, 0.00, 0.00, 0.00, 0.00, -9873.03, 0.000, 0.000, 0.000, 14:43:22.639, 1553971402639
119, -30741.94, 0.00, 0.00, 0.00, 0.00, 0.00, 0.00, -9872.03, 0.056, 0.086, -1.026, 14:43:22.639, 1553971402639
120, -30772.47, 0.00, 0.00, 0.00, 0.00, 0.00, 0.00, -9876.77, 0.000, 0.000, 0.000, 14:43:22.639, 1553971402639
121, -30735.08, 0.00, 0.00, 0.00, 0.00, 0.00, 0.00, -9879.22, 0.000, 0.000, 0.000, 14:43:22.639, 1553971402639
122, -30708.14, 0.00, 0.00, 0.00, 0.00, 0.00, 0.00, -9880.97, 0.000, 0.000, 0.000, 14:43:22.639, 1553971402639
123, -30755.31, 0.00, 0.00, 0.00, 0.00, 0.00, 0.00, -9891.43, 0.000, 0.000, 0.000, 14:43:22.639, 1553971402639
124, -30774.28, 0.00, 0.00, 0.00, 0.00, 0.00, 0.00, -9882.64, 0.000, 0.000, 0.000, 14:43:22.639, 1553971402639
125, -30740.49, 0.00, 0.00, 0.00, 0.00, 0.00, 0.00, -9872.72, 0.000, 0.000, 0.000, 14:43:22.639, 1553971402639
126, -30717.06, 0.00, 0.00, 0.00, 0.00, 0.00, 0.00, -9888.01, 0.000, 0.000, 0.000, 14:43:22.640, 1553971402640
127, -30742.07, 0.00, 0.00, 0.00, 0.00, 0.00, 0.00, -9901.06, 0.000, 0.000, 0.000, 14:43:22.640, 1553971402640
128, -30775.76, 0.00, 0.00, 0.00, 0.00, 0.00, 0.00, -9896.59, 0.000, 0.000, 0.000, 14:43:22.640, 1553971402640
129, -30755.93, 0.00, 0.00, 0.00, 0.00, 0.00, 0.00, -9890.92, 0.048, 0.086, -1.030, 14:43:22.640, 1553971402640
130, -30713.40, 0.00, 0.00, 0.00, 0.00, 0.00, 0.00, -9893.49, 0.000, 0.000, 0.000, 14:43:22.640, 1553971402640
131, -30728.86, 0.00, 0.00, 0.00, 0.00, 0.00, 0.00, -9905.56, 0.000, 0.000, 0.000, 14:43:22.640, 1553971402640
132, -30778.55, 0.00, 0.00, 0.00, 0.00, 0.00, 0.00, -9904.06, 0.000, 0.000, 0.000, 14:43:22.640, 1553971402640
133, -30772.32, 0.00, 0.00, 0.00, 0.00, 0.00, 0.00, -9903.14, 0.000, 0.000, 0.000, 14:43:22.640, 1553971402640
134, -30722.65, 0.00, 0.00, 0.00, 0.00, 0.00, 0.00, -9895.38, 0.000, 0.000, 0.000, 14:43:22.640, 1553971402640
135, -30721.91, 0.00, 0.00, 0.00, 0.00, 0.00, 0.00, -9898.00, 0.000, 0.000, 0.000, 14:43:22.640, 1553971402640
136, -30772.05, 0.00, 0.00, 0.00, 0.00, 0.00, 0.00, -9899.97, 0.000, 0.000, 0.000, 14:43:22.640, 1553971402640
137, -30778.02, 0.00, 0.00, 0.00, 0.00, 0.00, 0.00, -9890.69, 0.000, 0.000, 0.000, 14:43:22.640, 1553971402640
138, -30731.95, 0.00, 0.00, 0.00, 0.00, 0.00, 0.00, -9891.92, 0.000, 0.000, 0.000, 14:43:22.641, 1553971402641
139, -30727.17, 0.00, 0.00, 0.00, 0.00, 0.00, 0.00, -9900.50, 0.036, 0.082, -1.034, 14:43:22.641, 1553971402641
140, -30770.60, 0.00, 0.00, 0.00, 0.00, 0.00, 0.00, -9898.20, 0.000, 0.000, 0.000, 14:43:22.641, 1553971402641
141, -30775.58, 0.00, 0.00, 0.00, 0.00, 0.00, 0.00, -9887.72, 0.000, 0.000, 0.000, 14:43:22.641, 1553971402641
142, -30735.35, 0.00, 0.00, 0.00, 0.00, 0.00, 0.00, -9891.58, 0.000, 0.000, 0.000, 14:43:22.641, 1553971402641
143, -30723.23, 0.00, 0.00, 0.00, 0.00, 0.00, 0.00, -9900.08, 0.000, 0.000, 0.000, 14:43:22.641, 1553971402641
144, -30764.81, 0.00, 0.00, 0.00, 0.00, 0.00, 0.00, -9899.86, 0.000, 0.000, 0.000, 14:43:22.641, 1553971402641
145, -30794.02, 0.00, 0.00, 0.00, 0.00, 0.00, 0.00, -9898.92, 0.000, 0.000, 0.000, 14:43:22.641, 1553971402641
146, -30748.00, 0.00, 0.00, 0.00, 0.00, 0.00, 0.00, -9893.98, 0.000, 0.000, 0.000, 14:43:22.641, 1553971402641
147, -30712.82, 0.00, 0.00, 0.00, 0.00, 0.00, 0.00, -9891.70, 0.000, 0.000, 0.000, 14:43:22.641, 1553971402641
148, -30751.82, 0.00, 0.00, 0.00, 0.00, 0.00, 0.00, -9897.51, 0.000, 0.000, 0.000, 14:43:22.641, 1553971402641
149, -30782.04, 0.00, 0.00, 0.00, 0.00, 0.00, 0.00, -9899.68, 0.036, 0.082, -1.030, 14:43:22.641, 1553971402641
150, -30745.45, 0.00, 0.00, 0.00, 0.00, 0.00, 0.00, -9885.48, 0.000, 0.000, 0.000, 14:43:22.641, 1553971402641
151, -30714.40, 0.00, 0.00, 0.00, 0.00, 0.00, 0.00, -9893.89, 0.000, 0.000, 0.000, 14:43:22.641, 1553971402641
152, -30739.17, 0.00, 0.00, 0.00, 0.00, 0.00, 0.00, -9904.64, 0.000, 0.000, 0.000, 14:43:22.641, 1553971402641
153, -30785.88, 0.00, 0.00, 0.00, 0.00, 0.00, 0.00, -9903.54, 0.000, 0.000, 0.000, 14:43:22.641, 1553971402641
154, -30755.87, 0.00, 0.00, 0.00, 0.00, 0.00, 0.00, -9885.86, 0.000, 0.000, 0.000, 14:43:22.641, 1553971402641
155, -30701.71, 0.00, 0.00, 0.00, 0.00, 0.00, 0.00, -9878.17, 0.000, 0.000, 0.000, 14:43:22.642, 1553971402642
156, -30722.99, 0.00, 0.00, 0.00, 0.00, 0.00, 0.00, -9896.44, 0.000, 0.000, 0.000, 14:43:22.642, 1553971402642
157, -30760.49, 0.00, 0.00, 0.00, 0.00, 0.00, 0.00, -9887.88, 0.000, 0.000, 0.000, 14:43:22.642, 1553971402642
158, -30749.94, 0.00, 0.00, 0.00, 0.00, 0.00, 0.00, -9879.49, 0.000, 0.000, 0.000, 14:43:22.642, 1553971402642
159, -30718.38, 0.00, 0.00, 0.00, 0.00, 0.00, 0.00, -9886.98, 0.036, 0.080, -1.028, 14:43:22.642, 1553971402642
160, -30721.38, 0.00, 0.00, 0.00, 0.00, 0.00, 0.00, -9892.59, 0.000, 0.000, 0.000, 14:43:22.642, 1553971402642
161, -30759.06, 0.00, 0.00, 0.00, 0.00, 0.00, 0.00, -9879.38, 0.000, 0.000, 0.000, 14:43:22.642, 1553971402642
162, -30761.52, 0.00, 0.00, 0.00, 0.00, 0.00, 0.00, -9867.58, 0.000, 0.000, 0.000, 14:43:22.642, 1553971402642
163, -30719.77, 0.00, 0.00, 0.00, 0.00, 0.00, 0.00, -9873.55, 0.000, 0.000, 0.000, 14:43:22.642, 1553971402642
164, -30708.08, 0.00, 0.00, 0.00, 0.00, 0.00, 0.00, -9880.86, 0.000, 0.000, 0.000, 14:43:22.642, 1553971402642
165, -30735.55, 0.00, 0.00, 0.00, 0.00, 0.00, 0.00, -9869.21, 0.000, 0.000, 0.000, 14:43:22.642, 1553971402642
166, -30755.22, 0.00, 0.00, 0.00, 0.00, 0.00, 0.00, -9863.31, 0.000, 0.000, 0.000, 14:43:22.642, 1553971402642
167, -30734.59, 0.00, 0.00, 0.00, 0.00, 0.00, 0.00, -9880.23, 0.000, 0.000, 0.000, 14:43:22.642, 1553971402642
168, -30713.55, 0.00, 0.00, 0.00, 0.00, 0.00, 0.00, -9890.92, 0.000, 0.000, 0.000, 14:43:22.642, 1553971402642
169, -30732.40, 0.00, 0.00, 0.00, 0.00, 0.00, 0.00, -9884.54, 0.042, 0.080, -1.026, 14:43:22.642, 1553971402642
170, -30754.79, 0.00, 0.00, 0.00, 0.00, 0.00, 0.00, -9872.68, 0.000, 0.000, 0.000, 14:43:22.643, 1553971402643
171, -30717.02, 0.00, 0.00, 0.00, 0.00, 0.00, 0.00, -9864.32, 0.000, 0.000, 0.000, 14:43:22.643, 1553971402643
172, -30689.75, 0.00, 0.00, 0.00, 0.00, 0.00, 0.00, -9871.78, 0.000, 0.000, 0.000, 14:43:22.643, 1553971402643
173, -30735.90, 0.00, 0.00, 0.00, 0.00, 0.00, 0.00, -9897.15, 0.000, 0.000, 0.000, 14:43:22.643, 1553971402643
174, -30763.08, 0.00, 0.00, 0.00, 0.00, 0.00, 0.00, -9881.08, 0.000, 0.000, 0.000, 14:43:22.643, 1553971402643
175, -30727.43, 0.00, 0.00, 0.00, 0.00, 0.00, 0.00, -9869.50, 0.000, 0.000, 0.000, 14:43:22.643, 1553971402643
176, -30706.67, 0.00, 0.00, 0.00, 0.00, 0.00, 0.00, -9891.03, 0.000, 0.000, 0.000, 14:43:22.643, 1553971402643
177, -30730.67, 0.00, 0.00, 0.00, 0.00, 0.00, 0.00, -9899.90, 0.000, 0.000, 0.000, 14:43:22.643, 1553971402643
178, -30758.95, 0.00, 0.00, 0.00, 0.00, 0.00, 0.00, -9879.05, 0.042, 0.080, -1.020, 14:43:22.643, 1553971402643
179, -30732.84, 0.00, 0.00, 0.00, 0.00, 0.00, 0.00, -9859.96, 0.000, 0.000, 0.000, 14:43:22.643, 1553971402643
180, -30709.11, 0.00, 0.00, 0.00, 0.00, 0.00, 0.00, -9877.64, 0.000, 0.000, 0.000, 14:43:22.643, 1553971402643
181, -30729.69, 0.00, 0.00, 0.00, 0.00, 0.00, 0.00, -9897.11, 0.000, 0.000, 0.000, 14:43:22.643, 1553971402643
182, -30773.34, 0.00, 0.00, 0.00, 0.00, 0.00, 0.00, -9896.26, 0.000, 0.000, 0.000, 14:43:22.643, 1553971402643
183, -30759.38, 0.00, 0.00, 0.00, 0.00, 0.00, 0.00, -9880.97, 0.000, 0.000, 0.000, 14:43:22.643, 1553971402643
184, -30716.48, 0.00, 0.00, 0.00, 0.00, 0.00, 0.00, -9878.08, 0.000, 0.000, 0.000, 14:43:22.643, 1553971402643
185, -30708.95, 0.00, 0.00, 0.00, 0.00, 0.00, 0.00, -9882.42, 0.000, 0.000, 0.000, 14:43:22.644, 1553971402644
186, -30744.87, 0.00, 0.00, 0.00, 0.00, 0.00, 0.00, -9871.94, 0.000, 0.000, 0.000, 14:43:22.644, 1553971402644
187, -30744.20, 0.00, 0.00, 0.00, 0.00, 0.00, 0.00, -9860.94, 0.000, 0.000, 0.000, 14:43:22.644, 1553971402644
188, -30712.90, 0.00, 0.00, 0.00, 0.00, 0.00, 0.00, -9870.66, 0.040, 0.080, -1.032, 14:43:22.644, 1553971402644
189, -30704.95, 0.00, 0.00, 0.00, 0.00, 0.00, 0.00, -9880.32, 0.000, 0.000, 0.000, 14:43:22.644, 1553971402644
190, -30737.38, 0.00, 0.00, 0.00, 0.00, 0.00, 0.00, -9874.02, 0.000, 0.000, 0.000, 14:43:22.644, 1553971402644
191, -30750.75, 0.00, 0.00, 0.00, 0.00, 0.00, 0.00, -9863.71, 0.000, 0.000, 0.000, 14:43:22.644, 1553971402644
192, -30711.59, 0.00, 0.00, 0.00, 0.00, 0.00, 0.00, -9865.39, 0.000, 0.000, 0.000, 14:43:22.644, 1553971402644
193, -30702.18, 0.00, 0.00, 0.00, 0.00, 0.00, 0.00, -9886.76, 0.000, 0.000, 0.000, 14:43:22.644, 1553971402644
194, -30744.71, 0.00, 0.00, 0.00, 0.00, 0.00, 0.00, -9900.17, 0.000, 0.000, 0.000, 14:43:22.644, 1553971402644
195, -30758.70, 0.00, 0.00, 0.00, 0.00, 0.00, 0.00, -9880.88, 0.000, 0.000, 0.000, 14:43:22.644, 1553971402644
196, -30724.84, 0.00, 0.00, 0.00, 0.00, 0.00, 0.00, -9873.93, 0.000, 0.000, 0.000, 14:43:22.645, 1553971402645
197, -30698.38, 0.00, 0.00, 0.00, 0.00, 0.00, 0.00, -9885.26, 0.000, 0.000, 0.000, 14:43:23.115, 1553971403115
198, -30738.47, 0.00, 0.00, 0.00, 0.00, 0.00, 0.00, -9897.15, 0.046, 0.090, -1.026, 14:43:23.115, 1553971403115
199, -30763.53, 0.00, 0.00, 0.00, 0.00, 0.00, 0.00, -9887.72, 0.000, 0.000, 0.000, 14:43:23.115, 1553971403115
200, -30727.61, 0.00, 0.00, 0.00, 0.00, 0.00, 0.00, -9874.33, 0.000, 0.000, 0.000, 14:43:23.115, 1553971403115
201, -30702.24, 0.00, 0.00, 0.00, 0.00, 0.00, 0.00, -9887.27, 0.000, 0.000, 0.000, 14:43:23.115, 1553971403115
202, -30728.73, 0.00, 0.00, 0.00, 0.00, 0.00, 0.00, -9902.69, 0.000, 0.000, 0.000, 14:43:23.115, 1553971403115
203, -30762.79, 0.00, 0.00, 0.00, 0.00, 0.00, 0.00, -9900.12, 0.000, 0.000, 0.000, 14:43:23.115, 1553971403115
204, -30751.78, 0.00, 0.00, 0.00, 0.00, 0.00, 0.00, -9894.92, 0.000, 0.000, 0.000, 14:43:23.115, 1553971403115
205, -30720.42, 0.00, 0.00, 0.00, 0.00, 0.00, 0.00, -9905.96, 0.000, 0.000, 0.000, 14:43:23.115, 1553971403115
206, -30725.85, 0.00, 0.00, 0.00, 0.00, 0.00, 0.00, -9907.86, 0.000, 0.000, 0.000, 14:43:23.115, 1553971403115
207, -30758.55, 0.00, 0.00, 0.00, 0.00, 0.00, 0.00, -9892.64, 0.000, 0.000, 0.000, 14:43:23.115, 1553971403115
208, -30754.70, 0.00, 0.00, 0.00, 0.00, 0.00, 0.00, -9887.23, 0.042, 0.084, -1.028, 14:43:23.115, 1553971403115
209, -30709.98, 0.00, 0.00, 0.00, 0.00, 0.00, 0.00, -9889.75, 0.000, 0.000, 0.000, 14:43:23.115, 1553971403115
210, -30711.32, 0.00, 0.00, 0.00, 0.00, 0.00, 0.00, -9898.65, 0.000, 0.000, 0.000, 14:43:23.115, 1553971403115
211, -30758.50, 0.00, 0.00, 0.00, 0.00, 0.00, 0.00, -9892.41, 0.000, 0.000, 0.000, 14:43:23.116, 1553971403116
212, -30757.36, 0.00, 0.00, 0.00, 0.00, 0.00, 0.00, -9879.05, 0.000, 0.000, 0.000, 14:43:23.116, 1553971403116
213, -30728.86, 0.00, 0.00, 0.00, 0.00, 0.00, 0.00, -9889.08, 0.000, 0.000, 0.000, 14:43:23.116, 1553971403116
214, -30701.48, 0.00, 0.00, 0.00, 0.00, 0.00, 0.00, -9887.83, 0.000, 0.000, 0.000, 14:43:23.116, 1553971403116
215, -30745.81, 0.00, 0.00, 0.00, 0.00, 0.00, 0.00, -9888.10, 0.000, 0.000, 0.000, 14:43:23.116, 1553971403116
216, -30776.21, 0.00, 0.00, 0.00, 0.00, 0.00, 0.00, -9891.70, 0.000, 0.000, 0.000, 14:43:23.116, 1553971403116
217, -30736.22, 0.00, 0.00, 0.00, 0.00, 0.00, 0.00, -9892.55, 0.000, 0.000, 0.000, 14:43:23.116, 1553971403116
218, -30717.58, 0.00, 0.00, 0.00, 0.00, 0.00, 0.00, -9903.36, 0.044, 0.086, -1.028, 14:43:23.116, 1553971403116
219, -30742.03, 0.00, 0.00, 0.00, 0.00, 0.00, 0.00, -9902.65, 0.000, 0.000, 0.000, 14:43:23.116, 1553971403116
220, -30774.82, 0.00, 0.00, 0.00, 0.00, 0.00, 0.00, -9897.40, 0.000, 0.000, 0.000, 14:43:23.116, 1553971403116
221, -30751.35, 0.00, 0.00, 0.00, 0.00, 0.00, 0.00, -9894.67, 0.000, 0.000, 0.000, 14:43:23.116, 1553971403116
222, -30725.94, 0.00, 0.00, 0.00, 0.00, 0.00, 0.00, -9907.12, 0.000, 0.000, 0.000, 14:43:23.116, 1553971403116
223, -30744.51, 0.00, 0.00, 0.00, 0.00, 0.00, 0.00, -9911.77, 0.000, 0.000, 0.000, 14:43:23.116, 1553971403116
224, -30776.63, 0.00, 0.00, 0.00, 0.00, 0.00, 0.00, -9903.92, 0.000, 0.000, 0.000, 14:43:23.116, 1553971403116
225, -30756.96, 0.00, 0.00, 0.00, 0.00, 0.00, 0.00, -9899.63, 0.000, 0.000, 0.000, 14:43:23.116, 1553971403116
226, -30727.66, 0.00, 0.00, 0.00, 0.00, 0.00, 0.00, -9912.39, 0.000, 0.000, 0.000, 14:43:23.116, 1553971403116
227, -30744.67, 0.00, 0.00, 0.00, 0.00, 0.00, 0.00, -9920.64, 0.000, 0.000, 0.000, 14:43:23.116, 1553971403116
228, -30783.47, 0.00, 0.00, 0.00, 0.00, 0.00, 0.00, -9915.19, 0.038, 0.084, -1.024, 14:43:23.117, 1553971403117
229, -30777.68, 0.00, 0.00, 0.00, 0.00, 0.00, 0.00, -9906.25, 0.000, 0.000, 0.000, 14:43:23.117, 1553971403117
230, -30719.54, 0.00, 0.00, 0.00, 0.00, 0.00, 0.00, -9899.70, 0.000, 0.000, 0.000, 14:43:23.117, 1553971403117
231, -30722.47, 0.00, 0.00, 0.00, 0.00, 0.00, 0.00, -9906.87, 0.000, 0.000, 0.000, 14:43:23.118, 1553971403118
232, -30777.10, 0.00, 0.00, 0.00, 0.00, 0.00, 0.00, -9913.62, 0.000, 0.000, 0.000, 14:43:23.118, 1553971403118
233, -30785.97, 0.00, 0.00, 0.00, 0.00, 0.00, 0.00, -9912.24, 0.000, 0.000, 0.000, 14:43:23.118, 1553971403118
234, -30738.41, 0.00, 0.00, 0.00, 0.00, 0.00, 0.00, -9906.67, 0.000, 0.000, 0.000, 14:43:23.118, 1553971403118
235, -30726.76, 0.00, 0.00, 0.00, 0.00, 0.00, 0.00, -9913.89, 0.000, 0.000, 0.000, 14:43:23.118, 1553971403118
236, -30762.79, 0.00, 0.00, 0.00, 0.00, 0.00, 0.00, -9904.73, 0.000, 0.000, 0.000, 14:43:23.118, 1553971403118
237, -30772.07, 0.00, 0.00, 0.00, 0.00, 0.00, 0.00, -9891.92, 0.038, 0.082, -1.028, 14:43:23.118, 1553971403118
238, -30725.56, 0.00, 0.00, 0.00, 0.00, 0.00, 0.00, -9882.47, 0.000, 0.000, 0.000, 14:43:23.118, 1553971403118
239, -30717.64, 0.00, 0.00, 0.00, 0.00, 0.00, 0.00, -9898.31, 0.000, 0.000, 0.000, 14:43:23.118, 1553971403118
240, -30753.96, 0.00, 0.00, 0.00, 0.00, 0.00, 0.00, -9896.15, 0.000, 0.000, 0.000, 14:43:23.118, 1553971403118
241, -30769.50, 0.00, 0.00, 0.00, 0.00, 0.00, 0.00, -9884.66, 0.000, 0.000, 0.000, 14:43:23.118, 1553971403118
242, -30732.44, 0.00, 0.00, 0.00, 0.00, 0.00, 0.00, -9885.33, 0.000, 0.000, 0.000, 14:43:23.118, 1553971403118
243, -30716.71, 0.00, 0.00, 0.00, 0.00, 0.00, 0.00, -9899.70, 0.000, 0.000, 0.000, 14:43:23.118, 1553971403118
244, -30744.13, 0.00, 0.00, 0.00, 0.00, 0.00, 0.00, -9897.96, 0.000, 0.000, 0.000, 14:43:23.118, 1553971403118
245, -30777.57, 0.00, 0.00, 0.00, 0.00, 0.00, 0.00, -9893.96, 0.000, 0.000, 0.000, 14:43:23.119, 1553971403119
246, -30738.54, 0.00, 0.00, 0.00, 0.00, 0.00, 0.00, -9882.78, 0.000, 0.000, 0.000, 14:43:23.119, 1553971403119
247, -30703.32, 0.00, 0.00, 0.00, 0.00, 0.00, 0.00, -9882.47, 0.038, 0.082, -1.028, 14:43:23.119, 1553971403119
248, -30729.89, 0.00, 0.00, 0.00, 0.00, 0.00, 0.00, -9889.55, 0.000, 0.000, 0.000, 14:43:23.119, 1553971403119
249, -30764.29, 0.00, 0.00, 0.00, 0.00, 0.00, 0.00, -9889.39, 0.000, 0.000, 0.000, 14:43:23.119, 1553971403119
250, -30748.94, 0.00, 0.00, 0.00, 0.00, 0.00, 0.00, -9886.42, 0.000, 0.000, 0.000, 14:43:23.119, 1553971403119
251, -30719.43, 0.00, 0.00, 0.00, 0.00, 0.00, 0.00, -9896.86, 0.000, 0.000, 0.000, 14:43:23.119, 1553971403119
252, -30738.79, 0.00, 0.00, 0.00, 0.00, 0.00, 0.00, -9906.92, 0.000, 0.000, 0.000, 14:43:23.119, 1553971403119
253, -30768.27, 0.00, 0.00, 0.00, 0.00, 0.00, 0.00, -9897.26, 0.000, 0.000, 0.000, 14:43:23.119, 1553971403119
254, -30747.19, 0.00, 0.00, 0.00, 0.00, 0.00, 0.00, -9885.89, 0.000, 0.000, 0.000, 14:43:23.119, 1553971403119
255, -30704.81, 0.00, 0.00, 0.00, 0.00, 0.00, 0.00, -9884.79, 0.000, 0.000, 0.000, 14:43:23.119, 1553971403119
0, -30717.08, 0.00, 0.00, 0.00, 0.00, 0.00, 0.00, -9891.92, 0.000, 0.000, 0.000, 14:43:23.119, 1553971403119
1, -30758.14, 0.00, 0.00, 0.00, 0.00, 0.00, 0.00, -9887.88, 0.048, 0.078, -1.030, 14:43:23.119, 1553971403119
2, -30751.51, 0.00, 0.00, 0.00, 0.00, 0.00, 0.00, -9874.93, 0.000, 0.000, 0.000, 14:43:23.119, 1553971403119
3, -30710.65, 0.00, 0.00, 0.00, 0.00, 0.00, 0.00, -9877.37, 0.000, 0.000, 0.000, 14:43:23.120, 1553971403120
4, -30711.79, 0.00, 0.00, 0.00, 0.00, 0.00, 0.00, -9895.63, 0.000, 0.000, 0.000, 14:43:23.120, 1553971403120
5, -30755.15, 0.00, 0.00, 0.00, 0.00, 0.00, 0.00, -9894.22, 0.000, 0.000, 0.000, 14:43:23.120, 1553971403120
6, -30759.40, 0.00, 0.00, 0.00, 0.00, 0.00, 0.00, -9881.30, 0.000, 0.000, 0.000, 14:43:23.120, 1553971403120
7, -30719.99, 0.00, 0.00, 0.00, 0.00, 0.00, 0.00, -9882.58, 0.000, 0.000, 0.000, 14:43:23.120, 1553971403120
8, -30704.41, 0.00, 0.00, 0.00, 0.00, 0.00, 0.00, -9892.46, 0.000, 0.000, 0.000, 14:43:23.120, 1553971403120
9, -30744.31, 0.00, 0.00, 0.00, 0.00, 0.00, 0.00, -9898.63, 0.000, 0.000, 0.000, 14:43:23.120, 1553971403120
10, -30770.73, 0.00, 0.00, 0.00, 0.00, 0.00, 0.00, -9894.36, 0.000, 0.000, 0.000, 14:43:23.120, 1553971403120
11, -30729.54, 0.00, 0.00, 0.00, 0.00, 0.00, 0.00, -9882.73, 0.056, 0.086, -1.030, 14:43:23.120, 1553971403120
12, -30703.16, 0.00, 0.00, 0.00, 0.00, 0.00, 0.00, -9893.82, 0.000, 0.000, 0.000, 14:43:23.120, 1553971403120
13, -30730.83, 0.00, 0.00, 0.00, 0.00, 0.00, 0.00, -9895.43, 0.000, 0.000, 0.000, 14:43:23.120, 1553971403120
14, -30764.49, 0.00, 0.00, 0.00, 0.00, 0.00, 0.00, -9885.30, 0.000, 0.000, 0.000, 14:43:23.120, 1553971403120
15, -30740.96, 0.00, 0.00, 0.00, 0.00, 0.00, 0.00, -9878.31, 0.000, 0.000, 0.000, 14:43:23.120, 1553971403120
16, -30713.35, 0.00, 0.00, 0.00, 0.00, 0.00, 0.00, -9897.17, 0.000, 0.000, 0.000, 14:43:23.120, 1553971403120
17, -30727.97, 0.00, 0.00, 0.00, 0.00, 0.00, 0.00, -9899.25, 0.000, 0.000, 0.000, 14:43:23.120, 1553971403120
18, -30758.30, 0.00, 0.00, 0.00, 0.00, 0.00, 0.00, -9886.42, 0.000, 0.000, 0.000, 14:43:23.121, 1553971403121
19, -30745.40, 0.00, 0.00, 0.00, 0.00, 0.00, 0.00, -9886.38, 0.000, 0.000, 0.000, 14:43:23.121, 1553971403121
20, -30707.07, 0.00, 0.00, 0.00, 0.00, 0.00, 0.00, -9890.49, 0.000, 0.000, 0.000, 14:43:23.121, 1553971403121
21, -30719.61, 0.00, 0.00, 0.00, 0.00, 0.00, 0.00, -9899.43, 0.050, 0.090, -1.026, 14:43:23.121, 1553971403121
22, -30762.12, 0.00, 0.00, 0.00, 0.00, 0.00, 0.00, -9893.87, 0.000, 0.000, 0.000, 14:43:23.121, 1553971403121
23, -30751.19, 0.00, 0.00, 0.00, 0.00, 0.00, 0.00, -9877.73, 0.000, 0.000, 0.000, 14:43:23.121, 1553971403121
24, -30706.33, 0.00, 0.00, 0.00, 0.00, 0.00, 0.00, -9877.77, 0.000, 0.000, 0.000, 14:43:23.121, 1553971403121
25, -30708.99, 0.00, 0.00, 0.00, 0.00, 0.00, 0.00, -9890.22, 0.000, 0.000, 0.000, 14:43:23.121, 1553971403121
26, -30751.78, 0.00, 0.00, 0.00, 0.00, 0.00, 0.00, -9883.67, 0.000, 0.000, 0.000, 14:43:23.121, 1553971403121
27, -30754.64, 0.00, 0.00, 0.00, 0.00, 0.00, 0.00, -9873.35, 0.000, 0.000, 0.000, 14:43:23.121, 1553971403121
28, -30719.28, 0.00, 0.00, 0.00, 0.00, 0.00, 0.00, -9881.59, 0.000, 0.000, 0.000, 14:43:23.121, 1553971403121
29, -30720.15, 0.00, 0.00, 0.00, 0.00, 0.00, 0.00, -9901.49, 0.000, 0.000, 0.000, 14:43:23.121, 1553971403121
30, -30765.99, 0.00, 0.00, 0.00, 0.00, 0.00, 0.00, -9903.03, 0.000, 0.000, 0.000, 14:43:23.121, 1553971403121
31, -30778.37, 0.00, 0.00, 0.00, 0.00, 0.00, 0.00, -9890.85, 0.048, 0.084, -1.026, 14:43:23.121, 1553971403121
32, -30727.59, 0.00, 0.00, 0.00, 0.00, 0.00, 0.00, -9882.35, 0.000, 0.000, 0.000, 14:43:23.121, 1553971403121
33, -30705.28, 0.00, 0.00, 0.00, 0.00, 0.00, 0.00, -9884.59, 0.000, 0.000, 0.000, 14:43:23.121, 1553971403121
34, -30746.19, 0.00, 0.00, 0.00, 0.00, 0.00, 0.00, -9891.34, 0.000, 0.000, 0.000, 14:43:23.122, 1553971403122
35, -30772.92, 0.00, 0.00, 0.00, 0.00, 0.00, 0.00, -9886.78, 0.000, 0.000, 0.000, 14:43:23.122, 1553971403122
36, -30735.39, 0.00, 0.00, 0.00, 0.00, 0.00, 0.00, -9878.82, 0.000, 0.000, 0.000, 14:43:23.122, 1553971403122
37, -30707.92, 0.00, 0.00, 0.00, 0.00, 0.00, 0.00, -9891.45, 0.000, 0.000, 0.000, 14:43:23.122, 1553971403122
38, -30740.33, 0.00, 0.00, 0.00, 0.00, 0.00, 0.00, -9899.56, 0.000, 0.000, 0.000, 14:43:23.122, 1553971403122
39, -30777.52, 0.00, 0.00, 0.00, 0.00, 0.00, 0.00, -9895.76, 0.000, 0.000, 0.000, 14:43:23.122, 1553971403122
40, -30754.86, 0.00, 0.00, 0.00, 0.00, 0.00, 0.00, -9895.97, 0.000, 0.000, 0.000, 14:43:23.122, 1553971403122
41, -30715.99, 0.00, 0.00, 0.00, 0.00, 0.00, 0.00, -9900.48, 0.036, 0.090, -1.024, 14:43:23.122, 1553971403122
42, -30742.05, 0.00, 0.00, 0.00, 0.00, 0.00, 0.00, -9913.20, 0.000, 0.000, 0.000, 14:43:23.122, 1553971403122
43, -30792.83, 0.00, 0.00, 0.00, 0.00, 0.00, 0.00, -9916.60, 0.000, 0.000, 0.000, 14:43:23.122, 1553971403122
44, -30773.05, 0.00, 0.00, 0.00, 0.00, 0.00, 0.00, -9906.76, 0.000, 0.000, 0.000, 14:43:23.122, 1553971403122
45, -30729.27, 0.00, 0.00, 0.00, 0.00, 0.00, 0.00, -9910.32, 0.000, 0.000, 0.000, 14:43:23.122, 1553971403122
46, -30739.95, 0.00, 0.00, 0.00, 0.00, 0.00, 0.00, -9920.93, 0.000, 0.000, 0.000, 14:43:23.122, 1553971403122
47, -30779.83, 0.00, 0.00, 0.00, 0.00, 0.00, 0.00, -9916.02, 0.000, 0.000, 0.000, 14:43:23.122, 1553971403122
48, -30784.59, 0.00, 0.00, 0.00, 0.00, 0.00, 0.00, -9916.04, 0.000, 0.000, 0.000, 14:43:23.122, 1553971403122
49, -30742.19, 0.00, 0.00, 0.00, 0.00, 0.00, 0.00, -9923.82, 0.000, 0.000, 0.000, 14:43:23.122, 1553971403122
50, -30737.11, 0.00, 0.00, 0.00, 0.00, 0.00, 0.00, -9928.96, 0.036, 0.086, -1.024, 14:43:23.122, 1553971403122
51, -30785.19, 0.00, 0.00, 0.00, 0.00, 0.00, 0.00, -9925.31, 0.000, 0.000, 0.000, 14:43:23.122, 1553971403122
52, -30796.72, 0.00, 0.00, 0.00, 0.00, 0.00, 0.00, -9918.63, 0.000, 0.000, 0.000, 14:43:23.122, 1553971403122
53, -30745.20, 0.00, 0.00, 0.00, 0.00, 0.00, 0.00, -9910.14, 0.000, 0.000, 0.000, 14:43:23.122, 1553971403122
54, -30743.08, 0.00, 0.00, 0.00, 0.00, 0.00, 0.00, -9922.65, 0.000, 0.000, 0.000, 14:43:23.122, 1553971403122
55, -30789.86, 0.00, 0.00, 0.00, 0.00, 0.00, 0.00, -9925.83, 0.000, 0.000, 0.000, 14:43:23.122, 1553971403122
56, -30798.11, 0.00, 0.00, 0.00, 0.00, 0.00, 0.00, -9923.66, 0.000, 0.000, 0.000, 14:43:23.122, 1553971403122
57, -30746.86, 0.00, 0.00, 0.00, 0.00, 0.00, 0.00, -9913.22, 0.000, 0.000, 0.000, 14:43:23.123, 1553971403123
58, -30725.33, 0.00, 0.00, 0.00, 0.00, 0.00, 0.00, -9912.42, 0.000, 0.000, 0.000, 14:43:23.123, 1553971403123
59, -30771.80, 0.00, 0.00, 0.00, 0.00, 0.00, 0.00, -9926.75, 0.000, 0.000, 0.000, 14:43:23.123, 1553971403123
60, -30791.52, 0.00, 0.00, 0.00, 0.00, 0.00, 0.00, -9912.62, 0.034, 0.084, -1.026, 14:43:23.123, 1553971403123
61, -30759.02, 0.00, 0.00, 0.00, 0.00, 0.00, 0.00, -9909.24, 0.000, 0.000, 0.000, 14:43:23.595, 1553971403595
